Data from 1_mm_pl_50pc_Absorbance__0__16-37-22-727.txt Node

Date: Wed Mar 08 16:37:22 CET 2023
User: Ange
Spectrometer: FLMT08341
Trigger mode: 0
Integration Time (sec): 1.000000E-2
Scans to average: 400
Electric dark correction enabled: true
Nonlinearity correction enabled: false
Boxcar width: 3
XAxis mode: Wavelengths
Number of Pixels in Spectrum: 3648
>>>>>Begin Spectral Data<<<<<
345.271	0.02239995
345.487	0.01676814
345.704	0.00090728
345.921	0.02238471
346.137	-0.00050716
346.354	0.01008407
346.571	-0.04625384
346.787	-0.15046675
347.004	-0.05737361
347.22	-0.17479028
347.437	-0.03290717
347.653	-0.23881704
347.87	0.12455813
348.086	0.0654866
348.303	-0.97206338
348.519	0.37291415
348.736	0.37144021
348.952	0.37462925
349.169	0.38814599
349.385	0.40414892
349.601	0.40652095
349.818	0.40138365
350.034	0.39645617
350.251	0.39448531
350.467	0.40030794
350.683	0.38516797
350.9	0.38450148
351.116	0.37888837
351.332	0.3721759
351.549	0.38521283
351.765	0.39398491
351.981	0.40005238
352.197	0.41804484
352.414	0.435862
352.63	0.44772831
352.846	0.46442278
353.062	0.45565585
353.278	0.44830017
353.495	0.45992728
353.711	0.46323514
353.927	0.46402524
354.143	0.46610828
354.359	0.45895131
354.575	0.45693439
354.792	0.46804951
355.008	0.45411472
355.224	0.44618165
355.44	0.44299295
355.656	0.43835736
355.872	0.44811737
356.088	0.47541397
356.304	0.47768981
356.52	0.48334864
356.736	0.49100123
356.952	0.49794288
357.168	0.50457108
357.384	0.50732724
357.6	0.4910881
357.816	0.4989091
358.032	0.5062264
358.248	0.52029385
358.464	0.51677231
358.679	0.52425264
358.895	0.52828309
359.111	0.5370685
359.327	0.52880916
359.543	0.53631817
359.759	0.54340761
359.974	0.54825128
360.19	0.54606539
360.406	0.54798152
360.622	0.54376799
360.838	0.54374338
361.053	0.54368864
361.269	0.54203716
361.485	0.54460825
361.701	0.54953609
361.916	0.54266018
362.132	0.54395284
362.348	0.54997796
362.563	0.55267213
362.779	0.54829463
362.995	0.55460024
363.21	0.5605528
363.426	0.56830138
363.641	0.57410374
363.857	0.5797512
364.073	0.57625043
364.288	0.57317151
364.504	0.58084498
364.719	0.58265833
364.935	0.58278037
365.15	0.58643054
365.366	0.58682948
365.581	0.59670164
365.797	0.60403907
366.012	0.59616324
366.228	0.58981664
366.443	0.59968429
366.658	0.59938189
366.874	0.59481346
367.089	0.60156901
367.305	0.60444649
367.52	0.61004796
367.735	0.61371871
367.951	0.6064365
368.166	0.60981283
368.381	0.62385142
368.597	0.61900228
368.812	0.62489339
369.027	0.63091181
369.243	0.63738764
369.458	0.65666777
369.673	0.66105049
369.888	0.66272165
370.104	0.66158922
370.319	0.66840738
370.534	0.6636076
370.749	0.66551703
370.964	0.66338488
371.179	0.66330272
371.395	0.65731286
371.61	0.66425174
371.825	0.65499933
372.04	0.66052895
372.255	0.65704888
372.47	0.65119293
372.685	0.64638325
372.9	0.64845989
373.115	0.64510043
373.33	0.64947039
373.545	0.65028227
373.76	0.6561662
373.975	0.65577178
374.19	0.65835522
374.405	0.66425396
374.62	0.67632938
374.835	0.68859246
375.05	0.69151764
375.265	0.69348592
375.48	0.70056792
375.695	0.7170625
375.91	0.71199355
376.125	0.70255206
376.339	0.68782293
376.554	0.68778171
376.769	0.69074442
376.984	0.69227474
377.199	0.69183778
377.414	0.69332583
377.628	0.70258099
377.843	0.71454764
378.058	0.71841527
378.273	0.7250451
378.487	0.72759098
378.702	0.73019082
378.917	0.73585253
379.131	0.73045446
379.346	0.72213517
379.561	0.72052355
379.775	0.71577351
379.99	0.71064338
380.205	0.70308378
380.419	0.69679561
380.634	0.69175491
380.848	0.70190906
381.063	0.7031855
381.278	0.71033644
381.492	0.70813288
381.707	0.71538327
381.921	0.71889455
382.136	0.73081106
382.35	0.72591065
382.565	0.72426619
382.779	0.72633774
382.994	0.73062522
383.208	0.72807529
383.422	0.73701155
383.637	0.73674456
383.851	0.74463439
384.066	0.75230921
384.28	0.75401976
384.494	0.75939475
384.709	0.7615163
384.923	0.76369015
385.137	0.75900196
385.352	0.75714258
385.566	0.75901054
385.78	0.75774161
385.995	0.75456166
386.209	0.75558372
386.423	0.75785659
386.637	0.7651192
386.852	0.7636478
387.066	0.76238326
387.28	0.75916796
387.494	0.76749268
387.708	0.77077453
387.923	0.76844796
388.137	0.77354383
388.351	0.77918457
388.565	0.78583059
388.779	0.79127702
388.993	0.80033567
389.207	0.80239983
389.421	0.80672674
389.635	0.80263991
389.85	0.80190842
390.064	0.80181905
390.278	0.80488521
390.492	0.80093913
390.706	0.80375222
390.92	0.80582955
391.134	0.81299469
391.348	0.82444641
391.561	0.82325338
391.775	0.82138062
391.989	0.81834921
392.203	0.82193814
392.417	0.82520955
392.631	0.83006356
392.845	0.82474508
393.059	0.83214634
393.273	0.83228369
393.486	0.83136189
393.7	0.82603174
393.914	0.82877039
394.128	0.82587203
394.342	0.82374208
394.555	0.81601956
394.769	0.8173359
394.983	0.82228382
395.197	0.82789733
395.41	0.82652532
395.624	0.83052881
395.838	0.83186159
396.051	0.84422432
396.265	0.84418536
396.479	0.84601707
396.692	0.84597334
396.906	0.84425983
397.12	0.84149131
397.333	0.84690937
397.547	0.84237774
397.76	0.84791441
397.974	0.84883175
398.187	0.85200465
398.401	0.85788536
398.614	0.85916637
398.828	0.85890331
399.041	0.86038268
399.255	0.85981358
399.468	0.86106221
399.682	0.86179255
399.895	0.86425081
400.109	0.8645738
400.322	0.86483133
400.536	0.86071175
400.749	0.86733863
400.962	0.86953279
401.176	0.86759167
401.389	0.86441196
401.602	0.85951536
401.816	0.86220094
402.029	0.86888743
402.242	0.8649593
402.456	0.86322488
402.669	0.86125188
402.882	0.85592707
403.095	0.86423706
403.309	0.86373998
403.522	0.86502076
403.735	0.86408706
403.948	0.86508693
404.161	0.87581459
404.375	0.88109842
404.588	0.88060893
404.801	0.8817243
405.014	0.87792047
405.227	0.88353004
405.44	0.88621741
405.653	0.88723073
405.866	0.88467806
406.079	0.88318007
406.293	0.88235402
406.506	0.88354731
406.719	0.8803286
406.932	0.87875265
407.145	0.87289704
407.358	0.87938302
407.571	0.87676226
407.784	0.8773523
407.996	0.87931175
408.209	0.87739608
408.422	0.87523008
408.635	0.87579461
408.848	0.87507281
409.061	0.87209561
409.274	0.87129944
409.487	0.86972525
409.7	0.87110873
409.912	0.8729071
410.125	0.87291443
410.338	0.87198547
410.551	0.87488593
410.764	0.87458559
410.976	0.8745896
411.189	0.87321631
411.402	0.87060261
411.615	0.87126731
411.827	0.87155988
412.04	0.87258992
412.253	0.87178205
412.465	0.86950343
412.678	0.8678486
412.891	0.87031697
413.103	0.86415632
413.316	0.86209265
413.529	0.86414713
413.741	0.86662694
413.954	0.86828103
414.166	0.86893376
414.379	0.86606405
414.591	0.86990726
414.804	0.86773226
415.016	0.86474132
415.229	0.86143043
415.441	0.85829497
415.654	0.85991882
415.866	0.86037376
416.079	0.86102326
416.291	0.86010279
416.504	0.86244598
416.716	0.86282908
416.928	0.86315937
417.141	0.85939485
417.353	0.85942797
417.566	0.85405192
417.778	0.85420231
417.99	0.84768617
418.203	0.84353556
418.415	0.84227913
418.627	0.84226886
418.839	0.84021308
419.052	0.84414278
419.264	0.8432225
419.476	0.8444021
419.688	0.84547516
419.901	0.84473998
420.113	0.84269005
420.325	0.84099426
420.537	0.83579059
420.749	0.83562114
420.961	0.83539164
421.174	0.83340264
421.386	0.83017391
421.598	0.82855219
421.81	0.82719076
422.022	0.82597517
422.234	0.82338784
422.446	0.81993181
422.658	0.81764725
422.87	0.81739683
423.082	0.81626892
423.294	0.81398002
423.506	0.8131097
423.718	0.81168486
423.93	0.80907988
424.142	0.80645488
424.354	0.80344266
424.566	0.80125937
424.778	0.80044256
424.99	0.79735716
425.202	0.79395037
425.414	0.79339137
425.625	0.79336757
425.837	0.79019324
426.049	0.78956889
426.261	0.78623892
426.473	0.78335698
426.684	0.78170176
426.896	0.78075484
427.108	0.77721681
427.32	0.77743307
427.531	0.77395523
427.743	0.77257849
427.955	0.77374409
428.167	0.7713912
428.378	0.76840383
428.59	0.76707959
428.802	0.76473972
429.013	0.76252252
429.225	0.75964035
429.436	0.75583148
429.648	0.75416224
429.86	0.75262761
430.071	0.75086508
430.283	0.74892942
430.494	0.74648113
430.706	0.74496127
430.917	0.74256191
431.129	0.740309
431.34	0.73705889
431.552	0.73512867
431.763	0.73190177
431.975	0.73079886
432.186	0.72708301
432.398	0.72469659
432.609	0.72039742
432.821	0.71851371
433.032	0.71532739
433.243	0.71231855
433.455	0.70965275
433.666	0.70818926
433.877	0.70711916
434.089	0.7045572
434.3	0.70081792
434.511	0.69708909
434.723	0.69491119
434.934	0.69053499
435.145	0.68602239
435.356	0.68160035
435.568	0.67961283
435.779	0.67683003
435.99	0.67370043
436.201	0.6706892
436.412	0.66818167
436.624	0.66735127
436.835	0.66569429
437.046	0.66406332
437.257	0.66178538
437.468	0.66152894
437.679	0.66009536
437.89	0.65803093
438.101	0.65605601
438.312	0.65325615
438.523	0.65036314
438.734	0.64828816
438.945	0.64506566
439.156	0.64130812
439.367	0.63907968
439.578	0.63630843
439.789	0.6325848
440	0.63014621
440.211	0.62665395
440.422	0.6238401
440.633	0.62228472
440.844	0.61869273
441.055	0.61531685
441.266	0.61368305
441.477	0.61025853
441.687	0.60791836
441.898	0.60534798
442.109	0.60145609
442.32	0.59884806
442.531	0.59537305
442.741	0.59132438
442.952	0.58838568
443.163	0.58562957
443.374	0.58217685
443.584	0.57941205
443.795	0.57691849
444.006	0.57461915
444.216	0.5720065
444.427	0.56879563
444.638	0.56556075
444.848	0.56246794
445.059	0.55975927
445.27	0.55654389
445.48	0.55325117
445.691	0.55093915
445.901	0.54869178
446.112	0.54631554
446.323	0.54315894
446.533	0.54029785
446.744	0.53713256
446.954	0.53434342
447.165	0.53128363
447.375	0.52887105
447.586	0.52645019
447.796	0.52450116
448.006	0.52172115
448.217	0.5198292
448.427	0.51725564
448.638	0.51416036
448.848	0.51066987
449.058	0.50736346
449.269	0.50449998
449.479	0.50168672
449.689	0.49839784
449.9	0.49590498
450.11	0.49331932
450.32	0.4914193
450.531	0.48865679
450.741	0.48575377
450.951	0.48328433
451.161	0.48065494
451.372	0.47781136
451.582	0.4763748
451.792	0.47319657
452.002	0.47049298
452.212	0.46774536
452.422	0.46500994
452.633	0.46210912
452.843	0.46005722
453.053	0.45612617
453.263	0.45398628
453.473	0.45140965
453.683	0.44940255
453.893	0.44673681
454.103	0.44500619
454.313	0.44230006
454.523	0.44002713
454.733	0.43745405
454.943	0.4353103
455.153	0.43301656
455.363	0.43060019
455.573	0.42800941
455.783	0.42567818
455.993	0.42332019
456.203	0.42132838
456.413	0.41895645
456.623	0.41635178
456.833	0.41469548
457.042	0.4122553
457.252	0.40981706
457.462	0.40738465
457.672	0.40503064
457.882	0.40284299
458.091	0.40059218
458.301	0.39793705
458.511	0.39578958
458.721	0.39376033
458.931	0.39180541
459.14	0.38968739
459.35	0.38794443
459.56	0.38600611
459.769	0.38434845
459.979	0.38234427
460.189	0.38031064
460.398	0.37829894
460.608	0.37648834
460.817	0.37442224
461.027	0.37256931
461.237	0.37046842
461.446	0.36863595
461.656	0.36722722
461.865	0.36524354
462.075	0.36329541
462.284	0.36162047
462.494	0.35970939
462.703	0.3576562
462.913	0.35593759
463.122	0.35378266
463.332	0.35216014
463.541	0.35064127
463.751	0.34886699
463.96	0.34733787
464.169	0.34586047
464.379	0.34451984
464.588	0.34294788
464.797	0.34137381
465.007	0.33975152
465.216	0.33826027
465.425	0.33669196
465.635	0.33526352
465.844	0.33342289
466.053	0.33204415
466.263	0.33059677
466.472	0.32892114
466.681	0.3273798
466.89	0.32576254
467.099	0.32435983
467.309	0.32314368
467.518	0.32196063
467.727	0.32075312
467.936	0.31973195
468.145	0.31855834
468.354	0.31762121
468.563	0.31625866
468.772	0.31506344
468.982	0.31358646
469.191	0.31253118
469.4	0.3111664
469.609	0.31009903
469.818	0.30920779
470.027	0.30828764
470.236	0.30715727
470.445	0.30631182
470.654	0.30508591
470.863	0.30402829
471.072	0.30301365
471.28	0.30175188
471.489	0.30092097
471.698	0.30002159
471.907	0.29900095
472.116	0.29820029
472.325	0.29747333
472.534	0.29659246
472.743	0.29558047
472.951	0.29478333
473.16	0.29410188
473.369	0.29327879
473.578	0.29258409
473.786	0.29193737
473.995	0.29120881
474.204	0.29072589
474.413	0.28998176
474.621	0.28931433
474.83	0.28892932
475.039	0.28825154
475.247	0.2876554
475.456	0.28706729
475.665	0.28658185
475.873	0.28597958
476.082	0.28529195
476.291	0.2846955
476.499	0.28424701
476.708	0.28352651
476.916	0.28311608
477.125	0.28260783
477.333	0.28215048
477.542	0.28177471
477.75	0.28125181
477.959	0.28090291
478.167	0.28074514
478.376	0.28037697
478.584	0.2800064
478.793	0.27968151
479.001	0.27929378
479.209	0.27905634
479.418	0.27868751
479.626	0.27830701
479.834	0.27797464
480.043	0.27785324
480.251	0.27755017
480.459	0.27741595
480.668	0.27722192
480.876	0.27713603
481.084	0.27700081
481.293	0.276908
481.501	0.2766235
481.709	0.27659308
481.917	0.27649669
482.125	0.27645227
482.334	0.27640831
482.542	0.27634517
482.75	0.27620716
482.958	0.27629279
483.166	0.27640051
483.374	0.27650528
483.583	0.27657861
483.791	0.27666414
483.999	0.27671696
484.207	0.27697399
484.415	0.27698714
484.623	0.27689334
484.831	0.27698091
485.039	0.27713728
485.247	0.27723588
485.455	0.27739566
485.663	0.27755329
485.871	0.27775816
486.079	0.27800044
486.287	0.27822108
486.495	0.27835344
486.702	0.27861776
486.91	0.27891257
487.118	0.27913211
487.326	0.27940241
487.534	0.27973614
487.742	0.28003719
487.95	0.28037301
488.157	0.28073859
488.365	0.28112659
488.573	0.28150551
488.781	0.28192118
488.988	0.28244539
489.196	0.28294668
489.404	0.28336567
489.612	0.28378626
489.819	0.2842452
490.027	0.28475525
490.235	0.28527962
490.442	0.28578634
490.65	0.28624602
490.857	0.28694039
491.065	0.2874271
491.273	0.28801958
491.48	0.28856193
491.688	0.28908703
491.895	0.28953291
492.103	0.29015631
492.31	0.29066081
492.518	0.2912942
492.725	0.29191927
492.933	0.29255116
493.14	0.29323796
493.348	0.29392641
493.555	0.29456175
493.763	0.29526797
493.97	0.29589073
494.177	0.29657117
494.385	0.29728683
494.592	0.29802026
494.8	0.29880167
495.007	0.299516
495.214	0.30020168
495.422	0.3010384
495.629	0.30183526
495.836	0.30260145
496.043	0.30343445
496.251	0.30424682
496.458	0.3051466
496.665	0.30609203
496.872	0.30700913
497.08	0.30785023
497.287	0.30866592
497.494	0.30953831
497.701	0.31036564
497.908	0.31118078
498.115	0.31194703
498.322	0.31269645
498.53	0.31355123
498.737	0.31451533
498.944	0.3153634
499.151	0.3164617
499.358	0.31745272
499.565	0.31844454
499.772	0.31960016
499.979	0.32064275
500.186	0.321711
500.393	0.32275317
500.6	0.3236476
500.807	0.32469321
501.014	0.32575679
501.221	0.32675097
501.427	0.32775601
501.634	0.32877886
501.841	0.3297725
502.048	0.33079833
502.255	0.33166794
502.462	0.33277948
502.669	0.33398978
502.875	0.33516624
503.082	0.33625227
503.289	0.33748943
503.496	0.33871035
503.702	0.33995889
503.909	0.34110173
504.116	0.34217258
504.323	0.34332929
504.529	0.34458654
504.736	0.34576035
504.943	0.34685409
505.149	0.34806733
505.356	0.34934907
505.563	0.35061625
505.769	0.3518848
505.976	0.35311642
506.182	0.35443646
506.389	0.3558393
506.595	0.35731068
506.802	0.35852275
507.008	0.35975661
507.215	0.36096683
507.421	0.36220303
507.628	0.36339347
507.834	0.36462992
508.041	0.36590083
508.247	0.36724735
508.454	0.36860965
508.66	0.36991789
508.866	0.37132884
509.073	0.37277771
509.279	0.37414133
509.486	0.37539798
509.692	0.37674285
509.898	0.37813689
510.105	0.37952107
510.311	0.38083891
510.517	0.38220064
510.723	0.3836073
510.93	0.38487854
511.136	0.38626664
511.342	0.38760728
511.548	0.38898015
511.754	0.39038028
511.961	0.39170457
512.167	0.39298127
512.373	0.39443499
512.579	0.3959082
512.785	0.39730398
512.991	0.39876234
513.197	0.40017038
513.404	0.40165568
513.61	0.40317736
513.816	0.40462569
514.022	0.40610211
514.228	0.40755191
514.434	0.40894458
514.64	0.41044132
514.846	0.41197318
515.052	0.41352618
515.258	0.4149907
515.464	0.41635928
515.669	0.41784057
515.875	0.41944511
516.081	0.42086834
516.287	0.4223753
516.493	0.42388937
516.699	0.4254262
516.905	0.42691539
517.111	0.4283935
517.316	0.42992745
517.522	0.43151011
517.728	0.43296076
517.934	0.43439026
518.139	0.43585314
518.345	0.43736518
518.551	0.4390828
518.757	0.4406061
518.962	0.44221089
519.168	0.44376855
519.374	0.4452563
519.579	0.44683281
519.785	0.44837307
519.991	0.44977958
520.196	0.45132029
520.402	0.45281264
520.607	0.45439353
520.813	0.45613565
521.018	0.45779951
521.224	0.4593813
521.429	0.4610776
521.635	0.46269887
521.84	0.46427763
522.046	0.46598577
522.251	0.46762406
522.457	0.46917937
522.662	0.47091893
522.868	0.47246827
523.073	0.4739896
523.279	0.47553833
523.484	0.47691787
523.689	0.47844848
523.895	0.48015598
524.1	0.48163682
524.305	0.48322349
524.511	0.48487497
524.716	0.48661649
524.921	0.48833088
525.126	0.49005344
525.332	0.49154202
525.537	0.49310248
525.742	0.49479108
525.947	0.4964505
526.153	0.49796212
526.358	0.49958248
526.563	0.50108034
526.768	0.50279174
526.973	0.50452367
527.178	0.50615403
527.383	0.50775726
527.588	0.50942192
527.794	0.5110031
527.999	0.51267592
528.204	0.51430669
528.409	0.51590268
528.614	0.51754677
528.819	0.51920764
529.024	0.52082508
529.229	0.52240781
529.434	0.52410697
529.639	0.52560047
529.843	0.52720133
530.048	0.52868527
530.253	0.5301923
530.458	0.53182673
530.663	0.53347581
530.868	0.53505006
531.073	0.53659258
531.278	0.53804146
531.482	0.53967465
531.687	0.54124489
531.892	0.54273863
532.097	0.54428382
532.302	0.54589685
532.506	0.54756392
532.711	0.549288
532.916	0.55085589
533.12	0.55244694
533.325	0.55402377
533.53	0.55563164
533.734	0.55710336
533.939	0.55868224
534.144	0.56029203
534.348	0.56195694
534.553	0.56361613
534.757	0.56522943
534.962	0.56691392
535.167	0.56863272
535.371	0.57023634
535.576	0.57192565
535.78	0.57354364
535.985	0.57517978
536.189	0.57680775
536.394	0.57843305
536.598	0.57996859
536.803	0.58157966
537.007	0.58303467
537.211	0.58464196
537.416	0.58617361
537.62	0.58778131
537.825	0.58930258
538.029	0.59117964
538.233	0.59271266
538.438	0.59439321
538.642	0.59575323
538.846	0.59738888
539.05	0.59890833
539.255	0.60042996
539.459	0.60175819
539.663	0.60338722
539.867	0.60493394
540.072	0.6066059
540.276	0.60802756
540.48	0.60958309
540.684	0.61107649
540.888	0.61266097
541.092	0.61406534
541.297	0.61556207
541.501	0.61709428
541.705	0.61871883
541.909	0.62018414
542.113	0.62159712
542.317	0.62311456
542.521	0.62471517
542.725	0.62624011
542.929	0.62779749
543.133	0.62931112
543.337	0.6309318
543.541	0.63250138
543.745	0.63386754
543.949	0.63542782
544.153	0.6368633
544.357	0.63836075
544.56	0.63994588
544.764	0.64143772
544.968	0.64288965
545.172	0.64425504
545.376	0.64572813
545.58	0.64727613
545.783	0.64882187
545.987	0.65000254
546.191	0.65129419
546.395	0.65281448
546.598	0.6543956
546.802	0.65585064
547.006	0.65730837
547.21	0.65841807
547.413	0.65999646
547.617	0.66153008
547.821	0.66293634
548.024	0.66446961
548.228	0.66585122
548.431	0.66720076
548.635	0.66869337
548.839	0.67009003
549.042	0.67156246
549.246	0.67298457
549.449	0.67424669
549.653	0.67559883
549.856	0.6770138
550.06	0.67842079
550.263	0.67976916
550.467	0.68105622
550.67	0.68246691
550.874	0.68375867
551.077	0.68515917
551.28	0.68664696
551.484	0.68816774
551.687	0.68960659
551.891	0.69118395
552.094	0.69255179
552.297	0.69414921
552.501	0.69566964
552.704	0.69702028
552.907	0.69828736
553.11	0.6994857
553.314	0.70057315
553.517	0.7015164
553.72	0.7026481
553.923	0.70381698
554.127	0.70503144
554.33	0.70605958
554.533	0.70743595
554.736	0.70860658
554.939	0.71008568
555.142	0.71150975
555.345	0.71277129
555.549	0.71422072
555.752	0.7157427
555.955	0.71711778
556.158	0.71870736
556.361	0.72005026
556.564	0.72115274
556.767	0.7224279
556.97	0.72357747
557.173	0.72477395
557.376	0.72614577
557.579	0.72725509
557.782	0.72857269
557.984	0.72996068
558.187	0.73124136
558.39	0.73243321
558.593	0.73382045
558.796	0.73479554
558.999	0.73591795
559.202	0.73703619
559.404	0.73804258
559.607	0.73916764
559.81	0.74025782
560.013	0.74122845
560.216	0.74233645
560.418	0.74364772
560.621	0.7448034
560.824	0.74607589
561.026	0.74734468
561.229	0.7484949
561.432	0.74968713
561.634	0.7508611
561.837	0.75172903
562.04	0.75286521
562.242	0.75396242
562.445	0.75495731
562.647	0.75612696
562.85	0.75710156
563.053	0.75826814
563.255	0.75955693
563.458	0.76064751
563.66	0.76176951
563.863	0.76300734
564.065	0.76414881
564.268	0.76530366
564.47	0.76627778
564.672	0.76715468
564.875	0.76829156
565.077	0.76919989
565.28	0.76992392
565.482	0.77090714
565.684	0.77180235
565.887	0.77286234
566.089	0.77405423
566.291	0.77495294
566.494	0.77604944
566.696	0.77706825
566.898	0.77813736
567.1	0.77924489
567.303	0.78026173
567.505	0.78123678
567.707	0.78204413
567.909	0.78278952
568.111	0.78366871
568.314	0.78447909
568.516	0.78526573
568.718	0.78602544
568.92	0.78688587
569.122	0.78789664
569.324	0.78893003
569.526	0.78980539
569.728	0.79089016
569.93	0.79186367
570.132	0.79283634
570.334	0.79376073
570.536	0.79465959
570.738	0.79555222
570.94	0.79647537
571.142	0.79725341
571.344	0.79795842
571.546	0.79870471
571.748	0.79957077
571.95	0.8002365
572.152	0.80088492
572.354	0.80165183
572.555	0.80247435
572.757	0.80357534
572.959	0.80434405
573.161	0.804878
573.363	0.80578123
573.564	0.8068451
573.766	0.80763191
573.968	0.80840049
574.17	0.80876532
574.371	0.8096078
574.573	0.81036954
574.775	0.81079418
574.976	0.81127051
575.178	0.8119497
575.38	0.81226749
575.581	0.81269823
575.783	0.81333786
575.985	0.81395576
576.186	0.81482394
576.388	0.81551651
576.589	0.8160325
576.791	0.81689835
576.992	0.81790247
577.194	0.81841631
577.395	0.81894443
577.597	0.81959229
577.798	0.82016625
578	0.82073937
578.201	0.82123231
578.402	0.82178977
578.604	0.82216836
578.805	0.82280903
579.007	0.82331327
579.208	0.8238837
579.409	0.82456043
579.611	0.82494428
579.812	0.82566516
580.013	0.82639113
580.215	0.82676915
580.416	0.82727092
580.617	0.82761293
580.818	0.82809047
581.019	0.82863168
581.221	0.82884929
581.422	0.82927706
581.623	0.82994481
581.824	0.83017492
582.025	0.83064629
582.226	0.83098392
582.428	0.83143291
582.629	0.83184857
582.83	0.83210764
583.031	0.83230558
583.232	0.83309918
583.433	0.83364598
583.634	0.83396832
583.835	0.83436289
584.036	0.83460297
584.237	0.83510874
584.438	0.83554218
584.639	0.83557927
584.84	0.83591749
585.041	0.83626078
585.242	0.83656797
585.442	0.83688377
585.643	0.8372088
585.844	0.83736466
586.045	0.83770182
586.246	0.83759031
586.447	0.83763235
586.647	0.83758007
586.848	0.83769359
587.049	0.83779008
587.25	0.83794012
587.45	0.83796751
587.651	0.8382795
587.852	0.83849589
588.053	0.83892022
588.253	0.83899126
588.454	0.83909279
588.655	0.83911604
588.855	0.83903102
589.056	0.83907753
589.256	0.83930622
589.457	0.83920814
589.658	0.83952303
589.858	0.83940415
590.059	0.83958802
590.259	0.83986067
590.46	0.83988464
590.66	0.83992197
590.861	0.84003102
591.061	0.83998693
591.262	0.84039658
591.462	0.84047943
591.662	0.84057754
591.863	0.84058368
592.063	0.84070285
592.264	0.84077833
592.464	0.84088354
592.664	0.84082924
592.865	0.84083584
593.065	0.8405697
593.265	0.84079857
593.465	0.84043594
593.666	0.84036105
593.866	0.84020204
594.066	0.84003157
594.266	0.83995738
594.467	0.83964212
594.667	0.83937306
594.867	0.83940753
595.067	0.83933006
595.267	0.83911718
595.467	0.83896222
595.668	0.83875994
595.868	0.83896724
596.068	0.8388257
596.268	0.83866497
596.468	0.83849914
596.668	0.83850051
596.868	0.83825104
597.068	0.83810995
597.268	0.83790875
597.468	0.83760156
597.668	0.83733733
597.868	0.83692891
598.068	0.83638909
598.268	0.83621335
598.467	0.83597072
598.667	0.83562645
598.867	0.83523435
599.067	0.83500823
599.267	0.83485554
599.467	0.83471852
599.667	0.83425144
599.866	0.83409071
600.066	0.83391215
600.266	0.83368087
600.466	0.83342437
600.665	0.83308386
600.865	0.83260496
601.065	0.83250166
601.264	0.8318727
601.464	0.83148081
601.664	0.83126125
601.863	0.83096484
602.063	0.83067484
602.263	0.83026414
602.462	0.82994851
602.662	0.82964013
602.861	0.82909441
603.061	0.82846195
603.26	0.82780212
603.46	0.8271057
603.659	0.82679146
603.859	0.82609346
604.058	0.8254722
604.258	0.82511064
604.457	0.82500544
604.657	0.82446653
604.856	0.8239985
605.056	0.82352132
605.255	0.82295789
605.454	0.82246319
605.654	0.82174844
605.853	0.82101748
606.052	0.82038782
606.252	0.81984452
606.451	0.81929175
606.65	0.81892966
606.849	0.8182761
607.049	0.81780559
607.248	0.81708269
607.447	0.81663799
607.646	0.81626656
607.845	0.81560808
608.045	0.8147613
608.244	0.81446788
608.443	0.81388041
608.642	0.81344985
608.841	0.8127717
609.04	0.81203416
609.239	0.81150552
609.438	0.81097039
609.637	0.81022833
609.836	0.80961058
610.035	0.80885629
610.234	0.80832784
610.433	0.80765257
610.632	0.80695789
610.831	0.80616881
611.03	0.80536845
611.229	0.80471727
611.428	0.80402711
611.627	0.80315812
611.826	0.80231109
612.025	0.80155415
612.224	0.80073244
612.422	0.79999123
612.621	0.79903333
612.82	0.79825534
613.019	0.79745515
613.218	0.79673598
613.416	0.79573934
613.615	0.79501096
613.814	0.79406897
614.012	0.79331566
614.211	0.79239538
614.41	0.79162662
614.608	0.79081461
614.807	0.79008886
615.006	0.7892429
615.204	0.78835069
615.403	0.78764477
615.602	0.7869154
615.8	0.78613436
615.999	0.78507227
616.197	0.78420503
616.396	0.78341977
616.594	0.78258249
616.793	0.78173006
616.991	0.7808466
617.19	0.77982218
617.388	0.77922288
617.586	0.7783718
617.785	0.7775393
617.983	0.77679296
618.182	0.77572669
618.38	0.77463609
618.578	0.77375421
618.777	0.77279088
618.975	0.7719715
619.173	0.77104882
619.372	0.77014688
619.57	0.76922461
619.768	0.76851218
619.966	0.76757394
620.165	0.7664885
620.363	0.7655284
620.561	0.76441533
620.759	0.7633883
620.957	0.7625105
621.155	0.76144044
621.354	0.76061782
621.552	0.75988898
621.75	0.75876809
621.948	0.75788493
622.146	0.75687058
622.344	0.75573989
622.542	0.75475276
622.74	0.75339272
622.938	0.75214335
623.136	0.75112368
623.334	0.75004364
623.532	0.74880113
623.73	0.74765249
623.928	0.74651773
624.126	0.74564942
624.324	0.7446858
624.522	0.7434343
624.719	0.74224158
624.917	0.74139709
625.115	0.74028222
625.313	0.73941391
625.511	0.73839466
625.708	0.73711152
625.906	0.73608746
626.104	0.73507435
626.302	0.73401801
626.499	0.7331173
626.697	0.73181594
626.895	0.73049741
627.093	0.72945626
627.29	0.72841619
627.488	0.72733317
627.686	0.72626006
627.883	0.7249538
628.081	0.72376415
628.278	0.72282356
628.476	0.7215603
628.673	0.72031662
628.871	0.71907692
629.068	0.71771527
629.266	0.7165052
629.463	0.71537121
629.661	0.71404093
629.858	0.71291512
630.056	0.71173787
630.253	0.71067229
630.451	0.70946901
630.648	0.70828983
630.845	0.70704517
631.043	0.70580217
631.24	0.70468481
631.438	0.70353074
631.635	0.70222143
631.832	0.70082821
632.029	0.6996403
632.227	0.69827485
632.424	0.69706382
632.621	0.69566471
632.818	0.69427254
633.016	0.69282282
633.213	0.69154826
633.41	0.69010813
633.607	0.68883809
633.804	0.68751605
634.001	0.68619882
634.199	0.68490262
634.396	0.68379933
634.593	0.68255655
634.79	0.68149267
634.987	0.6801841
635.184	0.67891327
635.381	0.67764834
635.578	0.67644806
635.775	0.67498097
635.972	0.67368397
636.169	0.6721751
636.366	0.67087101
636.563	0.66938929
636.76	0.6679015
636.957	0.66656122
637.153	0.665193
637.35	0.66403855
637.547	0.66286888
637.744	0.66155027
637.941	0.66044872
638.138	0.65922927
638.334	0.65788906
638.531	0.65669306
638.728	0.65523566
638.925	0.65393516
639.121	0.65264387
639.318	0.65118656
639.515	0.64977691
639.711	0.64840473
639.908	0.64675076
640.105	0.64532616
640.301	0.64390639
640.498	0.64247386
640.695	0.64119457
640.891	0.63995665
641.088	0.63869086
641.284	0.63761276
641.481	0.63642744
641.677	0.63512556
641.874	0.63372644
642.07	0.6324731
642.267	0.63125218
642.463	0.62978466
642.66	0.62857926
642.856	0.62713453
643.053	0.62564075
643.249	0.62438036
643.445	0.62294017
643.642	0.62140592
643.838	0.62011128
644.034	0.61867715
644.231	0.61738737
644.427	0.61619095
644.623	0.61487587
644.82	0.61352323
645.016	0.61206881
645.212	0.61050357
645.408	0.60888586
645.604	0.6075387
645.801	0.60607876
645.997	0.60454955
646.193	0.60320654
646.389	0.60202317
646.585	0.60090338
646.781	0.59966217
646.977	0.59830381
647.173	0.59686944
647.37	0.59553218
647.566	0.59407359
647.762	0.59273347
647.958	0.59140611
648.154	0.59004191
648.35	0.58869923
648.546	0.58743141
648.742	0.58624126
648.937	0.58491237
649.133	0.58363203
649.329	0.58221296
649.525	0.58092421
649.721	0.57956076
649.917	0.57823395
650.113	0.57666447
650.309	0.57533969
650.504	0.57378305
650.7	0.5723467
650.896	0.5708723
651.092	0.56936086
651.287	0.56790752
651.483	0.56659592
651.679	0.5652207
651.875	0.56391132
652.07	0.56262357
652.266	0.56141002
652.462	0.56010698
652.657	0.55869106
652.853	0.55724536
653.048	0.55581931
653.244	0.55431967
653.44	0.55281433
653.635	0.55119895
653.831	0.5497423
654.026	0.54852714
654.222	0.54716598
654.417	0.54590807
654.613	0.5445756
654.808	0.54314941
655.004	0.54193054
655.199	0.54062909
655.394	0.53920274
655.59	0.53793884
655.785	0.53646486
655.98	0.53509263
656.176	0.53368396
656.371	0.53236067
656.566	0.53098772
656.762	0.5295117
656.957	0.52807661
657.152	0.52664702
657.348	0.5252153
657.543	0.52389192
657.738	0.52231131
657.933	0.52087928
658.128	0.51943068
658.324	0.51793509
658.519	0.51658789
658.714	0.51522147
658.909	0.51378417
659.104	0.51254095
659.299	0.51117525
659.494	0.50987448
659.689	0.50862264
659.884	0.50729031
660.079	0.50601048
660.274	0.50479829
660.469	0.50343554
660.664	0.50219667
660.859	0.50081088
661.054	0.49936646
661.249	0.49793578
661.444	0.49646014
661.639	0.49495072
661.834	0.49352459
662.029	0.49206272
662.224	0.49067621
662.418	0.48935858
662.613	0.48805771
662.808	0.48670213
663.003	0.48539207
663.198	0.48400611
663.392	0.48258971
663.587	0.48137433
663.782	0.47996838
663.977	0.47853731
664.171	0.47722687
664.366	0.47581551
664.561	0.47445757
664.755	0.47313131
664.95	0.47175632
665.144	0.47045518
665.339	0.4691926
665.534	0.46790397
665.728	0.46674548
665.923	0.46553553
666.117	0.46422911
666.312	0.46291728
666.506	0.46167399
666.701	0.46029163
666.895	0.45901407
667.09	0.45757239
667.284	0.45627884
667.479	0.45492253
667.673	0.45346977
667.867	0.45210976
668.062	0.4508153
668.256	0.44948601
668.45	0.4483545
668.645	0.44700318
668.839	0.44577627
669.033	0.44450597
669.228	0.44313476
669.422	0.44184654
669.616	0.44039121
669.81	0.43894476
670.004	0.43764559
670.199	0.43628685
670.393	0.43509345
670.587	0.43390536
670.781	0.43271753
670.975	0.43161913
671.169	0.43036976
671.363	0.42916775
671.558	0.42804639
671.752	0.42676392
671.946	0.42557076
672.14	0.42430675
672.334	0.4229838
672.528	0.42181676
672.722	0.42037768
672.916	0.41891307
673.11	0.41747619
673.304	0.41621089
673.497	0.41476681
673.691	0.41357778
673.885	0.41217475
674.079	0.41100116
674.273	0.40976976
674.467	0.40865992
674.661	0.40732005
674.854	0.40614218
675.048	0.40488944
675.242	0.40379651
675.436	0.4025589
675.629	0.40136279
675.823	0.4001412
676.017	0.39904705
676.211	0.39783607
676.404	0.39657543
676.598	0.39527364
676.792	0.3941149
676.985	0.39296403
677.179	0.39169013
677.372	0.39030476
677.566	0.38907737
677.76	0.38777615
677.953	0.3864279
678.147	0.38510941
678.34	0.38381076
678.534	0.38256662
678.727	0.38146539
678.921	0.38041628
679.114	0.37927922
679.307	0.37824731
679.501	0.37708337
679.694	0.37591811
679.888	0.37480658
680.081	0.37369801
680.274	0.37236167
680.468	0.37121176
680.661	0.37002974
680.854	0.36895238
681.048	0.36790135
681.241	0.36682499
681.434	0.3657186
681.627	0.36475141
681.821	0.36374613
682.014	0.36281801
682.207	0.36175804
682.4	0.36067054
682.593	0.35962558
682.786	0.35848185
682.98	0.35729177
683.173	0.3562307
683.366	0.35506562
683.559	0.35390169
683.752	0.35274108
683.945	0.35150147
684.138	0.35038317
684.331	0.3493206
684.524	0.34824416
684.717	0.34715281
684.91	0.34622998
685.103	0.34537817
685.296	0.34449826
685.489	0.34357532
685.682	0.34260774
685.874	0.34165401
686.067	0.34067682
686.26	0.33968598
686.453	0.33857259
686.646	0.33743565
686.839	0.33643092
687.031	0.33531497
687.224	0.33406139
687.417	0.33301619
687.61	0.33184466
687.802	0.33070962
687.995	0.32965004
688.188	0.32848929
688.38	0.32735062
688.573	0.32634651
688.766	0.32519967
688.958	0.32405006
689.151	0.32295866
689.343	0.32190655
689.536	0.32086095
689.729	0.31986752
689.921	0.31887637
690.114	0.31787988
690.306	0.31700023
690.499	0.31614159
690.691	0.31528484
690.884	0.31443613
691.076	0.31355457
691.268	0.312636
691.461	0.31167628
691.653	0.31076065
691.846	0.30980649
692.038	0.30877223
692.23	0.30762645
692.423	0.306621
692.615	0.30560656
692.807	0.30464956
692.999	0.30360347
693.192	0.30261803
693.384	0.30173904
693.576	0.30090059
693.768	0.30010603
693.961	0.29923773
694.153	0.29846098
694.345	0.29768407
694.537	0.29683657
694.729	0.29597356
694.921	0.29504417
695.113	0.29405759
695.305	0.29306796
695.498	0.29199775
695.69	0.29109126
695.882	0.2901636
696.074	0.28925833
696.266	0.2884321
696.458	0.28755083
696.65	0.28677109
696.842	0.28591097
697.033	0.28493569
697.225	0.28403456
697.417	0.28317436
697.609	0.28222976
697.801	0.28137179
697.993	0.28047504
698.185	0.27968326
698.376	0.27889724
698.568	0.27801241
698.76	0.27722484
698.952	0.2765847
699.144	0.2758496
699.335	0.27520414
699.527	0.27447926
699.719	0.27380335
699.91	0.27317519
700.102	0.27239608
700.294	0.2716451
700.485	0.27089909
700.677	0.27006735
700.869	0.26938542
701.06	0.26864218
701.252	0.26793219
701.443	0.26723264
701.635	0.26649966
701.826	0.2658231
702.018	0.26519141
702.209	0.26451107
702.401	0.26374102
702.592	0.2630614
702.784	0.26237376
702.975	0.26160485
703.166	0.26089062
703.358	0.26004483
703.549	0.25921744
703.741	0.25852662
703.932	0.25775568
704.123	0.25701246
704.315	0.25633881
704.506	0.2556664
704.697	0.25495737
704.888	0.25433018
705.08	0.25361575
705.271	0.25287084
705.462	0.252126
705.653	0.25137138
705.844	0.25061806
706.035	0.24995907
706.227	0.24933553
706.418	0.24874591
706.609	0.24820986
706.8	0.24764257
706.991	0.24707649
707.182	0.24650938
707.373	0.24587471
707.564	0.24522231
707.755	0.24448866
707.946	0.24377803
708.137	0.24303052
708.328	0.24218765
708.519	0.24142863
708.71	0.2406448
708.901	0.239851
709.092	0.23918524
709.283	0.23849321
709.473	0.23783015
709.664	0.23738629
709.855	0.23685465
710.046	0.23646011
710.237	0.23597544
710.427	0.23546727
710.618	0.23497699
710.809	0.23451721
711	0.23399491
711.19	0.23348237
711.381	0.23299797
711.572	0.2324357
711.762	0.23187246
711.953	0.23126097
712.144	0.23066536
712.334	0.23007389
712.525	0.2295566
712.715	0.22903198
712.906	0.22856625
713.097	0.2281452
713.287	0.22776243
713.478	0.22732577
713.668	0.22688318
713.859	0.22639981
714.049	0.22588976
714.239	0.22550774
714.43	0.22505992
714.62	0.22464817
714.811	0.22426921
715.001	0.22389532
715.191	0.22340659
715.382	0.2229237
715.572	0.22243141
715.762	0.22197848
715.953	0.22153115
716.143	0.22108401
716.333	0.22054476
716.523	0.22010678
716.714	0.21969765
716.904	0.21914955
717.094	0.21863426
717.284	0.21803949
717.474	0.21743678
717.664	0.21706158
717.855	0.21665179
718.045	0.21620091
718.235	0.21588127
718.425	0.21552793
718.615	0.21522857
718.805	0.21491216
718.995	0.21455218
719.185	0.21421098
719.375	0.21387806
719.565	0.21351842
719.755	0.21314199
719.945	0.21278376
720.135	0.21248942
720.325	0.21204507
720.515	0.21160778
720.704	0.21121248
720.894	0.21080585
721.084	0.21038587
721.274	0.2099505
721.464	0.20945728
721.654	0.20910429
721.843	0.20874638
722.033	0.20838266
722.223	0.20791132
722.413	0.20747709
722.602	0.20709177
722.792	0.20680289
722.982	0.2064459
723.171	0.2060998
723.361	0.20570701
723.55	0.20546023
723.74	0.20523563
723.93	0.20496285
724.119	0.20469525
724.309	0.2045005
724.498	0.2042274
724.688	0.20403734
724.877	0.20382491
725.067	0.20363877
725.256	0.20343959
725.446	0.20315942
725.635	0.20278891
725.825	0.20243496
726.014	0.20209265
726.203	0.20172828
726.393	0.20136828
726.582	0.20094126
726.771	0.20067976
726.961	0.20038799
727.15	0.20011657
727.339	0.199774
727.529	0.19945803
727.718	0.19909368
727.907	0.19881272
728.096	0.19846198
728.286	0.19816935
728.475	0.19798971
728.664	0.19783065
728.853	0.19772718
729.042	0.19766805
729.231	0.19763382
729.42	0.19752573
729.609	0.19741612
729.799	0.1972247
729.988	0.19711899
730.177	0.19690578
730.366	0.19660611
730.555	0.19630909
730.744	0.19597554
730.933	0.19564745
731.122	0.19535588
731.31	0.19501473
731.499	0.19475049
731.688	0.19458582
731.877	0.19435736
732.066	0.19423417
732.255	0.19402915
732.444	0.193874
732.632	0.19370065
732.821	0.19359128
733.01	0.19341084
733.199	0.19320891
733.388	0.1929754
733.576	0.19281799
733.765	0.19260391
733.954	0.19241172
734.142	0.19209748
734.331	0.19180467
734.52	0.1916366
734.708	0.19141787
734.897	0.19129241
735.086	0.19107666
735.274	0.19082176
735.463	0.19066068
735.651	0.19043997
735.84	0.19023011
736.028	0.19002725
736.217	0.18976784
736.405	0.18962526
736.594	0.18954354
736.782	0.18942408
736.971	0.1893788
737.159	0.18936835
737.347	0.18942068
737.536	0.18940533
737.724	0.18932771
737.912	0.18915083
738.101	0.18905172
738.289	0.18899664
738.477	0.18879157
738.666	0.18856926
738.854	0.18843283
739.042	0.18833208
739.23	0.18825877
739.418	0.18813852
739.607	0.18796007
739.795	0.18785989
739.983	0.18771513
740.171	0.18759982
740.359	0.18749658
740.547	0.18747105
740.735	0.18735828
740.923	0.18724208
741.112	0.18712198
741.3	0.18712866
741.488	0.18701681
741.676	0.18698933
741.864	0.18690624
742.052	0.18689261
742.239	0.18681838
742.427	0.18676737
742.615	0.18669955
742.803	0.18668395
742.991	0.1865546
743.179	0.18644356
743.367	0.18634698
743.555	0.18642914
743.742	0.18652848
743.93	0.18659056
744.118	0.18663839
744.306	0.18674881
744.494	0.18688323
744.681	0.18697949
744.869	0.18698928
745.057	0.18700897
745.244	0.18705502
745.432	0.18710225
745.62	0.18701628
745.807	0.18693439
745.995	0.18685947
746.182	0.18677344
746.37	0.18668412
746.558	0.18657621
746.745	0.1865542
746.933	0.18650051
747.12	0.18642871
747.308	0.18641479
747.495	0.18639639
747.683	0.18638322
747.87	0.18631132
748.057	0.18613404
748.245	0.18616187
748.432	0.18615342
748.62	0.18619349
748.807	0.18625002
748.994	0.18629595
749.182	0.18647387
749.369	0.18667206
749.556	0.18684226
749.743	0.18700913
749.931	0.18716087
750.118	0.18731007
750.305	0.18742999
750.492	0.18750708
750.68	0.18758867
750.867	0.18766263
751.054	0.18774728
751.241	0.18766212
751.428	0.18759456
751.615	0.18747504
751.802	0.18730132
751.989	0.18710223
752.176	0.18689384
752.363	0.18672035
752.55	0.18664561
752.737	0.1866172
752.924	0.18668991
753.111	0.18681727
753.298	0.18704452
753.485	0.18716689
753.672	0.18735867
753.859	0.18762491
754.046	0.18779322
754.233	0.18794715
754.42	0.18816838
754.606	0.18822197
754.793	0.188412
754.98	0.18851874
755.167	0.18857904
755.353	0.18872853
755.54	0.18883522
755.727	0.18882691
755.914	0.1888822
756.1	0.1888969
756.287	0.1888322
756.474	0.18867023
756.66	0.1885713
756.847	0.18853571
757.033	0.188464
757.22	0.18850132
757.407	0.18861702
757.593	0.18877398
757.78	0.18901616
757.966	0.18917319
758.153	0.1892731
758.339	0.18943922
758.526	0.18961251
758.712	0.18963654
758.898	0.18978258
759.085	0.18985616
759.271	0.18992046
759.458	0.18998936
759.644	0.19007796
759.83	0.19014593
760.017	0.19028159
760.203	0.1903717
760.389	0.1904877
760.576	0.19060794
760.762	0.19084975
760.948	0.19096621
761.134	0.19110238
761.32	0.19125014
761.507	0.191355
761.693	0.19158423
761.879	0.19172541
762.065	0.19185241
762.251	0.19202982
762.437	0.19219033
762.623	0.1923639
762.809	0.19254274
762.995	0.19271869
763.181	0.19295906
763.367	0.19308987
763.553	0.19324217
763.739	0.19345692
763.925	0.19354106
764.111	0.19370654
764.297	0.19377776
764.483	0.19386498
764.669	0.19393594
764.855	0.19408339
765.041	0.19415444
765.227	0.194298
765.412	0.19447037
765.598	0.19456902
765.784	0.19466168
765.97	0.1948168
766.156	0.19490922
766.341	0.19491843
766.527	0.19504075
766.713	0.19509335
766.898	0.19527023
767.084	0.19541327
767.27	0.1955402
767.455	0.19572339
767.641	0.19595119
767.827	0.19603661
768.012	0.19615801
768.198	0.19627417
768.383	0.19643118
768.569	0.19663699
768.754	0.19686735
768.94	0.19711027
769.125	0.19741976
769.311	0.19766326
769.496	0.19786041
769.682	0.19804588
769.867	0.19819353
770.052	0.19830467
770.238	0.19848206
770.423	0.19865607
770.608	0.19886059
770.794	0.19909923
770.979	0.19938595
771.164	0.19958629
771.35	0.1997509
771.535	0.19990472
771.72	0.20000201
771.905	0.20016808
772.09	0.2003486
772.276	0.20047314
772.461	0.2006157
772.646	0.20083097
772.831	0.20105549
773.016	0.20133973
773.201	0.20158045
773.386	0.20184999
773.571	0.20212862
773.756	0.20236851
773.941	0.20251931
774.126	0.20266441
774.311	0.20277995
774.496	0.20290373
774.681	0.20297259
774.866	0.202979
775.051	0.20311755
775.236	0.20333617
775.421	0.20352928
775.606	0.20367874
775.791	0.20372973
775.976	0.20381614
776.16	0.20399491
776.345	0.20422746
776.53	0.20436047
776.715	0.20446128
776.899	0.20465573
777.084	0.2049165
777.269	0.2051195
777.454	0.20529936
777.638	0.20538326
777.823	0.20556755
778.008	0.20572064
778.192	0.2058887
778.377	0.2060321
778.561	0.20625383
778.746	0.2065262
778.931	0.20683096
779.115	0.20711676
779.3	0.20737909
779.484	0.20755367
779.669	0.20761399
779.853	0.2076284
780.037	0.20755996
780.222	0.20743764
780.406	0.20720201
780.591	0.20702113
780.775	0.20688947
780.959	0.20692169
781.144	0.20702049
781.328	0.20711314
781.512	0.20720971
781.697	0.20740381
781.881	0.20758048
782.065	0.20784455
782.249	0.207938
782.434	0.20793443
782.618	0.20787785
782.802	0.20796058
782.986	0.20806365
783.17	0.20829593
783.354	0.20847542
783.539	0.20875047
783.723	0.20902926
783.907	0.20946055
784.091	0.2096434
784.275	0.20979124
784.459	0.2097488
784.643	0.20964497
784.827	0.2095197
785.011	0.20941925
785.195	0.2093597
785.379	0.20942456
785.563	0.20945581
785.747	0.20955372
785.93	0.20972198
786.114	0.20986387
786.298	0.21007153
786.482	0.21023426
786.666	0.2103959
786.85	0.21055718
787.033	0.21083507
787.217	0.21103554
787.401	0.21129296
787.585	0.21156303
787.768	0.21179889
787.952	0.2120597
788.136	0.21237634
788.319	0.21252141
788.503	0.21269229
788.687	0.21286572
788.87	0.21296121
789.054	0.21300389
789.237	0.2130152
789.421	0.21291153
789.605	0.21283481
789.788	0.21284627
789.972	0.21287485
790.155	0.21293337
790.338	0.21315033
790.522	0.21342333
790.705	0.21374419
790.889	0.21412742
791.072	0.21446486
791.256	0.21484261
791.439	0.21515394
791.622	0.21533908
791.806	0.21541095
791.989	0.21543721
792.172	0.21545577
792.355	0.21548437
792.539	0.21558584
792.722	0.21567082
792.905	0.21581314
793.088	0.21603863
793.271	0.21641376
793.455	0.21680391
793.638	0.21723757
793.821	0.21745301
794.004	0.21768529
794.187	0.21789641
794.37	0.2182268
794.553	0.21843551
794.736	0.2186248
794.919	0.21879572
795.102	0.21906786
795.285	0.21932916
795.468	0.2195496
795.651	0.21963654
795.834	0.21994307
796.017	0.22017488
796.2	0.22032262
796.383	0.2204991
796.566	0.22075722
796.749	0.22107034
796.931	0.22139719
797.114	0.22166761
797.297	0.2220273
797.48	0.22239902
797.663	0.22280243
797.845	0.22317366
798.028	0.22340109
798.211	0.2235783
798.393	0.22359015
798.576	0.22354942
798.759	0.22355228
798.941	0.22352501
799.124	0.22351782
799.307	0.22361121
799.489	0.22378183
799.672	0.22400797
799.854	0.2242532
800.037	0.22463806
800.219	0.22508276
800.402	0.2254739
800.584	0.22581521
800.767	0.22611632
800.949	0.2263059
801.132	0.22653313
801.314	0.22661622
801.496	0.22656038
801.679	0.22654843
801.861	0.22668293
802.043	0.22683873
802.226	0.22707214
802.408	0.22717432
802.59	0.2273152
802.772	0.22749315
802.955	0.22770203
803.137	0.22778796
803.319	0.22784195
803.501	0.22789331
803.684	0.22804941
803.866	0.22819313
804.048	0.22836274
804.23	0.22854686
804.412	0.22870587
804.594	0.22886892
804.776	0.22921281
804.958	0.22950011
805.14	0.22977284
805.322	0.22996847
805.504	0.23007681
805.686	0.23025399
805.868	0.23043922
806.05	0.23028104
806.232	0.23026649
806.414	0.23016703
806.596	0.23014324
806.778	0.23014582
806.96	0.23019827
807.141	0.23017653
807.323	0.23031458
807.505	0.2302717
807.687	0.23027181
807.869	0.23025083
808.05	0.23021532
808.232	0.23011532
808.414	0.23014249
808.595	0.23013451
808.777	0.23028182
808.959	0.23041813
809.14	0.2304787
809.322	0.23050297
809.504	0.23045153
809.685	0.23032454
809.867	0.23020139
810.048	0.2299981
810.23	0.22986634
810.411	0.2297143
810.593	0.22970598
810.774	0.22968521
810.956	0.22966573
811.137	0.22970985
811.319	0.22973158
811.5	0.2297166
811.681	0.22986154
811.863	0.22993457
812.044	0.23008009
812.225	0.23032792
812.407	0.23050302
812.588	0.23072813
812.769	0.23086427
812.951	0.23090405
813.132	0.23092949
813.313	0.23106801
813.494	0.23104359
813.675	0.23115964
813.857	0.23128436
814.038	0.23147741
814.219	0.23164341
814.4	0.23186237
814.581	0.23194083
814.762	0.23195719
814.943	0.23192519
815.124	0.23191921
815.305	0.23203523
815.486	0.23224038
815.667	0.23229239
815.848	0.23237724
816.029	0.23254705
816.21	0.23278134
816.391	0.23300478
816.572	0.23307596
816.753	0.23309871
816.934	0.2332493
817.115	0.23339071
817.295	0.23358605
817.476	0.23368257
817.657	0.23376779
817.838	0.23390366
818.019	0.23402979
818.199	0.23404623
818.38	0.23423805
818.561	0.23446874
818.741	0.23470382
818.922	0.23492248
819.103	0.23512466
819.283	0.2354499
819.464	0.23575778
819.645	0.23585146
819.825	0.23590507
820.006	0.23590351
820.186	0.23583768
820.367	0.23588627
820.547	0.23585477
820.728	0.23600303
820.908	0.2362858
821.089	0.23663257
821.269	0.23697395
821.45	0.23741469
821.63	0.23761698
821.81	0.23790209
821.991	0.23797511
822.171	0.23807792
822.351	0.23811595
822.532	0.23822669
822.712	0.23821596
822.892	0.23834044
823.072	0.23841565
823.253	0.23864361
823.433	0.23870193
823.613	0.23884959
823.793	0.23903965
823.973	0.23935083
824.154	0.23963411
824.334	0.23991374
824.514	0.2401672
824.694	0.24049507
824.874	0.24073865
825.054	0.2410037
825.234	0.24111795
825.414	0.24122185
825.594	0.24131582
825.774	0.24139778
825.954	0.24149739
826.134	0.24156008
826.314	0.24150182
826.494	0.24163775
826.674	0.24166174
826.854	0.24172433
827.033	0.24166685
827.213	0.24175756
827.393	0.2418466
827.573	0.24209106
827.753	0.24227972
827.932	0.24254574
828.112	0.24275115
828.292	0.24316202
828.472	0.24340222
828.651	0.24352258
828.831	0.24356678
829.011	0.24358909
829.19	0.24358956
829.37	0.24362847
829.549	0.24347969
829.729	0.24326439
829.909	0.24315175
830.088	0.24300257
830.268	0.24282983
830.447	0.24282455
830.627	0.2428003
830.806	0.24298373
830.986	0.24308665
831.165	0.24330303
831.344	0.24353373
831.524	0.24384198
831.703	0.24407467
831.883	0.24420701
832.062	0.24417449
832.241	0.24436882
832.421	0.24442449
832.6	0.24451917
832.779	0.24458299
832.958	0.24457197
833.138	0.24471832
833.317	0.24489329
833.496	0.24494998
833.675	0.24511361
833.854	0.24530217
834.034	0.24546515
834.213	0.24570675
834.392	0.2459317
834.571	0.24614003
834.75	0.24644737
834.929	0.24666504
835.108	0.24684888
835.287	0.24694154
835.466	0.24695674
835.645	0.24699195
835.824	0.24700774
836.003	0.24696852
836.182	0.24711778
836.361	0.24718791
836.54	0.24732223
836.719	0.247622
836.897	0.24779166
837.076	0.24806596
837.255	0.24824566
837.434	0.24827689
837.613	0.24830528
837.791	0.24829094
837.97	0.24825091
838.149	0.24822316
838.328	0.24812756
838.506	0.24807769
838.685	0.24802023
838.864	0.24808486
839.042	0.24807501
839.221	0.24805309
839.4	0.24807127
839.578	0.24820725
839.757	0.24841178
839.935	0.24853451
840.114	0.24876213
840.292	0.24897786
840.471	0.24921488
840.649	0.24937507
840.828	0.24948757
841.006	0.24960574
841.185	0.24974189
841.363	0.24966775
841.541	0.24971385
841.72	0.24970828
841.898	0.2498577
842.076	0.24981689
842.255	0.24971345
842.433	0.2497834
842.611	0.24984103
842.789	0.24984699
842.968	0.24986753
843.146	0.24972251
843.324	0.24964677
843.502	0.24961491
843.68	0.24949629
843.859	0.24937478
844.037	0.249255
844.215	0.24903211
844.393	0.24894344
844.571	0.2487953
844.749	0.24874043
844.927	0.24872077
845.105	0.24875332
845.283	0.24895879
845.461	0.24908768
845.639	0.24924107
845.817	0.24962791
845.995	0.25003087
846.173	0.25029986
846.351	0.25056966
846.529	0.25069377
846.706	0.25086726
846.884	0.25101902
847.062	0.25101162
847.24	0.25093945
847.418	0.25083886
847.595	0.25064469
847.773	0.2504676
847.951	0.25033975
848.129	0.25019783
848.306	0.25008799
848.484	0.24981431
848.662	0.2497607
848.839	0.24970783
849.017	0.24978781
849.194	0.24977676
849.372	0.24967962
849.549	0.24963446
849.727	0.24976048
849.905	0.24981466
850.082	0.24983999
850.26	0.24978037
850.437	0.24979323
850.614	0.2499356
850.792	0.24997015
850.969	0.24994415
851.147	0.24999985
851.324	0.25002693
851.501	0.25012572
851.679	0.2502013
851.856	0.25031281
852.033	0.25050149
852.211	0.25061474
852.388	0.25042321
852.565	0.25060753
852.742	0.2505299
852.92	0.2504401
853.097	0.25015609
853.274	0.24998527
853.451	0.24995892
853.628	0.25006174
853.805	0.24989191
853.982	0.24991365
854.159	0.25003755
854.336	0.25022513
854.514	0.25015596
854.691	0.25000252
854.868	0.24985835
855.045	0.2498036
855.221	0.24974991
855.398	0.24949272
855.575	0.24934783
855.752	0.24926985
855.929	0.24930535
856.106	0.24924411
856.283	0.24919718
856.46	0.24906927
856.637	0.2491304
856.813	0.24906187
856.99	0.24903578
857.167	0.24886374
857.344	0.24887335
857.52	0.24884433
857.697	0.24874387
857.874	0.24875234
858.05	0.24873758
858.227	0.24870449
858.404	0.24877212
858.58	0.24883908
858.757	0.24887841
858.933	0.24899967
859.11	0.24891797
859.287	0.24881419
859.463	0.24869042
859.64	0.24862626
859.816	0.24829448
859.993	0.24808104
860.169	0.24793626
860.345	0.24780449
860.522	0.24777697
860.698	0.24775061
860.875	0.24761172
861.051	0.24767903
861.227	0.24760662
861.404	0.24760748
861.58	0.24766347
861.756	0.24760225
861.932	0.24773257
862.109	0.2477148
862.285	0.2478483
862.461	0.24799767
862.637	0.24800967
862.813	0.24805754
862.99	0.24807383
863.166	0.24785835
863.342	0.24794138
863.518	0.24773176
863.694	0.24752185
863.87	0.24733084
864.046	0.24713486
864.222	0.24703875
864.398	0.2469765
864.574	0.24670563
864.75	0.24669792
864.926	0.24684635
865.102	0.24699224
865.278	0.24712868
865.454	0.24725681
865.63	0.24737411
865.805	0.24750363
865.981	0.24764053
866.157	0.24749508
866.333	0.24721742
866.509	0.24688781
866.684	0.24659191
866.86	0.24643558
867.036	0.24615873
867.212	0.24578148
867.387	0.24566456
867.563	0.24558238
867.739	0.2454564
867.914	0.24537881
868.09	0.24528359
868.265	0.24533708
868.441	0.24538813
868.617	0.24539304
868.792	0.24545994
868.968	0.24559098
869.143	0.24582971
869.319	0.2460092
869.494	0.24590945
869.67	0.24583309
869.845	0.24567931
870.02	0.24550038
870.196	0.24530284
870.371	0.24478898
870.546	0.24424862
870.722	0.24409849
870.897	0.24387212
871.072	0.24375226
871.248	0.24365022
871.423	0.24354709
871.598	0.24374874
871.773	0.24362669
871.949	0.24342999
872.124	0.24342766
872.299	0.24316174
872.474	0.24305224
872.649	0.24282362
872.824	0.24249051
872.999	0.24254216
873.174	0.24251641
873.349	0.24236825
873.524	0.24227576
873.699	0.24219907
873.874	0.24214436
874.049	0.24214343
874.224	0.24208918
874.399	0.24209099
874.574	0.24216088
874.749	0.24220289
874.924	0.24211938
875.099	0.24208838
875.274	0.24183897
875.449	0.24167459
875.623	0.24139596
875.798	0.24101588
875.973	0.24077051
876.148	0.24031738
876.322	0.24002311
876.497	0.23978225
876.672	0.23955135
876.846	0.23927526
877.021	0.23911565
877.196	0.23890629
877.37	0.23905387
877.545	0.23914974
877.72	0.23926749
877.894	0.23930605
878.069	0.239435
878.243	0.23941806
878.418	0.23957611
878.592	0.23956527
878.767	0.23945132
878.941	0.2393881
879.116	0.23932474
879.29	0.23904517
879.464	0.23884123
879.639	0.2384181
879.813	0.23812655
879.987	0.23757457
880.162	0.23698914
880.336	0.23646438
880.51	0.23624502
880.685	0.23594243
880.859	0.23576396
881.033	0.23529735
881.207	0.23510576
881.381	0.23504938
881.556	0.23494085
881.73	0.23469881
881.904	0.23465378
882.078	0.23458033
882.252	0.23474274
882.426	0.23489511
882.6	0.23500232
882.774	0.23515302
882.948	0.23529627
883.122	0.23524498
883.296	0.2352783
883.47	0.23523316
883.644	0.23519877
883.818	0.23499431
883.992	0.23480529
884.166	0.23472061
884.34	0.23463317
884.514	0.23453274
884.687	0.23434282
884.861	0.23407369
885.035	0.23399825
885.209	0.2338246
885.382	0.23357488
885.556	0.23325485
885.73	0.23286039
885.904	0.23255285
886.077	0.23215271
886.251	0.23175194
886.425	0.231584
886.598	0.23144306
886.772	0.2313777
886.945	0.23128411
887.119	0.2311878
887.292	0.23132948
887.466	0.23158683
887.64	0.23148383
887.813	0.23130105
887.986	0.23112771
888.16	0.2310492
888.333	0.23096582
888.507	0.23078988
888.68	0.2302812
888.854	0.23002082
889.027	0.22980146
889.2	0.2296286
889.374	0.22923659
889.547	0.22905901
889.72	0.22878953
889.893	0.22859076
890.067	0.22829624
890.24	0.22810847
890.413	0.2278819
890.586	0.22769539
890.759	0.22739051
890.933	0.227189
891.106	0.22708252
891.279	0.22700416
891.452	0.22684394
891.625	0.22655346
891.798	0.22638211
891.971	0.22609151
892.144	0.2258786
892.317	0.22565957
892.49	0.22538364
892.663	0.22518426
892.836	0.22508575
893.009	0.22493675
893.182	0.22482292
893.355	0.22465506
893.527	0.22446325
893.7	0.22432372
893.873	0.2240809
894.046	0.22370785
894.219	0.22343864
894.391	0.22319346
894.564	0.22282012
894.737	0.22243641
894.91	0.22205548
895.082	0.22166899
895.255	0.22152307
895.428	0.22127307
895.6	0.22112948
895.773	0.22106348
895.945	0.22094493
896.118	0.22086715
896.291	0.22078673
896.463	0.22065134
896.636	0.22043674
896.808	0.22011855
896.981	0.2199325
897.153	0.21978621
897.326	0.21974254
897.498	0.2194226
897.67	0.2192714
897.843	0.21925091
898.015	0.21924217
898.187	0.21910639
898.36	0.21889745
898.532	0.21857848
898.704	0.21870675
898.877	0.21864897
899.049	0.21856622
899.221	0.21845664
899.393	0.21823782
899.566	0.21817525
899.738	0.2180011
899.91	0.217717
900.082	0.21734071
900.254	0.21690102
900.426	0.21649692
900.598	0.21632348
900.77	0.21596128
900.942	0.21567352
901.114	0.21540302
901.286	0.21531998
901.458	0.21523714
901.63	0.21518018
901.802	0.21502209
901.974	0.21500053
902.146	0.21495583
902.318	0.21497404
902.49	0.21472603
902.662	0.21436311
902.834	0.21403721
903.005	0.21372048
903.177	0.21318943
903.349	0.21284363
903.521	0.21228548
903.693	0.21212039
903.864	0.2120057
904.036	0.21193805
904.208	0.21180775
904.379	0.21183279
904.551	0.21164519
904.723	0.21160814
904.894	0.21131126
905.066	0.21131438
905.237	0.21123612
905.409	0.21111361
905.58	0.21100547
905.752	0.2107546
905.923	0.21045264
906.095	0.2100523
906.266	0.20957859
906.438	0.2090049
906.609	0.20852996
906.78	0.20807468
906.952	0.20770316
907.123	0.20729956
907.295	0.20718865
907.466	0.20683947
907.637	0.20669844
907.808	0.20645734
907.98	0.20613106
908.151	0.20607774
908.322	0.20609827
908.493	0.20602055
908.665	0.2059026
908.836	0.2058355
909.007	0.20589042
909.178	0.20592413
909.349	0.20574078
909.52	0.20576603
909.691	0.20550625
909.862	0.20541027
910.033	0.20504752
910.204	0.20496003
910.375	0.20493565
910.546	0.20497376
910.717	0.20473692
910.888	0.20462038
911.059	0.20443706
911.23	0.2043506
911.401	0.20378448
911.572	0.20324184
911.742	0.20282084
911.913	0.20258157
912.084	0.2023612
912.255	0.20225149
912.426	0.20197411
912.596	0.20188547
912.767	0.20174151
912.938	0.20145914
913.108	0.20099196
913.279	0.20051474
913.45	0.20002256
913.62	0.19964036
913.791	0.199313
913.962	0.19899166
914.132	0.19861392
914.303	0.19846098
914.473	0.19836691
914.644	0.19829103
914.814	0.19832579
914.985	0.19841431
915.155	0.19852947
915.326	0.19863219
915.496	0.19847949
915.666	0.19830871
915.837	0.19824156
916.007	0.1977931
916.177	0.19725484
916.348	0.19685095
916.518	0.19650353
916.688	0.19612737
916.858	0.19570072
917.029	0.19511546
917.199	0.19469443
917.369	0.19426402
917.539	0.19374183
917.709	0.19326477
917.88	0.19285446
918.05	0.19243305
918.22	0.19218784
918.39	0.1920428
918.56	0.1920109
918.73	0.19203595
918.9	0.19189764
919.07	0.19179586
919.24	0.1918849
919.41	0.19181058
919.58	0.19163877
919.75	0.19143378
919.92	0.19100581
920.09	0.19084462
920.26	0.19053763
920.429	0.1902891
920.599	0.18992105
920.769	0.18974916
920.939	0.18935218
921.109	0.18926751
921.278	0.18894389
921.448	0.18889086
921.618	0.18875867
921.787	0.18871147
921.957	0.18851535
922.127	0.18828751
922.296	0.18803258
922.466	0.18777569
922.636	0.18744836
922.805	0.1870992
922.975	0.18663097
923.144	0.18633019
923.314	0.18621309
923.483	0.18601571
923.653	0.18591398
923.822	0.18569786
923.992	0.18546121
924.161	0.18529954
924.331	0.18488094
924.5	0.18456246
924.669	0.18414223
924.839	0.18382392
925.008	0.18341119
925.177	0.18287702
925.347	0.18271359
925.516	0.18262661
925.685	0.18238585
925.854	0.18218637
926.023	0.18209903
926.193	0.18213259
926.362	0.1818917
926.531	0.18148806
926.7	0.18102502
926.869	0.18067772
927.038	0.18035991
927.207	0.17981379
927.376	0.17937148
927.545	0.17939939
927.715	0.1791234
927.884	0.17899165
928.052	0.17902981
928.221	0.17891653
928.39	0.1788349
928.559	0.1786586
928.728	0.1784307
928.897	0.17836831
929.066	0.17841817
929.235	0.17794552
929.404	0.17749015
929.572	0.17704659
929.741	0.17678227
929.91	0.17647816
930.079	0.17626119
930.247	0.17598111
930.416	0.17604088
930.585	0.17593232
930.753	0.17596146
930.922	0.17582676
931.091	0.1757434
931.259	0.1757235
931.428	0.17561857
931.596	0.17548466
931.765	0.17553776
931.934	0.17553488
932.102	0.1752016
932.27	0.17499549
932.439	0.17471722
932.607	0.17440359
932.776	0.17420099
932.944	0.17387525
933.113	0.17358214
933.281	0.17366475
933.449	0.17340078
933.618	0.17328037
933.786	0.17304334
933.954	0.17257032
934.123	0.17241813
934.291	0.17216654
934.459	0.17181755
934.627	0.17162182
934.795	0.17123008
934.964	0.17109168
935.132	0.17081815
935.3	0.17042921
935.468	0.16991915
935.636	0.16971104
935.804	0.16942141
935.972	0.16902983
936.14	0.1687513
936.308	0.16883945
936.476	0.16883219
936.644	0.16888466
936.812	0.16881944
936.98	0.16871434
937.148	0.16874504
937.316	0.16857193
937.484	0.16854963
937.652	0.16829545
937.82	0.16873879
937.987	0.16860113
938.155	0.16868913
938.323	0.16868128
938.491	0.1685328
938.658	0.1684769
938.826	0.16862571
938.994	0.16830247
939.162	0.1684158
939.329	0.16916161
939.497	0.16996678
939.665	0.17033379
939.832	0.17099011
940	0.17166784
940.167	0.17178203
940.335	0.17205532
940.502	0.17169467
940.67	0.17176877
940.837	0.17236522
941.005	0.17209655
941.172	0.17217274
941.34	0.17236913
941.507	0.1731624
941.674	0.17326473
941.842	0.17269352
942.009	0.17269556
942.177	0.1723051
942.344	0.17293082
942.511	0.17288493
942.678	0.17243953
942.846	0.172676
943.013	0.17232186
943.18	0.17255402
943.347	0.17262359
943.514	0.17190426
943.682	0.1726041
943.849	0.17190163
944.016	0.1706045
944.183	0.17064972
944.35	0.17010483
944.517	0.17000957
944.684	0.16990704
944.851	0.16728195
945.018	0.16689432
945.185	0.16759543
945.352	0.1675706
945.519	0.16702342
945.686	0.16683995
945.853	0.1669166
946.02	0.16756355
946.187	0.16681682
946.353	0.1667041
946.52	0.16661211
946.687	0.16527406
946.854	0.16521352
947.021	0.16421828
947.187	0.16351558
947.354	0.162799
947.521	0.16143326
947.687	0.1596311
947.854	0.16019623
948.021	0.15852741
948.187	0.1579104
948.354	0.15762511
948.52	0.15735579
948.687	0.15731448
948.854	0.1578974
949.02	0.15677955
949.187	0.15709906
949.353	0.15672925
949.52	0.1562121
949.686	0.15652891
949.852	0.15633274
950.019	0.15608326
950.185	0.15573739
950.352	0.15520179
950.518	0.15441502
950.684	0.15441219
950.851	0.15375144
951.017	0.15256375
951.183	0.15162802
951.349	0.15139879
951.516	0.14986448
951.682	0.14962252
951.848	0.1482991
952.014	0.14717561
952.18	0.14717824
952.346	0.1466917
952.512	0.14628824
952.679	0.14647329
952.845	0.14574194
953.011	0.14552613
953.177	0.1456759
953.343	0.14469584
953.509	0.14456841
953.675	0.14378795
953.841	0.1431952
954.007	0.14304598
954.172	0.14272264
954.338	0.14210255
954.504	0.14125863
954.67	0.14078757
954.836	0.14070487
955.002	0.14065689
955.167	0.14039453
955.333	0.1399089
955.499	0.13962127
955.665	0.13951148
955.83	0.13938205
955.996	0.13914355
956.162	0.13879026
956.327	0.13818417
956.493	0.13806058
956.659	0.13785861
956.824	0.13794626
956.99	0.13710319
957.155	0.1366122
957.321	0.13633023
957.486	0.13600917
957.652	0.13540389
957.817	0.13543893
957.983	0.13483098
958.148	0.13468493
958.314	0.13445359
958.479	0.13362476
958.644	0.13362175
958.81	0.13363452
958.975	0.13312412
959.14	0.13334892
959.306	0.13306839
959.471	0.13278158
959.636	0.13289796
959.801	0.13249337
959.967	0.13208176
960.132	0.13171685
960.297	0.13100267
960.462	0.13069786
960.627	0.12990946
960.792	0.12934631
960.957	0.12878932
961.123	0.12852113
961.288	0.1279155
961.453	0.12788041
961.618	0.12788621
961.783	0.12800287
961.948	0.12779322
962.113	0.12762908
962.277	0.12743578
962.442	0.12749853
962.607	0.12732683
962.772	0.12670495
962.937	0.12655918
963.102	0.12659432
963.267	0.12693922
963.431	0.12653761
963.596	0.12609137
963.761	0.12541646
963.926	0.12536896
964.09	0.12509442
964.255	0.12478959
964.42	0.1241309
964.584	0.12418927
964.749	0.12414429
964.914	0.12446377
965.078	0.1242227
965.243	0.12367701
965.407	0.12334507
965.572	0.12299083
965.736	0.12289581
965.901	0.12251722
966.065	0.12245215
966.23	0.12226946
966.394	0.12226034
966.559	0.12185496
966.723	0.1217682
966.887	0.12138875
967.052	0.12136129
967.216	0.12059155
967.38	0.11999574
967.545	0.12010542
967.709	0.12004025
967.873	0.12020049
968.037	0.12024309
968.202	0.11993727
968.366	0.12000263
968.53	0.12014664
968.694	0.11971433
968.858	0.11961835
969.022	0.11886695
969.187	0.11807908
969.351	0.11822959
969.515	0.11821344
969.679	0.11790802
969.843	0.11798671
970.007	0.11789328
970.171	0.11810531
970.335	0.11830812
970.499	0.11796344
970.662	0.11725429
970.826	0.11723473
970.99	0.11684573
971.154	0.11687143
971.318	0.11646908
971.482	0.11601785
971.645	0.11568406
971.809	0.11606336
971.973	0.11611835
972.137	0.11578723
972.3	0.11533252
972.464	0.11508845
972.628	0.1151191
972.791	0.1152126
972.955	0.11467715
973.119	0.11420021
973.282	0.11425037
973.446	0.11426573
973.609	0.11396931
973.773	0.11403162
973.936	0.11372276
974.1	0.11346503
974.263	0.1136529
974.427	0.11369803
974.59	0.11334747
974.754	0.11352515
974.917	0.11304229
975.08	0.11293396
975.244	0.11297354
975.407	0.11230567
975.57	0.11164316
975.734	0.11138287
975.897	0.1109189
976.06	0.11083447
976.223	0.11042263
976.387	0.11018857
976.55	0.11007697
976.713	0.10967624
976.876	0.10954494
977.039	0.10916731
977.202	0.10885062
977.365	0.10856508
977.528	0.10839943
977.692	0.10822169
977.855	0.10819551
978.018	0.10790378
978.181	0.10778285
978.344	0.10760303
978.506	0.10711987
978.669	0.10655571
978.832	0.1060696
978.995	0.10584151
979.158	0.10589944
979.321	0.10549084
979.484	0.10493525
979.646	0.10475978
979.809	0.10508211
979.972	0.10498004
980.135	0.10510732
980.297	0.10447916
980.46	0.10455227
980.623	0.10505889
980.786	0.10519675
980.948	0.10498195
981.111	0.10502477
981.273	0.10484838
981.436	0.10479834
981.599	0.10503594
981.761	0.10447072
981.924	0.10492897
982.086	0.10484679
982.249	0.104587
982.411	0.10451471
982.573	0.10453236
982.736	0.10441397
982.898	0.10423264
983.061	0.10352656
983.223	0.10311534
983.385	0.10269075
983.548	0.10234659
983.71	0.10214737
983.872	0.10173714
984.034	0.10166125
984.197	0.10152827
984.359	0.10136912
984.521	0.10176271
984.683	0.10190099
984.845	0.10167668
985.008	0.10158919
985.17	0.10180611
985.332	0.10164224
985.494	0.10143608
985.656	0.10119016
985.818	0.10063299
985.98	0.10027186
986.142	0.0998972
986.304	0.09946489
986.466	0.09947372
986.628	0.0988965
986.79	0.09875325
986.952	0.09837928
987.113	0.09834872
987.275	0.09817834
987.437	0.09808095
987.599	0.09749535
987.761	0.09782232
987.922	0.09765506
988.084	0.09785614
988.246	0.09776961
988.408	0.09741129
988.569	0.0967941
988.731	0.09707436
988.893	0.09675523
989.054	0.09657846
989.216	0.09623184
989.377	0.09565352
989.539	0.09575077
989.701	0.09578881
989.862	0.09473632
990.024	0.09437328
990.185	0.09392254
990.347	0.09364692
990.508	0.09338093
990.669	0.09277901
990.831	0.09245989
990.992	0.09262802
991.154	0.09282376
991.315	0.09290287
991.476	0.09278338
991.638	0.09294148
991.799	0.09306591
991.96	0.09341343
992.121	0.09375515
992.283	0.09364524
992.444	0.09337834
992.605	0.09341163
992.766	0.09360882
992.927	0.09321555
993.088	0.09272287
993.249	0.09222673
993.41	0.0916722
993.572	0.09141473
993.733	0.09131768
993.894	0.09073176
994.055	0.09069735
994.216	0.09057726
994.376	0.09016974
994.537	0.09026981
994.698	0.08988313
994.859	0.08942395
995.02	0.0894701
995.181	0.08892593
995.342	0.08852275
995.503	0.0882426
995.663	0.08824403
995.824	0.0878734
995.985	0.08826053
996.146	0.08790125
996.306	0.08835276
996.467	0.08814528
996.628	0.08882735
996.788	0.08879873
996.949	0.08948897
997.11	0.08890401
997.27	0.08878077
997.431	0.08865746
997.591	0.08834241
997.752	0.08740205
997.912	0.08713233
998.073	0.08695656
998.233	0.08710786
998.394	0.0872219
998.554	0.08735021
998.714	0.08804667
998.875	0.08864905
999.035	0.08803004
999.196	0.08751114
999.356	0.0867803
999.516	0.08686546
999.676	0.0868572
999.837	0.08685581
999.997	0.08612404
1000.157	0.08594865
1000.317	0.08539145
1000.477	0.08559197
1000.638	0.08525194
1000.798	0.08485246
1000.958	0.08452743
1001.118	0.08475206
1001.278	0.08485612
1001.438	0.08510105
1001.598	0.08496232
1001.758	0.08468687
1001.918	0.08433625
1002.078	0.08393944
1002.238	0.08330427
1002.398	0.08370299
1002.558	0.08379981
1002.718	0.08316319
1002.878	0.08263481
1003.037	0.0821875
1003.197	0.08210498
1003.357	0.08254826
1003.517	0.08251029
1003.677	0.08218464
1003.836	0.08227856
1003.996	0.08308442
1004.156	0.08318846
1004.315	0.08292361
1004.475	0.08316129
1004.635	0.0825121
1004.794	0.08274833
1004.954	0.08304719
1005.114	0.08231354
1005.273	0.08219719
1005.433	0.08183808
1005.592	0.0809397
1005.752	0.08042747
1005.911	0.07987131
1006.071	0.07939364
1006.23	0.07898392
1006.389	0.07918154
1006.549	0.07903207
1006.708	0.078798
1006.868	0.07884544
1007.027	0.07862815
1007.186	0.07909748
1007.345	0.07970085
1007.505	0.07894538
1007.664	0.0793809
1007.823	0.08006528
1007.982	0.07987997
1008.142	0.07984931
1008.301	0.07993449
1008.46	0.07967738
1008.619	0.07960768
1008.778	0.07997692
1008.937	0.07925377
1009.096	0.07925554
1009.255	0.079455
1009.414	0.07883954
1009.573	0.07828218
1009.732	0.0788408
1009.891	0.07774396
1010.05	0.07804687
1010.209	0.07757581
1010.368	0.07745868
1010.527	0.07673133
1010.686	0.0771673
1010.845	0.07666396
1011.003	0.07698205
1011.162	0.07708689
1011.321	0.07776454
1011.48	0.07814448
1011.638	0.07783127
1011.797	0.0779637
1011.956	0.07845975
1012.115	0.07842419
1012.273	0.07740722
1012.432	0.07646481
1012.59	0.07609603
1012.749	0.07794418
1012.908	0.0771254
1013.066	0.07721676
1013.225	0.07647628
1013.383	0.07746535
1013.542	0.07789627
1013.7	0.07746992
1013.859	0.07609676
1014.017	0.0765647
1014.175	0.07577652
1014.334	0.07648724
1014.492	0.07660493
1014.65	0.07689458
1014.809	0.0776663
1014.967	0.07783642
1015.125	0.07877652
1015.284	0.07912191
1015.442	0.07895227
1015.6	0.07808137
1015.758	0.07734435
1015.916	0.07573727
1016.075	0.07509846
1016.233	0.07450812
1016.391	0.07451881
1016.549	0.0749978
1016.707	0.07502581
1016.865	0.07572036
1017.023	0.07531044
1017.181	0.07560569
1017.339	0.07496691
1017.497	0.07422732
1017.655	0.07268533
1017.813	0.0729273
1017.971	0.07241283
1018.129	0.07473553
1018.286	0.07461968
1018.444	0.07384779
1018.602	0.07463995
1018.76	0.07506436
1018.918	0.07494353
1019.075	0.07618707
1019.233	0.0747606
1019.391	0.07419803
1019.549	0.07508685
1019.706	0.07489943
1019.864	0.07522589
1020.022	0.07594332
1020.179	0.07439896
1020.337	0.07461533
1020.494	0.07501283
1020.652	0.07423063
1020.809	0.07430306
1020.967	0.07324962
1021.124	0.07289896
1021.282	0.07411718
1021.439	0.07433379
1021.597	0.07501418
1021.754	0.07628411
1021.911	0.07619604
1022.069	0.07735548
1022.226	0.07627436
1022.384	0.07538913
1022.541	0.07605248
1022.698	0.07571288
1022.855	0.0759125
1023.013	0.07661146
1023.17	0.076293
1023.327	0.07826516
1023.484	0.07981838
1023.641	0.07944533
1023.798	0.08186324
1023.956	0.08301031
1024.113	0.08362863
1024.27	0.08389484
1024.427	0.08320637
1024.584	0.08244784
1024.741	0.08146807
1024.898	0.07784555
1025.055	0.07420877
1025.212	0.07224085
1025.369	0.07075828
1025.525	0.06905081
1025.682	0.06929604
1025.839	0.06959272
1025.996	0.07228566
1026.153	0.07460528
1026.31	0.07503987
1026.466	0.07879848
1026.623	0.08162971
1026.78	0.08320308
1026.937	0.08473335
1027.093	0.08475767
1027.25	0.08475606
1027.407	0.08619077
1027.563	0.08426677
1027.72	0.08428226
1027.876	0.0823559
1028.033	0.08166265
1028.19	0.08274678
1028.346	0.08171912
1028.503	0.08250621
1028.659	0.0830587
1028.816	0.08284972
1028.972	0.08252112
1029.128	0.0840481
1029.285	0.08236496
1029.441	0.08455918
1029.598	0.08158737
1029.754	0.08288564
1029.91	0.08034866
1030.067	0.08144217
1030.223	0.07943641
1030.379	0.07827935
1030.535	0.07888501
1030.691	0.08141558
1030.848	0.07990478
1031.004	0.08158263
1031.16	0.08357351
1031.316	0.08702585
1031.472	0.0890516
1031.628	0.08979399
1031.784	0.09052196
1031.94	0.09552508
1032.096	0.09698791
1032.252	0.09568447
1032.408	0.09343414
1032.564	0.09110911
1032.72	0.08822348
1032.876	0.08744137
1033.032	0.08251788
1033.188	0.0803422
1033.344	0.08253696
1033.5	0.08604394
1033.655	0.08867037
1033.811	0.09071732
1033.967	0.09186459
