Data from 1_mm_pl_40pc_Absorbance__0__16-36-22-268.txt Node

Date: Wed Mar 08 16:36:22 CET 2023
User: Ange
Spectrometer: FLMT08341
Trigger mode: 0
Integration Time (sec): 1.000000E-2
Scans to average: 400
Electric dark correction enabled: true
Nonlinearity correction enabled: false
Boxcar width: 3
XAxis mode: Wavelengths
Number of Pixels in Spectrum: 3648
>>>>>Begin Spectral Data<<<<<
345.271	0.02375007
345.487	0.01267645
345.704	0.00391275
345.921	0.02119689
346.137	-0.00048932
346.354	0.00443626
346.571	-0.04415043
346.787	-0.15830772
347.004	-0.03615289
347.22	-0.13980957
347.437	0.04310679
347.653	-0.04521005
347.87	-0.02332965
348.086	-0.09689715
348.303	-0.87946015
348.519	0.35888224
348.736	0.355979
348.952	0.37869019
349.169	0.39167386
349.385	0.4144808
349.601	0.41390968
349.818	0.40760173
350.034	0.40623872
350.251	0.40631548
350.467	0.40811259
350.683	0.39644072
350.9	0.39164128
351.116	0.38690083
351.332	0.38168417
351.549	0.39603302
351.765	0.40880922
351.981	0.41708669
352.197	0.4340692
352.414	0.45098544
352.63	0.46566769
352.846	0.48355874
353.062	0.47155938
353.278	0.46023465
353.495	0.46880723
353.711	0.47063799
353.927	0.47641411
354.143	0.47593824
354.359	0.47204501
354.575	0.47058516
354.792	0.48181957
355.008	0.47338212
355.224	0.46886212
355.44	0.46027071
355.656	0.4563855
355.872	0.46202815
356.088	0.48823517
356.304	0.49314962
356.52	0.49596446
356.736	0.50130115
356.952	0.50921022
357.168	0.51574443
357.384	0.52286658
357.6	0.50880671
357.816	0.51916161
358.032	0.52708218
358.248	0.54623052
358.464	0.54840564
358.679	0.55633197
358.895	0.55549826
359.111	0.56521723
359.327	0.55234629
359.543	0.5568523
359.759	0.55669073
359.974	0.55557102
360.19	0.55587584
360.406	0.56092767
360.622	0.55704752
360.838	0.55717168
361.053	0.56221531
361.269	0.56503157
361.485	0.5705536
361.701	0.57430961
361.916	0.56680082
362.132	0.56877655
362.348	0.57545323
362.563	0.57998146
362.779	0.57571439
362.995	0.5825207
363.21	0.58975374
363.426	0.59829338
363.641	0.6019776
363.857	0.60875738
364.073	0.60404243
364.288	0.60257768
364.504	0.61122544
364.719	0.61245549
364.935	0.6088164
365.15	0.61262046
365.366	0.61340266
365.581	0.62142855
365.797	0.62523316
366.012	0.61668212
366.228	0.6105388
366.443	0.62706618
366.658	0.62867699
366.874	0.62484044
367.089	0.63498912
367.305	0.64058192
367.52	0.64483906
367.735	0.64760933
367.951	0.63885216
368.166	0.64208959
368.381	0.65705846
368.597	0.6511072
368.812	0.65727911
369.027	0.66468012
369.243	0.67165258
369.458	0.69035096
369.673	0.69436552
369.888	0.69380068
370.104	0.68948635
370.319	0.69403076
370.534	0.69012765
370.749	0.68977371
370.964	0.68509539
371.179	0.68470408
371.395	0.68146016
371.61	0.69191531
371.825	0.68447412
372.04	0.68997014
372.255	0.68757356
372.47	0.68316093
372.685	0.67799709
372.9	0.67879851
373.115	0.67313319
373.33	0.67950192
373.545	0.67966394
373.76	0.68785822
373.975	0.68861568
374.19	0.69290273
374.405	0.69720675
374.62	0.70948482
374.835	0.72126225
375.05	0.72539529
375.265	0.72596958
375.48	0.73094028
375.695	0.74918549
375.91	0.74560501
376.125	0.73480897
376.339	0.72125649
376.554	0.72130983
376.769	0.72446481
376.984	0.7266122
377.199	0.72848416
377.414	0.73041014
377.628	0.74180016
377.843	0.75357167
378.058	0.75956143
378.273	0.76665885
378.487	0.7706407
378.702	0.77143634
378.917	0.77383532
379.131	0.77075249
379.346	0.76159815
379.561	0.75828403
379.775	0.75318363
379.99	0.74795371
380.205	0.73853838
380.419	0.73457667
380.634	0.72820071
380.848	0.73739422
381.063	0.73938275
381.278	0.74843747
381.492	0.74536313
381.707	0.75470174
381.921	0.75796422
382.136	0.77272686
382.35	0.77022382
382.565	0.76802297
382.779	0.77075119
382.994	0.77785685
383.208	0.77445143
383.422	0.78656952
383.637	0.78490996
383.851	0.79332184
384.066	0.80206266
384.28	0.8030427
384.494	0.8072681
384.709	0.81262258
384.923	0.81331429
385.137	0.80844243
385.352	0.80806775
385.566	0.811247
385.78	0.810794
385.995	0.80766217
386.209	0.80498859
386.423	0.80994546
386.637	0.81752294
386.852	0.81292899
387.066	0.81260703
387.28	0.80980305
387.494	0.81961641
387.708	0.82357322
387.923	0.82016552
388.137	0.8257785
388.351	0.83241944
388.565	0.84042142
388.779	0.84544717
388.993	0.85486776
389.207	0.85928537
389.421	0.86475401
389.635	0.85921371
389.85	0.85998493
390.064	0.85717126
390.278	0.85976906
390.492	0.85882026
390.706	0.8600329
390.92	0.85968955
391.134	0.87045914
391.348	0.88158237
391.561	0.88193419
391.775	0.88137327
391.989	0.87472796
392.203	0.87929458
392.417	0.88518385
392.631	0.88820915
392.845	0.88254903
393.059	0.89263297
393.273	0.8935554
393.486	0.89110837
393.7	0.88564551
393.914	0.89116031
394.128	0.88931365
394.342	0.88714412
394.555	0.87581125
394.769	0.87655163
394.983	0.88476378
395.197	0.89098367
395.41	0.88971342
395.624	0.89433672
395.838	0.89719222
396.051	0.91344107
396.265	0.91235239
396.479	0.91474997
396.692	0.91748637
396.906	0.91401614
397.12	0.91235542
397.333	0.91974843
397.547	0.91484099
397.76	0.92279819
397.974	0.9252993
398.187	0.92801903
398.401	0.93366978
398.614	0.9345245
398.828	0.93485678
399.041	0.93600426
399.255	0.9337129
399.468	0.93531661
399.682	0.93488095
399.895	0.9382129
400.109	0.93993327
400.322	0.93820978
400.536	0.93292294
400.749	0.94219336
400.962	0.94408713
401.176	0.9442249
401.389	0.94083638
401.602	0.93295781
401.816	0.93744596
402.029	0.94548356
402.242	0.9413712
402.456	0.94055369
402.669	0.93710919
402.882	0.93110952
403.095	0.9436813
403.309	0.94209882
403.522	0.94263262
403.735	0.94102247
403.948	0.94050217
404.161	0.95364012
404.375	0.96064835
404.588	0.95920556
404.801	0.96156904
405.014	0.95858589
405.227	0.96839099
405.44	0.97260273
405.653	0.97248543
405.866	0.97004664
406.079	0.96849958
406.293	0.96709803
406.506	0.96963368
406.719	0.96452169
406.932	0.96289896
407.145	0.95699658
407.358	0.96617129
407.571	0.96275666
407.784	0.96493825
407.996	0.96637947
408.209	0.96355861
408.422	0.96060848
408.635	0.96392479
408.848	0.96239136
409.061	0.95889756
409.274	0.95777321
409.487	0.95700062
409.7	0.95851899
409.912	0.96252503
410.125	0.96163772
410.338	0.95941587
410.551	0.96265923
410.764	0.96264638
410.976	0.96195931
411.189	0.96262472
411.402	0.95809404
411.615	0.96041677
411.827	0.96189968
412.04	0.96339523
412.253	0.96141619
412.465	0.95973649
412.678	0.957456
412.891	0.96104879
413.103	0.95170517
413.316	0.94831753
413.529	0.95193237
413.741	0.95508752
413.954	0.95698766
414.166	0.95811797
414.379	0.95520429
414.591	0.96048441
414.804	0.9582535
415.016	0.95419912
415.229	0.95104047
415.441	0.9478921
415.654	0.94969321
415.866	0.951798
416.079	0.95279256
416.291	0.95244702
416.504	0.95628303
416.716	0.95664789
416.928	0.95794163
417.141	0.95465521
417.353	0.95450037
417.566	0.94800403
417.778	0.94898842
417.99	0.94073743
418.203	0.93667141
418.415	0.93544262
418.627	0.9355214
418.839	0.93358617
419.052	0.93932407
419.264	0.93846454
419.476	0.94046965
419.688	0.94267496
419.901	0.94138182
420.113	0.93853223
420.325	0.93481473
420.537	0.92812823
420.749	0.92840099
420.961	0.92793184
421.174	0.92539093
421.386	0.9220465
421.598	0.92063486
421.81	0.91932277
422.022	0.91832774
422.234	0.91625981
422.446	0.91266818
422.658	0.91002954
422.87	0.91034241
423.082	0.90898258
423.294	0.90728779
423.506	0.90668343
423.718	0.90337515
423.93	0.89986098
424.142	0.89723266
424.354	0.89365046
424.566	0.89075573
424.778	0.88944077
424.99	0.88674669
425.202	0.88357217
425.414	0.8830598
425.625	0.88357231
425.837	0.88006114
426.049	0.8799709
426.261	0.87700631
426.473	0.87343112
426.684	0.87164901
426.896	0.87100316
427.108	0.86667402
427.32	0.8673508
427.531	0.86373711
427.743	0.86211323
427.955	0.86337553
428.167	0.86007574
428.378	0.85673832
428.59	0.85536437
428.802	0.85184664
429.013	0.84928303
429.225	0.84647927
429.436	0.84191656
429.648	0.84171939
429.86	0.83979179
430.071	0.83732709
430.283	0.8348571
430.494	0.83160057
430.706	0.82974932
430.917	0.82765583
431.129	0.8245962
431.34	0.82184883
431.552	0.82023803
431.763	0.81704974
431.975	0.81625813
432.186	0.81132273
432.398	0.80802554
432.609	0.80272342
432.821	0.79994231
433.032	0.79631402
433.243	0.7933428
433.455	0.78953436
433.666	0.78842153
433.877	0.78689401
434.089	0.78411308
434.3	0.77978893
434.511	0.77508448
434.723	0.77236707
434.934	0.76824949
435.145	0.76283502
435.356	0.7581125
435.568	0.7557302
435.779	0.75279402
435.99	0.74912128
436.201	0.74538893
436.412	0.74299156
436.624	0.7420191
436.835	0.74050787
437.046	0.73886082
437.257	0.73600557
437.468	0.73603666
437.679	0.73463829
437.89	0.73190081
438.101	0.72987717
438.312	0.72655168
438.523	0.72300998
438.734	0.72056264
438.945	0.7166862
439.156	0.71215929
439.367	0.70933837
439.578	0.70630245
439.789	0.70201636
440	0.69921607
440.211	0.69523203
440.422	0.69199452
440.633	0.6902066
440.844	0.68570883
441.055	0.68175715
441.266	0.67985809
441.477	0.6758807
441.687	0.67339429
441.898	0.67032402
442.109	0.66600611
442.32	0.6636181
442.531	0.65959307
442.741	0.65483414
442.952	0.65191821
443.163	0.64903898
443.374	0.64517252
443.584	0.6420726
443.795	0.63878829
444.006	0.63621662
444.216	0.63337544
444.427	0.6291693
444.638	0.62525453
444.848	0.62198634
445.059	0.6184824
445.27	0.61490171
445.48	0.61108857
445.691	0.6080137
445.901	0.60541234
446.112	0.60226961
446.323	0.59853681
446.533	0.59534756
446.744	0.59177848
446.954	0.58826734
447.165	0.58475873
447.375	0.58205743
447.586	0.57948844
447.796	0.57680969
448.006	0.57343987
448.217	0.57094527
448.427	0.5680746
448.638	0.56465833
448.848	0.56085028
449.058	0.55702609
449.269	0.5537829
449.479	0.55073092
449.689	0.54712593
449.9	0.54377468
450.11	0.54069029
450.32	0.53814053
450.531	0.53476704
450.741	0.53145123
450.951	0.52860294
451.161	0.52556364
451.372	0.52284253
451.582	0.52109648
451.792	0.51754995
452.002	0.5145217
452.212	0.51143226
452.422	0.50819928
452.633	0.50479508
452.843	0.5020959
453.053	0.49768461
453.263	0.4948932
453.473	0.49198127
453.683	0.4894052
453.893	0.48599633
454.103	0.48374506
454.313	0.48048188
454.523	0.47769385
454.733	0.47485709
454.943	0.47250604
455.153	0.46995865
455.363	0.46742461
455.573	0.46436459
455.783	0.461761
455.993	0.4588148
456.203	0.456407
456.413	0.45357587
456.623	0.45027219
456.833	0.4480147
457.042	0.44539846
457.252	0.44263032
457.462	0.44009193
457.672	0.43735926
457.882	0.43466201
458.091	0.43221701
458.301	0.42920284
458.511	0.42644346
458.721	0.42392898
458.931	0.42135588
459.14	0.41898547
459.35	0.4168875
459.56	0.41469029
459.769	0.4128197
459.979	0.41046255
460.189	0.40826281
460.398	0.40598354
460.608	0.40376346
460.817	0.40136051
461.027	0.39909797
461.237	0.39669174
461.446	0.39459478
461.656	0.3927648
461.865	0.39056513
462.075	0.388294
462.284	0.38623268
462.494	0.38398666
462.703	0.38146731
462.913	0.37935739
463.122	0.37695092
463.332	0.37487709
463.541	0.37299234
463.751	0.37083935
463.96	0.3690246
464.169	0.36732497
464.379	0.36581402
464.588	0.36398071
464.797	0.36211718
465.007	0.36013251
465.216	0.35838009
465.425	0.35656953
465.635	0.35479972
465.844	0.35267662
466.053	0.35074027
466.263	0.34893517
466.472	0.34705529
466.681	0.3451091
466.89	0.34310642
467.099	0.34133517
467.309	0.33967529
467.518	0.33799339
467.727	0.33654503
467.936	0.33496415
468.145	0.33369059
468.354	0.3324954
468.563	0.3310095
468.772	0.32956319
468.982	0.32814469
469.191	0.32686304
469.4	0.32537942
469.609	0.3238754
469.818	0.32273307
470.027	0.32138475
470.236	0.31997609
470.445	0.31884146
470.654	0.31729301
470.863	0.31608462
471.072	0.31493449
471.28	0.31333018
471.489	0.31226414
471.698	0.31112196
471.907	0.30990323
472.116	0.30886981
472.325	0.30779931
472.534	0.30665124
472.743	0.30540979
472.951	0.30443195
473.16	0.30348671
473.369	0.30241398
473.578	0.30156698
473.786	0.30072844
473.995	0.29977097
474.204	0.29919099
474.413	0.29823594
474.621	0.29748638
474.83	0.29690399
475.039	0.29596652
475.247	0.29515461
475.456	0.29440227
475.665	0.29370576
475.873	0.29288082
476.082	0.29185396
476.291	0.29097042
476.499	0.29032884
476.708	0.2894292
476.916	0.28877619
477.125	0.28798506
477.333	0.28732757
477.542	0.28687461
477.75	0.28622171
477.959	0.28571941
478.167	0.28541525
478.376	0.28481211
478.584	0.28425653
478.793	0.28377357
479.001	0.28322147
479.209	0.28272193
479.418	0.28226747
479.626	0.28169553
479.834	0.28121281
480.043	0.2808703
480.251	0.28046068
480.459	0.27998638
480.668	0.27972648
480.876	0.27928694
481.084	0.27895844
481.293	0.27870664
481.501	0.27833747
481.709	0.27820265
481.917	0.27807476
482.125	0.27775377
482.334	0.27759024
482.542	0.27735936
482.75	0.27712005
482.958	0.27700003
483.166	0.27685241
483.374	0.27675794
483.583	0.27688977
483.791	0.27687766
483.999	0.27677349
484.207	0.27679325
484.415	0.27674805
484.623	0.2765516
484.831	0.27659663
485.039	0.27651333
485.247	0.27651618
485.455	0.27664218
485.663	0.27673449
485.871	0.27681663
486.079	0.27687904
486.287	0.27689735
486.495	0.27686925
486.702	0.27694809
486.91	0.27705241
487.118	0.27705151
487.326	0.27715821
487.534	0.27732369
487.742	0.27759145
487.95	0.27786246
488.157	0.27812282
488.365	0.27849014
488.573	0.27887483
488.781	0.27928369
488.988	0.27975299
489.196	0.28007835
489.404	0.28050417
489.612	0.28085119
489.819	0.28120643
490.027	0.28158376
490.235	0.2818638
490.442	0.28220889
490.65	0.28258262
490.857	0.28298151
491.065	0.28334123
491.273	0.28367846
491.48	0.28406721
491.688	0.28453613
491.895	0.28497633
492.103	0.28544366
492.31	0.28587617
492.518	0.28642132
492.725	0.28701701
492.933	0.28759884
493.14	0.28818983
493.348	0.28874983
493.555	0.28926976
493.763	0.28986138
493.97	0.29028904
494.177	0.29078234
494.385	0.29135035
494.592	0.29188336
494.8	0.29238978
495.007	0.29302496
495.214	0.29359141
495.422	0.29435984
495.629	0.29506639
495.836	0.29571569
496.043	0.29641636
496.251	0.29729586
496.458	0.29798084
496.665	0.29880303
496.872	0.29957772
497.08	0.3003612
497.287	0.30110077
497.494	0.30192767
497.701	0.30267506
497.908	0.30349878
498.115	0.30422249
498.322	0.30497589
498.53	0.30576883
498.737	0.30670535
498.944	0.30753366
499.151	0.30841546
499.358	0.30929996
499.565	0.31018424
499.772	0.31117596
499.979	0.3120688
500.186	0.3130113
500.393	0.31402281
500.6	0.31496239
500.807	0.31594948
501.014	0.3169154
501.221	0.31778263
501.427	0.31875495
501.634	0.3196872
501.841	0.3205506
502.048	0.32152495
502.255	0.32236417
502.462	0.32344603
502.669	0.32463504
502.875	0.32574397
503.082	0.32677342
503.289	0.32790255
503.496	0.32893172
503.702	0.32999213
503.909	0.3310301
504.116	0.33206913
504.323	0.33312694
504.529	0.33429079
504.736	0.33532111
504.943	0.33633953
505.149	0.33757101
505.356	0.33878313
505.563	0.33991243
505.769	0.3411134
505.976	0.34223879
506.182	0.34351019
506.389	0.34488578
506.595	0.34613584
506.802	0.34724536
507.008	0.34838909
507.215	0.34954916
507.421	0.35065067
507.628	0.35180819
507.834	0.35291661
508.041	0.3541061
508.247	0.35533729
508.454	0.35663328
508.66	0.35777034
508.866	0.35904976
509.073	0.36027877
509.279	0.36157711
509.486	0.36280456
509.692	0.36408125
509.898	0.3653474
510.105	0.36674778
510.311	0.36811377
510.517	0.36956738
510.723	0.3709174
510.93	0.37222355
511.136	0.37352892
511.342	0.37491131
511.548	0.37620065
511.754	0.37751751
511.961	0.37880823
512.167	0.38010884
512.373	0.38148044
512.579	0.38294901
512.785	0.38425687
512.991	0.38563045
513.197	0.3869864
513.404	0.38839837
513.61	0.38977108
513.816	0.39114659
514.022	0.39252153
514.228	0.39384254
514.434	0.39520018
514.64	0.39666388
514.846	0.39804349
515.052	0.39952426
515.258	0.4008726
515.464	0.40226469
515.669	0.40375687
515.875	0.4053158
516.081	0.40673011
516.287	0.40823036
516.493	0.40974843
516.699	0.41130909
516.905	0.41273583
517.111	0.41421395
517.316	0.41565662
517.522	0.41716818
517.728	0.41866892
517.934	0.4201362
518.139	0.42169273
518.345	0.42322142
518.551	0.42486525
518.757	0.42645226
518.962	0.42800841
519.168	0.42947402
519.374	0.43092953
519.579	0.4323879
519.785	0.43406951
519.991	0.4354959
520.196	0.43694844
520.402	0.43842636
520.607	0.4400228
520.813	0.44175014
521.018	0.44329524
521.224	0.44459686
521.429	0.44624465
521.635	0.44780712
521.84	0.44931054
522.046	0.45090073
522.251	0.45229547
522.457	0.4538949
522.662	0.45563925
522.868	0.45711195
523.073	0.45868707
523.279	0.46026377
523.484	0.46169798
523.689	0.46332314
523.895	0.46497048
524.1	0.46651626
524.305	0.46810713
524.511	0.46970202
524.716	0.47144172
524.921	0.47314618
525.126	0.47476544
525.332	0.47632809
525.537	0.4778697
525.742	0.4796149
525.947	0.4812748
526.153	0.48281643
526.358	0.48456912
526.563	0.48625723
526.768	0.48801778
526.973	0.48978932
527.178	0.49144288
527.383	0.49305167
527.588	0.49473674
527.794	0.4961659
527.999	0.49775546
528.204	0.49926275
528.409	0.50084382
528.614	0.50252676
528.819	0.50418711
529.024	0.5058521
529.229	0.50747291
529.434	0.50918736
529.639	0.51078198
529.843	0.51244455
530.048	0.51399471
530.253	0.51562969
530.458	0.51728123
530.663	0.51899524
530.868	0.52066535
531.073	0.52224947
531.278	0.52376576
531.482	0.52530807
531.687	0.52693203
531.892	0.52845632
532.097	0.52998579
532.302	0.53161569
532.506	0.53326203
532.711	0.53487468
532.916	0.53647484
533.12	0.53806749
533.325	0.5396152
533.53	0.54136764
533.734	0.54291423
533.939	0.54460595
534.144	0.54639722
534.348	0.54814843
534.553	0.54991631
534.757	0.55159176
534.962	0.55321767
535.167	0.55495748
535.371	0.55653095
535.576	0.5582168
535.78	0.55986585
535.985	0.5615261
536.189	0.5631936
536.394	0.5648706
536.598	0.56646281
536.803	0.56821423
537.007	0.56979011
537.211	0.57150626
537.416	0.57309649
537.62	0.57485137
537.825	0.57648047
538.029	0.5783837
538.233	0.57998644
538.438	0.58171899
538.642	0.58322892
538.846	0.58486128
539.05	0.58636505
539.255	0.58781603
539.459	0.58926252
539.663	0.59093742
539.867	0.59245556
540.072	0.5941821
540.276	0.59575088
540.48	0.59740856
540.684	0.59915115
540.888	0.60089543
541.092	0.60249438
541.297	0.60408435
541.501	0.60569299
541.705	0.6073825
541.909	0.60902527
542.113	0.61066784
542.317	0.61224122
542.521	0.61381253
542.725	0.61552382
542.929	0.61713882
543.133	0.61876953
543.337	0.62050839
543.541	0.62211836
543.745	0.62357968
543.949	0.62531022
544.153	0.62688237
544.357	0.62841807
544.56	0.63006484
544.764	0.63163379
544.968	0.63318901
545.172	0.63465635
545.376	0.63623923
545.58	0.63781984
545.783	0.63954152
545.987	0.64085472
546.191	0.64234666
546.395	0.64391318
546.598	0.6456509
546.802	0.64721519
547.006	0.64880438
547.21	0.65005355
547.413	0.65188026
547.617	0.65356319
547.821	0.65518558
548.024	0.65690715
548.228	0.65843638
548.431	0.66007017
548.635	0.66178418
548.839	0.66319632
549.042	0.66471326
549.246	0.66616672
549.449	0.66748473
549.653	0.66890647
549.856	0.67026011
550.06	0.67170821
550.263	0.6732827
550.467	0.67477147
550.67	0.67629219
550.874	0.6777581
551.077	0.67948102
551.28	0.68120646
551.484	0.68280777
551.687	0.68437849
551.891	0.68598493
552.094	0.68738414
552.297	0.68899242
552.501	0.69051367
552.704	0.69197037
552.907	0.69345011
553.11	0.69474905
553.314	0.69610635
553.517	0.69749441
553.72	0.69889309
553.923	0.70017519
554.127	0.7016426
554.33	0.70288933
554.533	0.70457244
554.736	0.70600179
554.939	0.70768328
555.142	0.70934361
555.345	0.71094147
555.549	0.71253243
555.752	0.71419771
555.955	0.71560852
556.158	0.71720562
556.361	0.71857594
556.564	0.71978845
556.767	0.72121184
556.97	0.72254106
557.173	0.72397871
557.376	0.72543849
557.579	0.72667207
557.782	0.72813005
557.984	0.7298034
558.187	0.73113924
558.39	0.7324501
558.593	0.73396376
558.796	0.73529179
558.999	0.73666379
559.202	0.73796899
559.404	0.7390357
559.607	0.74037552
559.81	0.74162622
560.013	0.74264433
560.216	0.74384662
560.418	0.74523461
560.621	0.74663758
560.824	0.74811645
561.026	0.74951402
561.229	0.75087515
561.432	0.75233487
561.634	0.75366147
561.837	0.75482616
562.04	0.75611633
562.242	0.75747375
562.445	0.75881471
562.647	0.76019537
562.85	0.76141486
563.053	0.76272689
563.255	0.7641537
563.458	0.76542081
563.66	0.76664754
563.863	0.76808427
564.065	0.76946656
564.268	0.77072196
564.47	0.77200237
564.672	0.77311867
564.875	0.77452019
565.077	0.77564511
565.28	0.77653957
565.482	0.77774046
565.684	0.77893423
565.887	0.78018884
566.089	0.78158778
566.291	0.78264205
566.494	0.78387392
566.696	0.78500177
566.898	0.78622204
567.1	0.78746294
567.303	0.7886463
567.505	0.789811
567.707	0.79086546
567.909	0.79199866
568.111	0.79326026
568.314	0.79439725
568.516	0.79562325
568.718	0.79669476
568.92	0.79766782
569.122	0.7988287
569.324	0.79996379
569.526	0.80094766
569.728	0.80208801
569.93	0.80308518
570.132	0.80408976
570.334	0.80528998
570.536	0.80632329
570.738	0.80733781
570.94	0.80843401
571.142	0.8094728
571.344	0.81045672
571.546	0.81153875
571.748	0.81272707
571.95	0.81366323
572.152	0.81465991
572.354	0.81575638
572.555	0.816828
572.757	0.81806065
572.959	0.81901392
573.161	0.81959333
573.363	0.82075973
573.564	0.82194062
573.766	0.82277637
573.968	0.82363942
574.17	0.824293
574.371	0.82538319
574.573	0.82643885
574.775	0.82717269
574.976	0.8278229
575.178	0.82871853
575.38	0.82936697
575.581	0.8300428
575.783	0.8308232
575.985	0.83168315
576.186	0.83267857
576.388	0.83365426
576.589	0.83434571
576.791	0.8354136
576.992	0.83664874
577.194	0.83756377
577.395	0.83838768
577.597	0.8391842
577.798	0.83998821
578	0.84104959
578.201	0.84188135
578.402	0.84264349
578.604	0.84329805
578.805	0.84409859
579.007	0.84485291
579.208	0.84560845
579.409	0.84626966
579.611	0.84681929
579.812	0.84754427
580.013	0.84817472
580.215	0.84863818
580.416	0.8492402
580.617	0.84983438
580.818	0.85047845
581.019	0.85107567
581.221	0.85179417
581.422	0.85251069
581.623	0.85340157
581.824	0.85396233
582.025	0.85466819
582.226	0.85548667
582.428	0.85630595
582.629	0.85684189
582.83	0.8572878
583.031	0.85781699
583.232	0.85868485
583.433	0.85940735
583.634	0.85973335
583.835	0.86016706
584.036	0.86058103
584.237	0.86127037
584.438	0.86189064
584.639	0.86218036
584.84	0.86260447
585.041	0.86311566
585.242	0.86365599
585.442	0.86421581
585.643	0.86490807
585.844	0.86530026
586.045	0.86603585
586.246	0.86632976
586.447	0.86674104
586.647	0.86700594
586.848	0.86745847
587.049	0.86773281
587.25	0.8680373
587.45	0.86809199
587.651	0.86861142
587.852	0.8690055
588.053	0.86954288
588.253	0.86963348
588.454	0.86999157
588.655	0.87030021
588.855	0.87055041
589.056	0.87083043
589.256	0.87116468
589.457	0.87135835
589.658	0.87180459
589.858	0.87183636
590.059	0.87219938
590.259	0.87263475
590.46	0.87274
590.66	0.8730716
590.861	0.87331805
591.061	0.87366682
591.262	0.87422313
591.462	0.87457362
591.662	0.87484835
591.863	0.87515306
592.063	0.87534707
592.264	0.8756785
592.464	0.87594084
592.664	0.87613357
592.865	0.87633199
593.065	0.87635092
593.265	0.87674585
593.465	0.87677433
593.666	0.87693003
593.866	0.87687803
594.066	0.87695858
594.266	0.87701212
594.467	0.87690009
594.667	0.87669971
594.867	0.87672327
595.067	0.87667156
595.267	0.87673957
595.467	0.8765969
595.668	0.87648684
595.868	0.87668728
596.068	0.87680941
596.268	0.87691509
596.468	0.87696168
596.668	0.87715728
596.868	0.87707113
597.068	0.87721445
597.268	0.87725868
597.468	0.87715222
597.668	0.87713318
597.868	0.8770836
598.068	0.87679327
598.268	0.87686251
598.467	0.87669095
598.667	0.8766164
598.867	0.87641898
599.067	0.87631666
599.267	0.8761257
599.467	0.87606038
599.667	0.87576728
599.866	0.87582592
600.066	0.87571286
600.266	0.87556272
600.466	0.87536666
600.665	0.87512791
600.865	0.87488321
601.065	0.87495936
601.264	0.8745588
601.464	0.874431
601.664	0.87438634
601.863	0.87428809
602.063	0.87426852
602.263	0.87390313
602.462	0.87376368
602.662	0.87364625
602.861	0.87318617
603.061	0.87288822
603.26	0.87252331
603.46	0.87203116
603.659	0.87184552
603.859	0.87142639
604.058	0.87099221
604.258	0.87073247
604.457	0.8706201
604.657	0.8701056
604.856	0.86976793
605.056	0.8694046
605.255	0.86887472
605.454	0.86845006
605.654	0.86810854
605.853	0.86761551
606.052	0.8671766
606.252	0.86681267
606.451	0.86650464
606.65	0.866349
606.849	0.86584252
607.049	0.8654431
607.248	0.86486925
607.447	0.86448949
607.646	0.86422177
607.845	0.86364633
608.045	0.86280542
608.244	0.86248964
608.443	0.86189733
608.642	0.86149834
608.841	0.86092705
609.04	0.86011418
609.239	0.85969418
609.438	0.85921702
609.637	0.85861481
609.836	0.8580901
610.035	0.85741764
610.234	0.85702759
610.433	0.85663538
610.632	0.85602857
610.831	0.85555455
611.03	0.85499497
611.229	0.85459337
611.428	0.85416348
611.627	0.8535745
611.826	0.85296583
612.025	0.85244656
612.224	0.85174837
612.422	0.85096897
612.621	0.84996397
612.82	0.84906441
613.019	0.84827996
613.218	0.84755779
613.416	0.84662323
613.615	0.84595608
613.814	0.84521106
614.012	0.84470728
614.211	0.84398674
614.41	0.84335722
614.608	0.84263666
614.807	0.84203578
615.006	0.84131889
615.204	0.84057487
615.403	0.83988711
615.602	0.83920131
615.8	0.83832468
615.999	0.83726966
616.197	0.8364365
616.396	0.83555631
616.594	0.83475344
616.793	0.83398654
616.991	0.83316725
617.19	0.83235572
617.388	0.83185804
617.586	0.83102389
617.785	0.83016324
617.983	0.82949442
618.182	0.82849835
618.38	0.8275201
618.578	0.82658777
618.777	0.82575653
618.975	0.82500572
619.173	0.82423086
619.372	0.82331301
619.57	0.82232085
619.768	0.82161931
619.966	0.8207599
620.165	0.81957238
620.363	0.81861617
620.561	0.81764576
620.759	0.8167068
620.957	0.81606078
621.155	0.81513834
621.354	0.81432743
621.552	0.81380726
621.75	0.81277203
621.948	0.81196468
622.146	0.81094476
622.344	0.80972266
622.542	0.80871609
622.74	0.80749553
622.938	0.80628354
623.136	0.8053507
623.334	0.80432033
623.532	0.80327803
623.73	0.8022564
623.928	0.8012391
624.126	0.80032047
624.324	0.7994003
624.522	0.7981948
624.719	0.79692552
624.917	0.79590695
625.115	0.7947567
625.313	0.7938187
625.511	0.79288354
625.708	0.79158856
625.906	0.79052481
626.104	0.78950977
626.302	0.78843961
626.499	0.78747505
626.697	0.78615621
626.895	0.78479748
627.093	0.78374558
627.29	0.78271886
627.488	0.78168004
627.686	0.78066783
627.883	0.7795438
628.081	0.77827699
628.278	0.77729052
628.476	0.77600171
628.673	0.77477253
628.871	0.77358274
629.068	0.77223491
629.266	0.77107147
629.463	0.77017232
629.661	0.76899963
629.858	0.76810945
630.056	0.76705684
630.253	0.76607299
630.451	0.76503335
630.648	0.76391182
630.845	0.76271815
631.043	0.76161515
631.24	0.76047093
631.438	0.75916861
631.635	0.7577744
631.832	0.75629249
632.029	0.75501388
632.227	0.75359196
632.424	0.75225705
632.621	0.7508085
632.818	0.74950635
633.016	0.74813117
633.213	0.74694043
633.41	0.74549057
633.607	0.74425026
633.804	0.74302779
634.001	0.74166907
634.199	0.74028501
634.396	0.73912491
634.593	0.73771963
634.79	0.73657191
634.987	0.73514991
635.184	0.73360785
635.381	0.73225801
635.578	0.73102688
635.775	0.72964741
635.972	0.72840688
636.169	0.7270147
636.366	0.72579079
636.563	0.72448708
636.76	0.72311893
636.957	0.72181591
637.153	0.72031608
637.35	0.71914284
637.547	0.71784699
637.744	0.71638847
637.941	0.71513348
638.138	0.71378352
638.334	0.71246041
638.531	0.71131718
638.728	0.70998874
638.925	0.70871875
639.121	0.70751288
639.318	0.70608834
639.515	0.70468248
639.711	0.70327183
639.908	0.70156442
640.105	0.69997519
640.301	0.69853915
640.498	0.69697381
640.695	0.69568309
640.891	0.69436049
641.088	0.6929942
641.284	0.69174047
641.481	0.69046758
641.677	0.68907589
641.874	0.68774665
642.07	0.68632948
642.267	0.68513315
642.463	0.68359701
642.66	0.6824193
642.856	0.68089237
643.053	0.67933866
643.249	0.67791793
643.445	0.67646807
643.642	0.67478649
643.838	0.67354534
644.034	0.67202199
644.231	0.67071387
644.427	0.6694414
644.623	0.66805167
644.82	0.6666281
645.016	0.66506814
645.212	0.66328205
645.408	0.66165616
645.604	0.6602989
645.801	0.65881122
645.997	0.65726687
646.193	0.65586396
646.389	0.65469066
646.585	0.65359568
646.781	0.65226962
646.977	0.6507415
647.173	0.64923607
647.37	0.64775656
647.566	0.64623869
647.762	0.64477978
647.958	0.64341925
648.154	0.64195022
648.35	0.64051513
648.546	0.63901114
648.742	0.63776375
648.937	0.63633306
649.133	0.63495739
649.329	0.63342598
649.525	0.63201267
649.721	0.63049236
649.917	0.62914793
650.113	0.62748286
650.309	0.62606398
650.504	0.62431461
650.7	0.62264435
650.896	0.62093408
651.092	0.61931971
651.287	0.61773469
651.483	0.61631614
651.679	0.6147846
651.875	0.61340745
652.07	0.6119743
652.266	0.6106427
652.462	0.60930647
652.657	0.60782034
652.853	0.60624239
653.048	0.60476578
653.244	0.60328051
653.44	0.60182066
653.635	0.60027025
653.831	0.59867323
654.026	0.59735216
654.222	0.59591406
654.417	0.59456246
654.613	0.59317539
654.808	0.5917058
655.004	0.59037351
655.199	0.58906614
655.394	0.58757587
655.59	0.58619547
655.785	0.58463464
655.98	0.58318022
656.176	0.5816808
656.371	0.58036513
656.566	0.57887282
656.762	0.57728092
656.957	0.57573234
657.152	0.57418349
657.348	0.57252634
657.543	0.57098723
657.738	0.56922506
657.933	0.56768765
658.128	0.56614333
658.324	0.56459564
658.519	0.56317424
658.714	0.56170264
658.909	0.56012344
659.104	0.55875319
659.299	0.55725481
659.494	0.55579471
659.689	0.55439655
659.884	0.55291816
660.079	0.55146362
660.274	0.55006667
660.469	0.54847208
660.664	0.54701175
660.859	0.54542996
661.054	0.54382291
661.249	0.54227144
661.444	0.5407309
661.639	0.53922233
661.834	0.5378288
662.029	0.53638961
662.224	0.53506963
662.418	0.53368231
662.613	0.53231866
662.808	0.53083586
663.003	0.5293803
663.198	0.52780425
663.392	0.52619565
663.587	0.524811
663.782	0.52328828
663.977	0.52164087
664.171	0.52015347
664.366	0.51857581
664.561	0.51706621
664.755	0.5155369
664.95	0.51393377
665.144	0.51241708
665.339	0.51105293
665.534	0.50972485
665.728	0.50850161
665.923	0.50725044
666.117	0.5059975
666.312	0.50463469
666.506	0.50327021
666.701	0.5017722
666.895	0.50026479
667.09	0.4987055
667.284	0.497247
667.479	0.49568694
667.673	0.49412997
667.867	0.49263627
668.062	0.4911204
668.256	0.48968955
668.45	0.48826847
668.645	0.48671367
668.839	0.48525474
669.033	0.48370679
669.228	0.48217834
669.422	0.48073202
669.616	0.47907288
669.81	0.47754286
670.004	0.47604601
670.199	0.47455824
670.393	0.47322989
670.587	0.47178358
670.781	0.47038499
670.975	0.46907938
671.169	0.46759503
671.363	0.46620404
671.558	0.46490182
671.752	0.46344463
671.946	0.46218267
672.14	0.46084701
672.334	0.4594205
672.528	0.45823834
672.722	0.45674244
672.916	0.45526532
673.11	0.45387193
673.304	0.45263595
673.497	0.45113888
673.691	0.4499001
673.885	0.44834313
674.079	0.44712485
674.273	0.44579762
674.467	0.44452395
674.661	0.44294095
674.854	0.44152397
675.048	0.4401068
675.242	0.43883504
675.436	0.43735691
675.629	0.43589094
675.823	0.43437665
676.017	0.43301657
676.211	0.43158872
676.404	0.43011724
676.598	0.42862853
676.792	0.4271963
676.985	0.42583028
677.179	0.42443215
677.372	0.42301428
677.566	0.42169555
677.76	0.42029408
677.953	0.4187823
678.147	0.41744106
678.34	0.41608396
678.534	0.4147243
678.727	0.41353292
678.921	0.4124532
679.114	0.41122265
679.307	0.41017467
679.501	0.40894968
679.694	0.4077124
679.888	0.40646234
680.081	0.40511164
680.274	0.40354666
680.468	0.40215255
680.661	0.40067647
680.854	0.39937641
681.048	0.39805474
681.241	0.39663783
681.434	0.39532062
681.627	0.39408543
681.821	0.39280275
682.014	0.39163319
682.207	0.39024039
682.4	0.38889375
682.593	0.38771369
682.786	0.38642514
682.98	0.3851493
683.173	0.38398939
683.366	0.38277353
683.559	0.38164002
683.752	0.38047227
683.945	0.37925445
684.138	0.37814338
684.331	0.37692285
684.524	0.37580046
684.717	0.37458198
684.91	0.37348266
685.103	0.37241974
685.296	0.37133167
685.489	0.3701084
685.682	0.36895131
685.874	0.36778697
686.067	0.36655839
686.26	0.3651769
686.453	0.36377095
686.646	0.36237242
686.839	0.36116807
687.031	0.35988111
687.224	0.35843616
687.417	0.35722624
687.61	0.35596243
687.802	0.35474421
687.995	0.353596
688.188	0.35238919
688.38	0.35119657
688.573	0.35007432
688.766	0.34889452
688.958	0.34770735
689.151	0.34657134
689.343	0.34542543
689.536	0.34421543
689.729	0.34309502
689.921	0.34202044
690.114	0.34091279
690.306	0.33996455
690.499	0.33896703
690.691	0.33799758
690.884	0.33698992
691.076	0.33597257
691.268	0.33487189
691.461	0.33374817
691.653	0.33271821
691.846	0.33161313
692.038	0.33045805
692.23	0.3292559
692.423	0.32810597
692.615	0.32695173
692.807	0.3258404
692.999	0.32455446
693.192	0.32334752
693.384	0.32221471
693.576	0.32113476
693.768	0.32006533
693.961	0.31901312
694.153	0.31801631
694.345	0.31705699
694.537	0.31606567
694.729	0.31500793
694.921	0.31389354
695.113	0.31287619
695.305	0.31177861
695.498	0.31065858
695.69	0.30961444
695.882	0.30851024
696.074	0.30754341
696.266	0.30664645
696.458	0.30557058
696.65	0.30456485
696.842	0.30356235
697.033	0.30254881
697.225	0.30155851
697.417	0.30059041
697.609	0.29954556
697.801	0.29864331
697.993	0.29779185
698.185	0.29688911
698.376	0.29590562
698.568	0.29487164
698.76	0.29380848
698.952	0.29285627
699.144	0.29180755
699.335	0.29083531
699.527	0.2898743
699.719	0.2889642
699.91	0.28819559
700.102	0.28738941
700.294	0.28654719
700.485	0.28578784
700.677	0.28490258
700.869	0.28411679
701.06	0.28329004
701.252	0.2824303
701.443	0.28151805
701.635	0.2806072
701.826	0.27964469
702.018	0.27874382
702.209	0.27773768
702.401	0.27676676
702.592	0.27590886
702.784	0.27507781
702.975	0.27418539
703.166	0.27327751
703.358	0.27233007
703.549	0.27148146
703.741	0.27066475
703.932	0.26976564
704.123	0.26887125
704.315	0.26804445
704.506	0.26731998
704.697	0.26651663
704.888	0.26578279
705.08	0.26500446
705.271	0.26419555
705.462	0.26339204
705.653	0.26263178
705.844	0.26180927
706.035	0.26102868
706.227	0.2602251
706.418	0.25941965
706.609	0.25860817
706.8	0.25780622
706.991	0.25695095
707.182	0.25606343
707.373	0.2551443
707.564	0.25427906
707.755	0.25351216
707.946	0.25277372
708.137	0.25195046
708.328	0.25109985
708.519	0.25034542
708.71	0.24965792
708.901	0.24885679
709.092	0.24805579
709.283	0.24718834
709.473	0.24643319
709.664	0.24581135
709.855	0.24513746
710.046	0.24452392
710.237	0.24391861
710.427	0.24320332
710.618	0.24263292
710.809	0.24201997
711	0.24139267
711.19	0.24074749
711.381	0.24004203
711.572	0.23930329
711.762	0.23868853
711.953	0.23791804
712.144	0.23709236
712.334	0.23621789
712.525	0.23546987
712.715	0.23473912
712.906	0.23401952
713.097	0.23322702
713.287	0.23256134
713.478	0.23196952
713.668	0.2313513
713.859	0.23065681
714.049	0.22996045
714.239	0.22938925
714.43	0.22887153
714.62	0.22833398
714.811	0.22777379
715.001	0.22728316
715.191	0.22674962
715.382	0.22625186
715.572	0.22572411
715.762	0.22523025
715.953	0.22474466
716.143	0.2242884
716.333	0.22370687
716.523	0.22321834
716.714	0.22270164
716.904	0.22207018
717.094	0.22139776
717.284	0.22063367
717.474	0.21983188
717.664	0.21919327
717.855	0.2185584
718.045	0.21793684
718.235	0.21737548
718.425	0.2168096
718.615	0.2162625
718.805	0.21577259
718.995	0.2152778
719.185	0.21478621
719.375	0.21425756
719.565	0.21385309
719.755	0.21340195
719.945	0.21302898
720.135	0.21259834
720.325	0.21208319
720.515	0.21149756
720.704	0.21097591
720.894	0.21032671
721.084	0.2097305
721.274	0.20917386
721.464	0.20867875
721.654	0.20836079
721.843	0.20804389
722.033	0.20771552
722.223	0.20732476
722.413	0.20690065
722.602	0.20646847
722.792	0.20599511
722.982	0.20539193
723.171	0.20475526
723.361	0.20412196
723.55	0.20363278
723.74	0.20319808
723.93	0.20273531
724.119	0.20230199
724.309	0.2019215
724.498	0.2015929
724.688	0.20134445
724.877	0.20099215
725.067	0.2006247
725.256	0.20019507
725.446	0.19975997
725.635	0.19926046
725.825	0.19873393
726.014	0.1981286
726.203	0.19755339
726.393	0.19696774
726.582	0.19645117
726.771	0.19604946
726.961	0.19569053
727.15	0.19532641
727.339	0.19500258
727.529	0.19473811
727.718	0.1944046
727.907	0.19405844
728.096	0.19361909
728.286	0.19312999
728.475	0.19283118
728.664	0.19254705
728.853	0.19226323
729.042	0.19211027
729.231	0.19190516
729.42	0.19164854
729.609	0.1913862
729.799	0.19098285
729.988	0.19060881
730.177	0.19024104
730.366	0.18986181
730.555	0.18957338
730.744	0.18934379
730.933	0.18913981
731.122	0.18891142
731.31	0.18859195
731.499	0.18825815
731.688	0.1878372
731.877	0.18729772
732.066	0.18679695
732.255	0.18628364
732.444	0.18584523
732.632	0.18540227
732.821	0.18498822
733.01	0.18467235
733.199	0.18436578
733.388	0.18403465
733.576	0.18379534
733.765	0.18355612
733.954	0.1834158
734.142	0.18321823
734.331	0.18287958
734.52	0.18260676
734.708	0.18229489
734.897	0.18192423
735.086	0.18150242
735.274	0.18106165
735.463	0.18066358
735.651	0.18035131
735.84	0.18006178
736.028	0.1797825
736.217	0.17957857
736.405	0.17939782
736.594	0.17919572
736.782	0.17900973
736.971	0.17878803
737.159	0.1786364
737.347	0.17848669
737.536	0.17827236
737.724	0.1780068
737.912	0.17774498
738.101	0.17745509
738.289	0.17726887
738.477	0.17700508
738.666	0.176749
738.854	0.17653892
739.042	0.17639978
739.23	0.17615378
739.418	0.1759652
739.607	0.17566012
739.795	0.17539195
739.983	0.17518689
740.171	0.17498446
740.359	0.1747958
740.547	0.17471732
740.735	0.17461314
740.923	0.17459688
741.112	0.17448757
741.3	0.17434406
741.488	0.1741651
741.676	0.17393014
741.864	0.17371016
742.052	0.1735192
742.239	0.17333773
742.427	0.17326451
742.615	0.17320249
742.803	0.17313997
742.991	0.17307318
743.179	0.17300696
743.367	0.17280335
743.555	0.17260036
743.742	0.17242928
743.93	0.1722135
744.118	0.17198981
744.306	0.17188822
744.494	0.17179919
744.681	0.17179691
744.869	0.17171139
745.057	0.1716327
745.244	0.17160254
745.432	0.17154657
745.62	0.1714088
745.807	0.17127148
745.995	0.17109754
746.182	0.17090014
746.37	0.1706266
746.558	0.17043102
746.745	0.17029195
746.933	0.1700357
747.12	0.16981575
747.308	0.16967768
747.495	0.16966285
747.683	0.1696897
747.87	0.16952399
748.057	0.16932941
748.245	0.16928807
748.432	0.16916849
748.62	0.16905778
748.807	0.16895977
748.994	0.16889301
749.182	0.16889431
749.369	0.16892117
749.556	0.1689514
749.743	0.16891646
749.931	0.16887161
750.118	0.16882342
750.305	0.16876357
750.492	0.16872074
750.68	0.16870014
750.867	0.16857136
751.054	0.16852122
751.241	0.16837153
751.428	0.16821049
751.615	0.16803021
751.802	0.16798645
751.989	0.16791706
752.176	0.16801245
752.363	0.16808236
752.55	0.16817113
752.737	0.16817143
752.924	0.16813221
753.111	0.16797603
753.298	0.16786915
753.485	0.16760915
753.672	0.16739718
753.859	0.16735708
754.046	0.16735639
754.233	0.16739834
754.42	0.16752168
754.606	0.16747689
754.793	0.1675759
754.98	0.16772964
755.167	0.16775588
755.353	0.16777979
755.54	0.16774481
755.727	0.16761462
755.914	0.16755524
756.1	0.16742263
756.287	0.16718766
756.474	0.16697679
756.66	0.16689736
756.847	0.16693353
757.033	0.16697965
757.22	0.1671439
757.407	0.16732778
757.593	0.16742205
757.78	0.16751364
757.966	0.16752071
758.153	0.16743716
758.339	0.16736767
758.526	0.16721888
758.712	0.16703267
758.898	0.16701228
759.085	0.16697703
759.271	0.16695899
759.458	0.16700307
759.644	0.16710393
759.83	0.16726396
760.017	0.16746082
760.203	0.16766539
760.389	0.16788991
760.576	0.16803003
760.762	0.16809815
760.948	0.16805942
761.134	0.16802545
761.32	0.16797517
761.507	0.16791791
761.693	0.16783904
761.879	0.16778327
762.065	0.16781376
762.251	0.16784703
762.437	0.16786436
762.623	0.1678987
762.809	0.16787785
762.995	0.16791355
763.181	0.16799993
763.367	0.1680168
763.553	0.16817785
763.739	0.16837961
763.925	0.16855697
764.111	0.16878747
764.297	0.16896433
764.483	0.16908226
764.669	0.16920494
764.855	0.16920375
765.041	0.16923227
765.227	0.1692316
765.412	0.16929357
765.598	0.16932148
765.784	0.16936149
765.97	0.16943864
766.156	0.16951041
766.341	0.1695293
766.527	0.16964513
766.713	0.16970541
766.898	0.16978249
767.084	0.16988187
767.27	0.1699899
767.455	0.17013174
767.641	0.17022601
767.827	0.17019105
768.012	0.17023
768.198	0.17029469
768.383	0.17026964
768.569	0.17032676
768.754	0.17040382
768.94	0.17045521
769.125	0.17059796
769.311	0.17064815
769.496	0.17065254
769.682	0.17078358
769.867	0.17081432
770.052	0.17083235
770.238	0.17092241
770.423	0.17103015
770.608	0.17114359
770.794	0.17129666
770.979	0.17145322
771.164	0.17153519
771.35	0.17158555
771.535	0.17158918
771.72	0.17154188
771.905	0.17154388
772.09	0.17157749
772.276	0.17160337
772.461	0.17164248
772.646	0.1717608
772.831	0.17186987
773.016	0.17199393
773.201	0.17206633
773.386	0.17214414
773.571	0.17222587
773.756	0.17233751
773.941	0.17243865
774.126	0.17263212
774.311	0.17279771
774.496	0.17301447
774.681	0.17321738
774.866	0.17335152
775.051	0.17355901
775.236	0.17373209
775.421	0.17385103
775.606	0.1740016
775.791	0.17404456
775.976	0.17415411
776.16	0.17432336
776.345	0.17443996
776.53	0.17452511
776.715	0.17462163
776.899	0.17474217
777.084	0.17483211
777.269	0.17481363
777.454	0.17475817
777.638	0.17476125
777.823	0.17485682
778.008	0.17488844
778.192	0.17491603
778.377	0.17499681
778.561	0.17517478
778.746	0.17543513
778.931	0.17559126
779.115	0.17567661
779.3	0.17569646
779.484	0.1756747
779.669	0.17567136
779.853	0.17550048
780.037	0.17532276
780.222	0.17517675
780.406	0.17499135
780.591	0.17492914
780.775	0.17485137
780.959	0.17483864
781.144	0.17495577
781.328	0.17496529
781.512	0.17498808
781.697	0.17509309
781.881	0.17519631
782.065	0.17541154
782.249	0.17549187
782.434	0.17558122
782.618	0.17569346
782.802	0.17589046
782.986	0.17603563
783.17	0.17615754
783.354	0.17624789
783.539	0.17642102
783.723	0.17648398
783.907	0.17659171
784.091	0.17661685
784.275	0.17658939
784.459	0.17651809
784.643	0.17639412
784.827	0.17623768
785.011	0.17618952
785.195	0.17617607
785.379	0.17615854
785.563	0.17619332
785.747	0.1762671
785.93	0.17643457
786.114	0.17664613
786.298	0.17680001
786.482	0.17686348
786.666	0.17698278
786.85	0.17707588
787.033	0.17730802
787.217	0.17742601
787.401	0.17747692
787.585	0.1776878
787.768	0.1779651
787.952	0.17815041
788.136	0.17835275
788.319	0.17842452
788.503	0.17852826
788.687	0.17874271
788.87	0.17891333
789.054	0.17901709
789.237	0.1791688
789.421	0.17920863
789.605	0.17918266
789.788	0.17927866
789.972	0.17929174
790.155	0.17918025
790.338	0.17918336
790.522	0.17923855
790.705	0.17936107
790.889	0.17954907
791.072	0.17961013
791.256	0.17979862
791.439	0.17997849
791.622	0.18002718
791.806	0.18000502
791.989	0.18004404
792.172	0.18012224
792.355	0.18025538
792.539	0.1803108
792.722	0.180331
792.905	0.18049831
793.088	0.18068313
793.271	0.18092326
793.455	0.18114861
793.638	0.18138595
793.821	0.18154121
794.004	0.18179337
794.187	0.18201552
794.37	0.18231063
794.553	0.18252036
794.736	0.18275372
794.919	0.18291512
795.102	0.1830839
795.285	0.1832551
795.468	0.18330644
795.651	0.18334453
795.834	0.18355442
796.017	0.18368932
796.2	0.18382516
796.383	0.18406171
796.566	0.18437141
796.749	0.18473535
796.931	0.18504531
797.114	0.18517846
797.297	0.1853621
797.48	0.1855565
797.663	0.18567703
797.845	0.18570967
798.028	0.18569958
798.211	0.18563851
798.393	0.18554708
798.576	0.18548947
798.759	0.18543372
798.941	0.18549093
799.124	0.18560162
799.307	0.18582343
799.489	0.18609495
799.672	0.18634485
799.854	0.18667045
800.037	0.18697475
800.219	0.18725991
800.402	0.18747279
800.584	0.18757839
800.767	0.18771464
800.949	0.18791675
801.132	0.18805446
801.314	0.18823264
801.496	0.18833074
801.679	0.18846392
801.861	0.18867927
802.043	0.18897735
802.226	0.18931624
802.408	0.18948435
802.59	0.18967087
802.772	0.18984119
802.955	0.18998716
803.137	0.19006974
803.319	0.19001379
803.501	0.19003123
803.684	0.19022877
803.866	0.1902929
804.048	0.19036791
804.23	0.19048735
804.412	0.1905866
804.594	0.19078744
804.776	0.19099428
804.958	0.19112811
805.14	0.19134516
805.322	0.19152136
805.504	0.19160206
805.686	0.19161885
805.868	0.19159402
806.05	0.1913326
806.232	0.19113826
806.414	0.19097958
806.596	0.19084615
806.778	0.19074387
806.96	0.19082579
807.141	0.19088716
807.323	0.19104262
807.505	0.1910319
807.687	0.19096719
807.869	0.19097072
808.05	0.19094452
808.232	0.19088839
808.414	0.19088613
808.595	0.19090557
808.777	0.19103454
808.959	0.19123046
809.14	0.19132636
809.322	0.19146736
809.504	0.19154033
809.685	0.19158121
809.867	0.19155066
810.048	0.1915034
810.23	0.1913184
810.411	0.19119202
810.593	0.19100762
810.774	0.19086745
810.956	0.19071276
811.137	0.19064284
811.319	0.1904908
811.5	0.19050156
811.681	0.19051705
811.863	0.19060743
812.044	0.19066211
812.225	0.19082262
812.407	0.19093994
812.588	0.19113757
812.769	0.19120597
812.951	0.19126609
813.132	0.1912571
813.313	0.19136412
813.494	0.19129431
813.675	0.19140463
813.857	0.19152635
814.038	0.19170999
814.219	0.19188716
814.4	0.19212185
814.581	0.19221745
814.762	0.19233618
814.943	0.19234897
815.124	0.19237071
815.305	0.19240427
815.486	0.19251115
815.667	0.19246098
815.848	0.19244878
816.029	0.19230918
816.21	0.19217878
816.391	0.19216001
816.572	0.19216473
816.753	0.19219145
816.934	0.19239667
817.115	0.19254687
817.295	0.19287305
817.476	0.19313909
817.657	0.19327829
817.838	0.1933494
818.019	0.1933739
818.199	0.19344223
818.38	0.19367366
818.561	0.19386703
818.741	0.19405457
818.922	0.19423476
819.103	0.19445687
819.283	0.1946822
819.464	0.19486084
819.645	0.19478259
819.825	0.19467739
820.006	0.1946148
820.186	0.19460587
820.367	0.19475817
820.547	0.1948145
820.728	0.19498045
820.908	0.19538564
821.089	0.19585759
821.269	0.1962475
821.45	0.1966182
821.63	0.19675155
821.81	0.19692483
821.991	0.19684597
822.171	0.19676399
822.351	0.19667374
822.532	0.1965815
822.712	0.19640743
822.892	0.19641386
823.072	0.19652816
823.253	0.19676637
823.433	0.19687859
823.613	0.19708267
823.793	0.19736027
823.973	0.19774285
824.154	0.19795394
824.334	0.19811815
824.514	0.19832484
824.694	0.19859191
824.874	0.19869699
825.054	0.1988596
825.234	0.19889262
825.414	0.19894914
825.594	0.1989791
825.774	0.19901734
825.954	0.19907016
826.134	0.19913179
826.314	0.19912434
826.494	0.19922764
826.674	0.19928025
826.854	0.19945152
827.033	0.19950123
827.213	0.19963338
827.393	0.19976151
827.573	0.1999949
827.753	0.2002003
827.932	0.20047621
828.112	0.20055471
828.292	0.20065986
828.472	0.20063
828.651	0.20066239
828.831	0.2005655
829.011	0.20041686
829.19	0.20031803
829.37	0.20032692
829.549	0.20045436
829.729	0.20051022
829.909	0.20055459
830.088	0.20063469
830.268	0.20074536
830.447	0.20088218
830.627	0.20096852
830.806	0.20100708
830.986	0.20118729
831.165	0.20130342
831.344	0.20148891
831.524	0.20163231
831.703	0.20161552
831.883	0.20152802
832.062	0.20141765
832.241	0.20126268
832.421	0.20115146
832.6	0.20101348
832.779	0.20099965
832.958	0.20096357
833.138	0.20112067
833.317	0.20124275
833.496	0.20131049
833.675	0.20141563
833.854	0.20158619
834.034	0.20167247
834.213	0.20183324
834.392	0.20191954
834.571	0.20207142
834.75	0.20227164
834.929	0.20242862
835.108	0.20252846
835.287	0.2026325
835.466	0.20269339
835.645	0.20276775
835.824	0.20273424
836.003	0.20276547
836.182	0.20290473
836.361	0.20314816
836.54	0.20333891
836.719	0.20363902
836.897	0.20379135
837.076	0.20410998
837.255	0.20438799
837.434	0.20448719
837.613	0.20444787
837.791	0.20442738
837.97	0.20444685
838.149	0.20450905
838.328	0.2044597
838.506	0.20437367
838.685	0.2044641
838.864	0.20451678
839.042	0.20450627
839.221	0.20447569
839.4	0.20438152
839.578	0.20435471
839.757	0.20435128
839.935	0.2042139
840.114	0.20428847
840.292	0.20446302
840.471	0.20463028
840.649	0.20493497
840.828	0.20522631
841.006	0.20548818
841.185	0.20569247
841.363	0.20557292
841.541	0.2054165
841.72	0.20525111
841.898	0.20518038
842.076	0.20490042
842.255	0.2046285
842.433	0.2045539
842.611	0.20449228
842.789	0.20457592
842.968	0.20475157
843.146	0.2046967
843.324	0.20486072
843.502	0.20501121
843.68	0.20513289
843.859	0.20540413
844.037	0.20553294
844.215	0.20549941
844.393	0.20558116
844.571	0.20554679
844.749	0.2054893
844.927	0.2053773
845.105	0.20515746
845.283	0.20510904
845.461	0.20518893
845.639	0.20525492
845.817	0.20544339
845.995	0.20577312
846.173	0.20609754
846.351	0.20634202
846.529	0.20639206
846.706	0.20642478
846.884	0.20643547
847.062	0.20626676
847.24	0.20612401
847.418	0.20584535
847.595	0.2056334
847.773	0.20551162
847.951	0.20538621
848.129	0.20540065
848.306	0.20561715
848.484	0.20560578
848.662	0.20566462
848.839	0.20585135
849.017	0.20597406
849.194	0.20597021
849.372	0.2057402
849.549	0.20552971
849.727	0.20548336
849.905	0.20547096
850.082	0.20543547
850.26	0.20549573
850.437	0.20559425
850.614	0.20580485
850.792	0.20581721
850.969	0.20575446
851.147	0.20576744
851.324	0.20573398
851.501	0.20568336
851.679	0.20564834
851.856	0.20568912
852.033	0.20586662
852.211	0.2060375
852.388	0.20606779
852.565	0.20609051
852.742	0.20600304
852.92	0.20586882
853.097	0.20562837
853.274	0.20538644
853.451	0.20519125
853.628	0.20499421
853.805	0.20487824
853.982	0.204848
854.159	0.20485784
854.336	0.20497967
854.514	0.20504169
854.691	0.20499899
854.868	0.20507707
855.045	0.20506297
855.221	0.20515652
855.398	0.20505119
855.575	0.20494309
855.752	0.20484621
855.929	0.20486653
856.106	0.20474267
856.283	0.20468398
856.46	0.20457863
856.637	0.20470971
856.813	0.20462979
856.99	0.20450277
857.167	0.20440894
857.344	0.20435926
857.52	0.20434046
857.697	0.20417227
857.874	0.20407053
858.05	0.20394301
858.227	0.20391876
858.404	0.20390363
858.58	0.20396861
858.757	0.20393944
858.933	0.20397614
859.11	0.20389525
859.287	0.20391322
859.463	0.20385465
859.64	0.20391119
859.816	0.20383295
859.993	0.20391039
860.169	0.20409146
860.345	0.20419939
860.522	0.20432484
860.698	0.20438144
860.875	0.20423768
861.051	0.20430194
861.227	0.20413828
861.404	0.20388561
861.58	0.2037751
861.756	0.20369792
861.932	0.20375903
862.109	0.20383005
862.285	0.20392006
862.461	0.20428802
862.637	0.20462909
862.813	0.20490122
862.99	0.20506018
863.166	0.20509835
863.342	0.20513836
863.518	0.20486184
863.694	0.20443455
863.87	0.20406636
864.046	0.2037922
864.222	0.20352338
864.398	0.20337504
864.574	0.20310111
864.75	0.20314741
864.926	0.20322432
865.102	0.20323986
865.278	0.2031792
865.454	0.20314174
865.63	0.20298564
865.805	0.20291726
865.981	0.20284599
866.157	0.20265131
866.333	0.20241931
866.509	0.20232254
866.684	0.20231086
866.86	0.20244909
867.036	0.20250908
867.212	0.20249135
867.387	0.20266167
867.563	0.202803
867.739	0.20265045
867.914	0.20261316
868.09	0.20237147
868.265	0.20233705
868.441	0.20225847
868.617	0.20192024
868.792	0.20170469
868.968	0.20157821
869.143	0.20143395
869.319	0.20147025
869.494	0.20124236
869.67	0.20107234
869.845	0.20108439
870.02	0.20098283
870.196	0.20083427
870.371	0.20062158
870.546	0.20026862
870.722	0.20005466
870.897	0.19976023
871.072	0.19942317
871.248	0.19917289
871.423	0.19899911
871.598	0.19889875
871.773	0.19859942
871.949	0.19842646
872.124	0.19839149
872.299	0.19830057
872.474	0.19824519
872.649	0.1982263
872.824	0.19809982
872.999	0.19832027
873.174	0.19842989
873.349	0.1984435
873.524	0.19852381
873.699	0.19862937
873.874	0.19857319
874.049	0.19856403
874.224	0.19848224
874.399	0.19851671
874.574	0.19850133
874.749	0.19843916
874.924	0.19818671
875.099	0.19804076
875.274	0.19780904
875.449	0.19770383
875.623	0.19748181
875.798	0.19727077
875.973	0.19703098
876.148	0.19689748
876.322	0.19676956
876.497	0.19669473
876.672	0.19649181
876.846	0.19636249
877.021	0.1962578
877.196	0.19610643
877.37	0.19609741
877.545	0.19620795
877.72	0.19620116
877.894	0.196236
878.069	0.19620467
878.243	0.19607926
878.418	0.19620482
878.592	0.19620304
878.767	0.19598917
878.941	0.19586652
879.116	0.19567745
879.29	0.19550297
879.464	0.19542722
879.639	0.1952032
879.813	0.19503545
879.987	0.1947587
880.162	0.19458064
880.336	0.19442076
880.51	0.19419529
880.685	0.19401824
880.859	0.19385139
881.033	0.19349937
881.207	0.19339686
881.381	0.19335303
881.556	0.19318038
881.73	0.19307822
881.904	0.19308672
882.078	0.19307888
882.252	0.19306917
882.426	0.19309503
882.6	0.19307815
882.774	0.19331287
882.948	0.19342824
883.122	0.19329589
883.296	0.19323643
883.47	0.19330562
883.644	0.1933003
883.818	0.19314052
883.992	0.1929925
884.166	0.1929418
884.34	0.19294326
884.514	0.19288291
884.687	0.19274226
884.861	0.1925331
885.035	0.19239752
885.209	0.19217779
885.382	0.19191587
885.556	0.19155675
885.73	0.19128911
885.904	0.19120267
886.077	0.19098401
886.251	0.19084076
886.425	0.1908313
886.598	0.19072481
886.772	0.1906771
886.945	0.19055555
887.119	0.19028296
887.292	0.1901724
887.466	0.19007215
887.64	0.189727
887.813	0.18952357
887.986	0.18936848
888.16	0.18930876
888.333	0.18930084
888.507	0.18928812
888.68	0.1889641
888.854	0.18876015
889.027	0.18843537
889.2	0.18823031
889.374	0.18785989
889.547	0.18769739
889.72	0.18751726
889.893	0.18738331
890.067	0.1872357
890.24	0.187227
890.413	0.18726897
890.586	0.18727501
890.759	0.18705067
890.933	0.18695279
891.106	0.18699136
891.279	0.18703116
891.452	0.18711482
891.625	0.18699697
891.798	0.186932
891.971	0.18675025
892.144	0.18649689
892.317	0.18624134
892.49	0.1859337
892.663	0.18560635
892.836	0.18540816
893.009	0.18520309
893.182	0.18509257
893.355	0.18505343
893.527	0.18507852
893.7	0.18518131
893.873	0.18516911
894.046	0.18494219
894.219	0.18481096
894.391	0.18462628
894.564	0.18424612
894.737	0.18376512
894.91	0.18333492
895.082	0.18286699
895.255	0.18246683
895.428	0.18204697
895.6	0.18176705
895.773	0.18160249
895.945	0.18144777
896.118	0.18125345
896.291	0.18110366
896.463	0.18103512
896.636	0.1809162
896.808	0.18070891
896.981	0.18051734
897.153	0.18043749
897.326	0.18039444
897.498	0.18030404
897.67	0.18015787
897.843	0.18013366
898.015	0.18004077
898.187	0.18003743
898.36	0.18002479
898.532	0.17986981
898.704	0.17995903
898.877	0.18005095
899.049	0.18009266
899.221	0.1801559
899.393	0.18011289
899.566	0.1800822
899.738	0.1801197
899.91	0.18001804
900.082	0.17983234
900.254	0.17957237
900.426	0.17949473
900.598	0.17934911
900.77	0.1790483
900.942	0.17866152
901.114	0.17825265
901.286	0.17797587
901.458	0.17768062
901.63	0.17743979
901.802	0.1773501
901.974	0.1773443
902.146	0.17735165
902.318	0.1774486
902.49	0.17741296
902.662	0.17726033
902.834	0.17700151
903.005	0.17676086
903.177	0.17632424
903.349	0.17607486
903.521	0.17560986
903.693	0.17532772
903.864	0.17520882
904.036	0.17504958
904.208	0.17469016
904.379	0.17449801
904.551	0.17426418
904.723	0.17416554
904.894	0.17410496
905.066	0.17415347
905.237	0.17416452
905.409	0.1741166
905.58	0.17410051
905.752	0.17383891
905.923	0.17349506
906.095	0.1730277
906.266	0.17238755
906.438	0.17186217
906.609	0.17160632
906.78	0.17138125
906.952	0.17124584
907.123	0.17108623
907.295	0.17102515
907.466	0.17093221
907.637	0.17086606
907.808	0.17047323
907.98	0.17002757
908.151	0.16969635
908.322	0.16965782
908.493	0.16950838
908.665	0.16946222
908.836	0.16939723
909.007	0.16952444
909.178	0.16956383
909.349	0.16953908
909.52	0.1693367
909.691	0.16900634
909.862	0.16882932
910.033	0.16844932
910.204	0.16820474
910.375	0.16800253
910.546	0.16781986
910.717	0.16768074
910.888	0.16774172
911.059	0.1675278
911.23	0.16745023
911.401	0.16708587
911.572	0.16677816
911.742	0.16649842
911.913	0.16626835
912.084	0.16594104
912.255	0.16589255
912.426	0.16560913
912.596	0.16552402
912.767	0.16552105
912.938	0.16556186
913.108	0.16540806
913.279	0.16515703
913.45	0.16481472
913.62	0.16469317
913.791	0.16455019
913.962	0.16433164
914.132	0.16401557
914.303	0.16385319
914.473	0.16378497
914.644	0.16362477
914.814	0.16354598
914.985	0.16350148
915.155	0.1634156
915.326	0.16334486
915.496	0.16318696
915.666	0.16301578
915.837	0.16302428
916.007	0.1627165
916.177	0.16241472
916.348	0.1621612
916.518	0.16182674
916.688	0.16153101
916.858	0.16127704
917.029	0.16085616
917.199	0.1606675
917.369	0.16045879
917.539	0.16020763
917.709	0.16011808
917.88	0.15994478
918.05	0.15968289
918.22	0.15951999
918.39	0.15928384
918.56	0.15914259
918.73	0.15908047
918.9	0.15879439
919.07	0.15862056
919.24	0.15854422
919.41	0.15852492
919.58	0.15834368
919.75	0.15810216
919.92	0.1576633
920.09	0.15739091
920.26	0.15706271
920.429	0.15678231
920.599	0.15628912
920.769	0.15597325
920.939	0.15563487
921.109	0.15549888
921.278	0.15528459
921.448	0.15531626
921.618	0.15522245
921.787	0.15522063
921.957	0.15525228
922.127	0.15517582
922.296	0.1549523
922.466	0.15474516
922.636	0.15444163
922.805	0.15421965
922.975	0.15386172
923.144	0.1537182
923.314	0.15354012
923.483	0.15342298
923.653	0.15347796
923.822	0.15344345
923.992	0.15338184
924.161	0.15332535
924.331	0.15300985
924.5	0.15273491
924.669	0.1525119
924.839	0.1521479
925.008	0.15153437
925.177	0.15092928
925.347	0.15053524
925.516	0.15028222
925.685	0.14992915
925.854	0.14976358
926.023	0.1494494
926.193	0.14928165
926.362	0.14889553
926.531	0.14849541
926.7	0.14805505
926.869	0.14775956
927.038	0.14720164
927.207	0.14688525
927.376	0.14668265
927.545	0.14678923
927.715	0.14665068
927.884	0.14652742
928.052	0.14649204
928.221	0.1463459
928.39	0.14621508
928.559	0.14588283
928.728	0.14551996
928.897	0.14537316
929.066	0.14529386
929.235	0.14503423
929.404	0.14490066
929.572	0.14477115
929.741	0.14470218
929.91	0.14465432
930.079	0.14446135
930.247	0.14420255
930.416	0.14429345
930.585	0.14406264
930.753	0.14379747
930.922	0.143505
931.091	0.14340817
931.259	0.14327503
931.428	0.14331834
931.596	0.14312825
931.765	0.14325817
931.934	0.14357043
932.102	0.14353799
932.27	0.14347749
932.439	0.14363393
932.607	0.1434235
932.776	0.1434206
932.944	0.14324832
933.113	0.14289993
933.281	0.14299237
933.449	0.14272558
933.618	0.14250789
933.786	0.14236156
933.954	0.14190556
934.123	0.14185201
934.291	0.14173288
934.459	0.14166749
934.627	0.14171015
934.795	0.14156722
934.964	0.14134525
935.132	0.14110866
935.3	0.14066982
935.468	0.14011115
935.636	0.13981441
935.804	0.13940365
935.972	0.13914326
936.14	0.13899495
936.308	0.13919255
936.476	0.13909613
936.644	0.13930507
936.812	0.13926735
936.98	0.13929998
937.148	0.13929091
937.316	0.13906169
937.484	0.1390742
937.652	0.13937111
937.82	0.13963296
937.987	0.13963208
938.155	0.13973842
938.323	0.13981871
938.491	0.140207
938.658	0.14016047
938.826	0.1401648
938.994	0.14011051
939.162	0.14030302
939.329	0.14076376
939.497	0.14122292
939.665	0.1411453
939.832	0.14181076
940	0.14216713
940.167	0.1420306
940.335	0.14177154
940.502	0.14156089
940.67	0.14158194
940.837	0.14229118
941.005	0.14182983
941.172	0.14194597
941.34	0.14284475
941.507	0.14421802
941.674	0.14471601
941.842	0.14476274
942.009	0.14499551
942.177	0.14537937
942.344	0.14637598
942.511	0.14644257
942.678	0.14621368
942.846	0.14629057
943.013	0.14610253
943.18	0.14603618
943.347	0.14607527
943.514	0.14502112
943.682	0.14501019
943.849	0.14433058
944.016	0.1437899
944.183	0.14402134
944.35	0.14416519
944.517	0.14402581
944.684	0.14414678
944.851	0.14195396
945.018	0.14159187
945.185	0.14169991
945.352	0.14104812
945.519	0.14076549
945.686	0.14084941
945.853	0.14090665
946.02	0.14133232
946.187	0.14101534
946.353	0.14054914
946.52	0.14066841
946.687	0.13903763
946.854	0.13877388
947.021	0.1381681
947.187	0.13773156
947.354	0.13649141
947.521	0.13609873
947.687	0.13506772
947.854	0.13516774
948.021	0.13390912
948.187	0.13356774
948.354	0.13293673
948.52	0.13258487
948.687	0.13214035
948.854	0.13198606
949.02	0.13098102
949.187	0.13107082
949.353	0.13018585
949.52	0.12971427
949.686	0.12976222
949.852	0.12973273
950.019	0.1297545
950.185	0.12982791
950.352	0.12876394
950.518	0.12818982
950.684	0.12858757
950.851	0.12843855
951.017	0.12756486
951.183	0.12649895
951.349	0.12568183
951.516	0.12469034
951.682	0.12438226
951.848	0.12326167
952.014	0.12268242
952.18	0.12203029
952.346	0.12123657
952.512	0.12119809
952.679	0.12155702
952.845	0.12099867
953.011	0.12089407
953.177	0.12043822
953.343	0.11972485
953.509	0.1204014
953.675	0.11975212
953.841	0.11927933
954.007	0.11875686
954.172	0.11855615
954.338	0.11825515
954.504	0.11795096
954.67	0.11685974
954.836	0.11664763
955.002	0.11627533
955.167	0.1160362
955.333	0.11533049
955.499	0.11506522
955.665	0.11472776
955.83	0.11481978
955.996	0.11486174
956.162	0.11469111
956.327	0.11450575
956.493	0.11439812
956.659	0.11393593
956.824	0.11410981
956.99	0.1132674
957.155	0.11293147
957.321	0.112799
957.486	0.11254229
957.652	0.11209707
957.817	0.11244909
957.983	0.1118296
958.148	0.11202232
958.314	0.11171065
958.479	0.11083024
958.644	0.11026886
958.81	0.11014073
958.975	0.1094868
959.14	0.10967829
959.306	0.10929787
959.471	0.10859888
959.636	0.1085164
959.801	0.10862521
959.967	0.10857282
960.132	0.10839677
960.297	0.10776456
960.462	0.10748484
960.627	0.1074545
960.792	0.10707589
960.957	0.10692608
961.123	0.1066581
961.288	0.10652051
961.453	0.1063897
961.618	0.10648404
961.783	0.10620084
961.948	0.10574416
962.113	0.10529386
962.277	0.10505753
962.442	0.10461238
962.607	0.10451463
962.772	0.10394974
962.937	0.10367121
963.102	0.10387881
963.267	0.10390334
963.431	0.10344327
963.596	0.10337663
963.761	0.10307477
963.926	0.10277766
964.09	0.10254958
964.255	0.1025329
964.42	0.10219723
964.584	0.10247624
964.749	0.10214755
964.914	0.10226517
965.078	0.10200263
965.243	0.10182021
965.407	0.10143139
965.572	0.10122527
965.736	0.10094455
965.901	0.10075181
966.065	0.10061797
966.23	0.10081768
966.394	0.10086223
966.559	0.10048852
966.723	0.10021248
966.887	0.09989332
967.052	0.09978292
967.216	0.09909737
967.38	0.09836111
967.545	0.0981429
967.709	0.0982592
967.873	0.09869968
968.037	0.09852766
968.202	0.09836148
968.366	0.09870597
968.53	0.09896519
968.694	0.0992765
968.858	0.09900535
969.022	0.09849341
969.187	0.09815327
969.351	0.09823808
969.515	0.09796433
969.679	0.0980161
969.843	0.09784139
970.007	0.09760654
970.171	0.09749508
970.335	0.09750005
970.499	0.09721955
970.662	0.09685017
970.826	0.09663123
970.99	0.09620747
971.154	0.09650097
971.318	0.09623704
971.482	0.09594098
971.645	0.09565074
971.809	0.09557108
971.973	0.09549423
972.137	0.09485846
972.3	0.09462593
972.464	0.09463472
972.628	0.09471418
972.791	0.09475389
972.955	0.09442399
973.119	0.0937304
973.282	0.09379486
973.446	0.09329296
973.609	0.09260767
973.773	0.09249849
973.936	0.09204984
974.1	0.09208222
974.263	0.0923259
974.427	0.09246074
974.59	0.09247475
974.754	0.09267795
974.917	0.09237109
975.08	0.09248668
975.244	0.09240314
975.407	0.09203176
975.57	0.09163464
975.734	0.09176599
975.897	0.09176604
976.06	0.09183644
976.223	0.09173722
976.387	0.09140432
976.55	0.09145176
976.713	0.09121162
976.876	0.09083291
977.039	0.09041492
977.202	0.09016779
977.365	0.08973507
977.528	0.08934341
977.692	0.08907971
977.855	0.08902845
978.018	0.0887505
978.181	0.08860214
978.344	0.0882738
978.506	0.08820507
978.669	0.08795135
978.832	0.08757157
978.995	0.08730882
979.158	0.08735071
979.321	0.08692962
979.484	0.08673394
979.646	0.08622113
979.809	0.08670899
979.972	0.08656834
980.135	0.08668935
980.297	0.08623838
980.46	0.08626398
980.623	0.08632185
980.786	0.08666543
980.948	0.08636362
981.111	0.08642556
981.273	0.08651073
981.436	0.08626898
981.599	0.08655032
981.761	0.08629916
981.924	0.08627386
982.086	0.08609169
982.249	0.08604269
982.411	0.0856778
982.573	0.08582095
982.736	0.0858902
982.898	0.0857144
983.061	0.0856219
983.223	0.08554056
983.385	0.0855921
983.548	0.08546958
983.71	0.08524951
983.872	0.08460911
984.034	0.08437976
984.197	0.08400822
984.359	0.0835017
984.521	0.0833046
984.683	0.08318036
984.845	0.08295992
985.008	0.08308776
985.17	0.0832064
985.332	0.08280576
985.494	0.08281357
985.656	0.08249748
985.818	0.08213335
985.98	0.0821809
986.142	0.08147896
986.304	0.08107982
986.466	0.08113901
986.628	0.08087001
986.79	0.08099297
986.952	0.08090238
987.113	0.08054581
987.275	0.08074463
987.437	0.08069818
987.599	0.08059983
987.761	0.08066417
987.922	0.08013573
988.084	0.0801527
988.246	0.08024989
988.408	0.07988834
988.569	0.07991861
988.731	0.07981873
988.893	0.07982726
989.054	0.07996341
989.216	0.07993886
989.377	0.07952507
989.539	0.07983857
989.701	0.07939811
989.862	0.07864699
990.024	0.07844888
990.185	0.07813884
990.347	0.07757599
990.508	0.07764433
990.669	0.07702444
990.831	0.07729937
990.992	0.07757147
991.154	0.07738469
991.315	0.07748274
991.476	0.07759917
991.638	0.07734965
991.799	0.07778648
991.96	0.07758905
992.121	0.07769958
992.283	0.07780772
992.444	0.0775568
992.605	0.0774533
992.766	0.07753109
992.927	0.07694292
993.088	0.07659137
993.249	0.07631874
993.41	0.07601549
993.572	0.07598688
993.733	0.0756822
993.894	0.07530953
994.055	0.07505656
994.216	0.075021
994.376	0.07452424
994.537	0.07417113
994.698	0.07372708
994.859	0.07326644
995.02	0.07325147
995.181	0.07293562
995.342	0.07278385
995.503	0.07265157
995.663	0.07281144
995.824	0.07228599
995.985	0.073055
996.146	0.0730434
996.306	0.07372015
996.467	0.07372551
996.628	0.07417303
996.788	0.07399923
996.949	0.07520944
997.11	0.07485727
997.27	0.07478216
997.431	0.07444796
997.591	0.07417097
997.752	0.07349857
997.912	0.07341533
998.073	0.07262501
998.233	0.07277884
998.394	0.07281571
998.554	0.07295875
998.714	0.07322132
998.875	0.07350442
999.035	0.07300389
999.196	0.07281422
999.356	0.07239961
999.516	0.07233286
999.676	0.07204352
999.837	0.0713729
999.997	0.07116346
1000.157	0.07091523
1000.317	0.07070314
1000.477	0.07000392
1000.638	0.06968465
1000.798	0.06911871
1000.958	0.06960849
1001.118	0.06961453
1001.278	0.0700297
1001.438	0.06977543
1001.598	0.07011915
1001.758	0.06997617
1001.918	0.07076136
1002.078	0.07052086
1002.238	0.06997071
1002.398	0.06992333
1002.558	0.06986386
1002.718	0.06961571
1002.878	0.069094
1003.037	0.06809397
1003.197	0.0679607
1003.357	0.06812546
1003.517	0.06836706
1003.677	0.06829913
1003.836	0.06818402
1003.996	0.06866436
1004.156	0.06849099
1004.315	0.06858465
1004.475	0.06916192
1004.635	0.06877251
1004.794	0.06918998
1004.954	0.06893519
1005.114	0.06832192
1005.273	0.06842818
1005.433	0.0676998
1005.592	0.06696611
1005.752	0.06693959
1005.911	0.0660935
1006.071	0.06615587
1006.23	0.06604253
1006.389	0.06631939
1006.549	0.06618242
1006.708	0.06629722
1006.868	0.06632992
1007.027	0.06646907
1007.186	0.06667547
1007.345	0.06780124
1007.505	0.0673696
1007.664	0.06780467
1007.823	0.06787784
1007.982	0.06751253
1008.142	0.06733509
1008.301	0.06807977
1008.46	0.06710938
1008.619	0.06698263
1008.778	0.06751891
1008.937	0.06686347
1009.096	0.06674416
1009.255	0.0670158
1009.414	0.06544581
1009.573	0.06534466
1009.732	0.06617578
1009.891	0.06513102
1010.05	0.06519807
1010.209	0.06521912
1010.368	0.06471203
1010.527	0.06438843
1010.686	0.0650511
1010.845	0.06400524
1011.003	0.06391772
1011.162	0.0641369
1011.321	0.06399644
1011.48	0.06521798
1011.638	0.06559652
1011.797	0.06495484
1011.956	0.06515135
1012.115	0.06538622
1012.273	0.06501052
1012.432	0.06498059
1012.59	0.06328337
1012.749	0.06426566
1012.908	0.0643778
1013.066	0.06440116
1013.225	0.06387506
1013.383	0.06454474
1013.542	0.06384491
1013.7	0.06401773
1013.859	0.06330133
1014.017	0.06403257
1014.175	0.06451217
1014.334	0.0655089
1014.492	0.06583957
1014.65	0.06656324
1014.809	0.06824631
1014.967	0.06838251
1015.125	0.06840886
1015.284	0.06834011
1015.442	0.06802606
1015.6	0.06739465
1015.758	0.06630098
1015.916	0.06461858
1016.075	0.06378094
1016.233	0.06285784
1016.391	0.06279338
1016.549	0.06214396
1016.707	0.06161174
1016.865	0.06237808
1017.023	0.06259416
1017.181	0.06240121
1017.339	0.06160474
1017.497	0.06163326
1017.655	0.06168372
1017.813	0.06230582
1017.971	0.06232955
1018.129	0.06285308
1018.286	0.06427688
1018.444	0.06450848
1018.602	0.0645122
1018.76	0.06460026
1018.918	0.06504161
1019.075	0.06589937
1019.233	0.066331
1019.391	0.06560824
1019.549	0.06601838
1019.706	0.06602508
1019.864	0.06641609
1020.022	0.06643041
1020.179	0.06571032
1020.337	0.06495362
1020.494	0.06474113
1020.652	0.06453041
1020.809	0.06475963
1020.967	0.06384371
1021.124	0.06366374
1021.282	0.06531869
1021.439	0.06570161
1021.597	0.06638605
1021.754	0.06699529
1021.911	0.06751806
1022.069	0.06898757
1022.226	0.06726249
1022.384	0.06593234
1022.541	0.06643422
1022.698	0.06608254
1022.855	0.06713773
1023.013	0.06603027
1023.17	0.06565914
1023.327	0.06732975
1023.484	0.06828806
1023.641	0.06810939
1023.798	0.07001875
1023.956	0.06903304
1024.113	0.06961652
1024.27	0.06997829
1024.427	0.07016669
1024.584	0.06987134
1024.741	0.06937421
1024.898	0.06690345
1025.055	0.06591784
1025.212	0.06508021
1025.369	0.06227396
1025.525	0.06211053
1025.682	0.06150433
1025.839	0.06206913
1025.996	0.06304614
1026.153	0.06461646
1026.31	0.06469194
1026.466	0.06835643
1026.623	0.07022889
1026.78	0.07054031
1026.937	0.07086786
1027.093	0.07064659
1027.25	0.06917218
1027.407	0.07029353
1027.563	0.07050711
1027.72	0.06988681
1027.876	0.06813009
1028.033	0.06896347
1028.19	0.07216187
1028.346	0.0731715
1028.503	0.07425762
1028.659	0.07174843
1028.816	0.07145415
1028.972	0.07367079
1029.128	0.07347133
1029.285	0.07088696
1029.441	0.07034745
1029.598	0.06791356
1029.754	0.07348416
1029.91	0.07298539
1030.067	0.07387382
1030.223	0.07378487
1030.379	0.07503821
1030.535	0.07655947
1030.691	0.07816635
1030.848	0.07321735
1031.004	0.07195015
1031.16	0.0734364
1031.316	0.07609685
1031.472	0.07611398
1031.628	0.07745869
1031.784	0.07770155
1031.94	0.0806754
1032.096	0.08434512
1032.252	0.08261613
1032.408	0.08094808
1032.564	0.08075931
1032.72	0.07928381
1032.876	0.07925545
1033.032	0.07798505
1033.188	0.0753472
1033.344	0.07792102
1033.5	0.07975385
1033.655	0.08040228
1033.811	0.08121837
1033.967	0.08388666
