Data from 1_mm_pl_90pc_Absorbance__0__17-53-35-304.txt Node

Date: Wed Mar 08 17:53:35 CET 2023
User: Ange
Spectrometer: FLMT08341
Trigger mode: 0
Integration Time (sec): 1.000000E-2
Scans to average: 400
Electric dark correction enabled: true
Nonlinearity correction enabled: false
Boxcar width: 3
XAxis mode: Wavelengths
Number of Pixels in Spectrum: 3648
>>>>>Begin Spectral Data<<<<<
345.271	0.05519504
345.487	0.04814208
345.704	0.03585661
345.921	0.03449678
346.137	0.04390335
346.354	0.02328565
346.571	0.04095121
346.787	-0.04577412
347.004	0.03063914
347.22	-0.10726785
347.437	0.02647534
347.653	0.23421371
347.87	-0.01794844
348.086	-0.26481206
348.303	-0.27516439
348.519	0.35215162
348.736	0.29259579
348.952	0.29828923
349.169	0.299544
349.385	0.3064118
349.601	0.30180041
349.818	0.29555163
350.034	0.28897703
350.251	0.28416492
350.467	0.28596107
350.683	0.28015587
350.9	0.27772658
351.116	0.27243089
351.332	0.26942141
351.549	0.27736362
351.765	0.28499879
351.981	0.28676041
352.197	0.29529098
352.414	0.30550056
352.63	0.31283333
352.846	0.31803737
353.062	0.31235665
353.278	0.30658115
353.495	0.31439695
353.711	0.31398955
353.927	0.31487158
354.143	0.31482849
354.359	0.31501284
354.575	0.31394158
354.792	0.32198752
355.008	0.3139419
355.224	0.31238968
355.44	0.30930529
355.656	0.30680852
355.872	0.30909401
356.088	0.32212579
356.304	0.32373234
356.52	0.32508993
356.736	0.32679318
356.952	0.32856563
357.168	0.3310917
357.384	0.33445753
357.6	0.32530579
357.816	0.32715749
358.032	0.3321106
358.248	0.33851757
358.464	0.33771564
358.679	0.34169065
358.895	0.33953645
359.111	0.34500557
359.327	0.34026772
359.543	0.34032103
359.759	0.34397314
359.974	0.34303374
360.19	0.34063736
360.406	0.34177232
360.622	0.33737605
360.838	0.33720053
361.053	0.33998777
361.269	0.33797635
361.485	0.34175207
361.701	0.34300016
361.916	0.34107812
362.132	0.34276419
362.348	0.34566166
362.563	0.34544223
362.779	0.34416711
362.995	0.34577915
363.21	0.3492078
363.426	0.35165751
363.641	0.35435369
363.857	0.35549828
364.073	0.35451357
364.288	0.35210615
364.504	0.35498925
364.719	0.35542453
364.935	0.35479674
365.15	0.35497656
365.366	0.35672861
365.581	0.3600217
365.797	0.36156865
366.012	0.357423
366.228	0.35436428
366.443	0.35833917
366.658	0.35819116
366.874	0.35465765
367.089	0.35669121
367.305	0.35790935
367.52	0.3604159
367.735	0.36075013
367.951	0.35749055
368.166	0.35954543
368.381	0.36621951
368.597	0.3628261
368.812	0.36487156
369.027	0.3667598
369.243	0.36830327
369.458	0.37562142
369.673	0.37648108
369.888	0.37529854
370.104	0.37529363
370.319	0.37683211
370.534	0.3747869
370.749	0.37573573
370.964	0.37551121
371.179	0.3749728
371.395	0.37341398
371.61	0.37643183
371.825	0.37412641
372.04	0.37601803
372.255	0.37465863
372.47	0.37130151
372.685	0.36871553
372.9	0.36846074
373.115	0.36593699
373.33	0.36696623
373.545	0.36729662
373.76	0.36913785
373.975	0.36833228
374.19	0.36787486
374.405	0.36829536
374.62	0.3718759
374.835	0.37422525
375.05	0.37405687
375.265	0.37600514
375.48	0.37830112
375.695	0.38388302
375.91	0.38201022
376.125	0.37729766
376.339	0.37277938
376.554	0.3725438
376.769	0.3717338
376.984	0.37004556
377.199	0.36976922
377.414	0.37145248
377.628	0.37485353
377.843	0.37778931
378.058	0.37819611
378.273	0.37907753
378.487	0.37917911
378.702	0.37823602
378.917	0.37850112
379.131	0.37687114
379.346	0.37394007
379.561	0.37261038
379.775	0.37083667
379.99	0.36959125
380.205	0.36649649
380.419	0.36396095
380.634	0.36206858
380.848	0.36419017
381.063	0.36365667
381.278	0.36497512
381.492	0.3638845
381.707	0.36605288
381.921	0.36569536
382.136	0.36780331
382.35	0.36579135
382.565	0.36539058
382.779	0.36472641
382.994	0.3651468
383.208	0.36370782
383.422	0.36606343
383.637	0.36480798
383.851	0.36673769
384.066	0.36647879
384.28	0.36714529
384.494	0.36700051
384.709	0.3675566
384.923	0.36759841
385.137	0.36603062
385.352	0.36497021
385.566	0.36537888
385.78	0.36330739
385.995	0.36168543
386.209	0.35961633
386.423	0.35915422
386.637	0.35982736
386.852	0.35796561
387.066	0.35654934
387.28	0.35474054
387.494	0.35531727
387.708	0.35577208
387.923	0.35394572
388.137	0.35467964
388.351	0.3550025
388.565	0.35595367
388.779	0.3563636
388.993	0.35818085
389.207	0.35817455
389.421	0.35790996
389.635	0.35581868
389.85	0.35432068
390.064	0.35359948
390.278	0.35375696
390.492	0.35272169
390.706	0.35197704
390.92	0.35108347
391.134	0.35184575
391.348	0.35352587
391.561	0.35202446
391.775	0.35041752
391.989	0.34860621
392.203	0.34788339
392.417	0.34808734
392.631	0.34797127
392.845	0.34587547
393.059	0.34685893
393.273	0.34605125
393.486	0.34503378
393.7	0.34339966
393.914	0.34294374
394.128	0.34153605
394.342	0.34051995
394.555	0.33726727
394.769	0.3365686
394.983	0.33638238
395.197	0.33665199
395.41	0.33572082
395.624	0.33483945
395.838	0.3346464
396.051	0.33692352
396.265	0.33616133
396.479	0.33553835
396.692	0.33474773
396.906	0.3336056
397.12	0.33280075
397.333	0.33228531
397.547	0.32997013
397.76	0.33022263
397.974	0.32961493
398.187	0.32921905
398.401	0.32915695
398.614	0.32888531
398.828	0.32820602
399.041	0.32758562
399.255	0.32642685
399.468	0.32608669
399.682	0.32528434
399.895	0.32469475
400.109	0.32332326
400.322	0.32234197
400.536	0.32091132
400.749	0.32084757
400.962	0.31940211
401.176	0.31861514
401.389	0.31781413
401.602	0.31621377
401.816	0.31619547
402.029	0.31631961
402.242	0.31501798
402.456	0.31437273
402.669	0.31330171
402.882	0.31112861
403.095	0.31204667
403.309	0.31089503
403.522	0.31007585
403.735	0.30918604
403.948	0.30838036
404.161	0.30923765
404.375	0.30945616
404.588	0.30825103
404.801	0.30722419
405.014	0.30615355
405.227	0.30619373
405.44	0.30609134
405.653	0.30485465
405.866	0.30387001
406.079	0.30342425
406.293	0.30264698
406.506	0.30180474
406.719	0.30036138
406.932	0.2990961
407.145	0.2976388
407.358	0.29744248
407.571	0.2958676
407.784	0.29529135
407.996	0.29514513
408.209	0.29428799
408.422	0.29341919
408.635	0.2930299
408.848	0.29211798
409.061	0.29100788
409.274	0.29026524
409.487	0.28913807
409.7	0.28845627
409.912	0.28803342
410.125	0.28724791
410.338	0.28653955
410.551	0.28595312
410.764	0.28514223
410.976	0.28449011
411.189	0.28403905
411.402	0.28262257
411.615	0.28201559
411.827	0.28114356
412.04	0.28087521
412.253	0.28008663
412.465	0.27914996
412.678	0.27815911
412.891	0.27817519
413.103	0.27663763
413.316	0.27616018
413.529	0.27564675
413.741	0.2753536
413.954	0.27505428
414.166	0.27458416
414.379	0.27368365
414.591	0.27353789
414.804	0.27271131
415.016	0.27174153
415.229	0.27069492
415.441	0.26948682
415.654	0.26904371
415.866	0.26839971
416.079	0.26804236
416.291	0.26730882
416.504	0.26714435
416.716	0.26681503
416.928	0.26641871
417.141	0.26542329
417.353	0.2651528
417.566	0.2639894
417.778	0.26358068
417.99	0.26242566
418.203	0.26148416
418.415	0.26086474
418.627	0.26058394
418.839	0.25977359
419.052	0.25992853
419.264	0.25907773
419.476	0.25877976
419.688	0.25812047
419.901	0.25758219
420.113	0.25672953
420.325	0.25592326
420.537	0.25439298
420.749	0.25386771
420.961	0.25333373
421.174	0.25274901
421.386	0.25187086
421.598	0.25116527
421.81	0.25071022
422.022	0.25029031
422.234	0.2500329
422.446	0.24920276
422.658	0.24855335
422.87	0.24828989
423.082	0.24787869
423.294	0.24727963
423.506	0.24694205
423.718	0.24598956
423.93	0.24510149
424.142	0.24426012
424.354	0.24338127
424.566	0.24273474
424.778	0.24214894
424.99	0.24134324
425.202	0.2407121
425.414	0.24058532
425.625	0.24052063
425.837	0.23969158
426.049	0.23925917
426.261	0.23864871
426.473	0.23807049
426.684	0.23769677
426.896	0.23739566
427.108	0.23655445
427.32	0.23649816
427.531	0.23590677
427.743	0.23545242
427.955	0.23535395
428.167	0.23451504
428.378	0.23366023
428.59	0.23329196
428.802	0.23255691
429.013	0.23192465
429.225	0.23112919
429.436	0.23040924
429.648	0.23024571
429.86	0.22997097
430.071	0.22958108
430.283	0.22928804
430.494	0.22869946
430.706	0.2284728
430.917	0.2279241
431.129	0.22737531
431.34	0.22663779
431.552	0.22615079
431.763	0.22560006
431.975	0.22532603
432.186	0.22462371
432.398	0.22411491
432.609	0.22330804
432.821	0.22303673
433.032	0.22262116
433.243	0.22201507
433.455	0.22138052
433.666	0.22105076
433.877	0.2208068
434.089	0.22031423
434.3	0.21944767
434.511	0.21855677
434.723	0.21808155
434.934	0.21739795
435.145	0.21662605
435.356	0.21588169
435.568	0.21558176
435.779	0.21519892
435.99	0.21458257
436.201	0.21423575
436.412	0.21370704
436.624	0.21355456
436.835	0.21325925
437.046	0.21274922
437.257	0.21236854
437.468	0.21230534
437.679	0.21171379
437.89	0.21136002
438.101	0.21093182
438.312	0.21040347
438.523	0.20995111
438.734	0.20967812
438.945	0.20918184
439.156	0.20871118
439.367	0.20840698
439.578	0.2081384
439.789	0.20766108
440	0.20745526
440.211	0.20668514
440.422	0.20624903
440.633	0.20608291
440.844	0.2056615
441.055	0.20509416
441.266	0.20489411
441.477	0.2042306
441.687	0.20400616
441.898	0.20377764
442.109	0.20321161
442.32	0.20277671
442.531	0.20235083
442.741	0.20169462
442.952	0.20123096
443.163	0.20075201
443.374	0.20015779
443.584	0.19967629
443.795	0.1991985
444.006	0.19889294
444.216	0.19841208
444.427	0.19803695
444.638	0.19781268
444.848	0.19741282
445.059	0.19706073
445.27	0.1966166
445.48	0.19597159
445.691	0.19558046
445.901	0.19528337
446.112	0.1947884
446.323	0.19420508
446.533	0.19369886
446.744	0.19325941
446.954	0.19284789
447.165	0.19246331
447.375	0.19217378
447.586	0.19168103
447.796	0.19147872
448.006	0.19120881
448.217	0.19113607
448.427	0.19076245
448.638	0.19043963
448.848	0.19011816
449.058	0.18974155
449.269	0.1894502
449.479	0.18907464
449.689	0.1885873
449.9	0.18827055
450.11	0.18792688
450.32	0.18762212
450.531	0.18728938
450.741	0.18682878
450.951	0.1865757
451.161	0.18624281
451.372	0.18592905
451.582	0.18577445
451.792	0.18520649
452.002	0.18490799
452.212	0.18444069
452.422	0.18418844
452.633	0.18396751
452.843	0.18393564
453.053	0.18352163
453.263	0.18346443
453.473	0.18331792
453.683	0.18332824
453.893	0.18302933
454.103	0.18300505
454.313	0.18269444
454.523	0.18256656
454.733	0.18237157
454.943	0.18219234
455.153	0.18196165
455.363	0.18163628
455.573	0.18122247
455.783	0.18099832
455.993	0.18067436
456.203	0.18049706
456.413	0.18031879
456.623	0.18024388
456.833	0.18033379
457.042	0.18021633
457.252	0.18020063
457.462	0.1801308
457.672	0.18005566
457.882	0.17982874
458.091	0.17954519
458.301	0.17929545
458.511	0.17912469
458.721	0.17877384
458.931	0.17883167
459.14	0.17863067
459.35	0.17873957
459.56	0.17876899
459.769	0.17874097
459.979	0.17882715
460.189	0.17897205
460.398	0.17866587
460.608	0.17865145
460.817	0.17849728
461.027	0.17864219
461.237	0.17860524
461.446	0.1785084
461.656	0.17849978
461.865	0.17853036
462.075	0.17847171
462.284	0.17855742
462.494	0.1783531
462.703	0.17822791
462.913	0.17814585
463.122	0.17801872
463.332	0.17811688
463.541	0.17825688
463.751	0.1782412
463.96	0.1782007
464.169	0.17833852
464.379	0.17854634
464.588	0.1786199
464.797	0.17869236
465.007	0.17871395
465.216	0.1788321
465.425	0.17910214
465.635	0.17934546
465.844	0.17942899
466.053	0.17967788
466.263	0.17977933
466.472	0.17986917
466.681	0.18002055
466.89	0.18011515
467.099	0.18032049
467.309	0.18048852
467.518	0.18075277
467.727	0.18096633
467.936	0.1811733
468.145	0.18135422
468.354	0.18164941
468.563	0.18171819
468.772	0.18178106
468.982	0.18189312
469.191	0.18227823
469.4	0.18245115
469.609	0.18272787
469.818	0.18287137
470.027	0.18314942
470.236	0.1834048
470.445	0.18351405
470.654	0.18348395
470.863	0.18376022
471.072	0.18393734
471.28	0.18419633
471.489	0.18457633
471.698	0.18505531
471.907	0.18547056
472.116	0.18604024
472.325	0.18647684
472.534	0.18700066
472.743	0.18747655
472.951	0.1878685
473.16	0.18824929
473.369	0.18869141
473.578	0.18899052
473.786	0.18945622
473.995	0.18979759
474.204	0.19017702
474.413	0.19043748
474.621	0.19088553
474.83	0.19136971
475.039	0.19180101
475.247	0.19225266
475.456	0.19268158
475.665	0.19316629
475.873	0.19369328
476.082	0.19401813
476.291	0.19453763
476.499	0.19516543
476.708	0.19561665
476.916	0.19623982
477.125	0.19676516
477.333	0.19739796
477.542	0.19816081
477.75	0.19859998
477.959	0.19908702
478.167	0.1997056
478.376	0.20011139
478.584	0.20073128
478.793	0.20127926
479.001	0.20187584
479.209	0.20253556
479.418	0.20315749
479.626	0.20377705
479.834	0.20452534
480.043	0.2052118
480.251	0.20593363
480.459	0.20654205
480.668	0.20722436
480.876	0.20801083
481.084	0.20872324
481.293	0.20949972
481.501	0.21020365
481.709	0.2110711
481.917	0.21180197
482.125	0.21258556
482.334	0.21337354
482.542	0.21418624
482.75	0.21500808
482.958	0.21587854
483.166	0.21667804
483.374	0.21758888
483.583	0.218413
483.791	0.21914521
483.999	0.21985685
484.207	0.22068584
484.415	0.22151577
484.623	0.22220173
484.831	0.22300309
485.039	0.22387236
485.247	0.22484938
485.455	0.22575885
485.663	0.22663381
485.871	0.22750915
486.079	0.22839049
486.287	0.22930928
486.495	0.23015564
486.702	0.23098188
486.91	0.23191891
487.118	0.23277002
487.326	0.23365173
487.534	0.23471152
487.742	0.23570246
487.95	0.23667399
488.157	0.23765653
488.365	0.23873576
488.573	0.23983548
488.781	0.24098365
488.988	0.24202358
489.196	0.2430559
489.404	0.24411933
489.612	0.24523501
489.819	0.24632524
490.027	0.24740169
490.235	0.2483359
490.442	0.24942781
490.65	0.25043103
490.857	0.25160138
491.065	0.25265382
491.273	0.25372994
491.48	0.2548418
491.688	0.25607082
491.895	0.2573773
492.103	0.25874153
492.31	0.25998701
492.518	0.26123668
492.725	0.2624744
492.933	0.26366297
493.14	0.26480767
493.348	0.26583416
493.555	0.26689771
493.763	0.26795054
493.97	0.2691875
494.177	0.27043923
494.385	0.27167522
494.592	0.27290171
494.8	0.27413465
495.007	0.27551529
495.214	0.27681554
495.422	0.27825935
495.629	0.27954327
495.836	0.2809272
496.043	0.28241375
496.251	0.28385344
496.458	0.28507827
496.665	0.28639186
496.872	0.2875266
497.08	0.28884633
497.287	0.29009334
497.494	0.29140725
497.701	0.29278546
497.908	0.29431218
498.115	0.29564546
498.322	0.29703594
498.53	0.29841405
498.737	0.29982926
498.944	0.30117941
499.151	0.30246507
499.358	0.30378263
499.565	0.30521398
499.772	0.30669351
499.979	0.30818634
500.186	0.30973304
500.393	0.31125241
500.6	0.31277195
500.807	0.31428632
501.014	0.31588624
501.221	0.31745507
501.427	0.31896458
501.634	0.32049462
501.841	0.32206581
502.048	0.32366036
502.255	0.32505916
502.462	0.32655379
502.669	0.3280285
502.875	0.32955694
503.082	0.33094715
503.289	0.33231135
503.496	0.33373997
503.702	0.33523454
503.909	0.33674801
504.116	0.33833101
504.323	0.33993092
504.529	0.34155288
504.736	0.34321811
504.943	0.3448162
505.149	0.34647632
505.356	0.34809387
505.563	0.34974252
505.769	0.35132998
505.976	0.35298459
506.182	0.35462758
506.389	0.35629338
506.595	0.35808049
506.802	0.35969953
507.008	0.36125628
507.215	0.36279215
507.421	0.36441828
507.628	0.36600228
507.834	0.36760801
508.041	0.36914146
508.247	0.37079888
508.454	0.37253039
508.66	0.37426466
508.866	0.37592941
509.073	0.37762204
509.279	0.37932469
509.486	0.38092252
509.692	0.38248507
509.898	0.38408687
510.105	0.38575567
510.311	0.38732829
510.517	0.38898635
510.723	0.39059059
510.93	0.392158
511.136	0.3938836
511.342	0.39561003
511.548	0.39717094
511.754	0.39887223
511.961	0.4005606
512.167	0.40227014
512.373	0.40410323
512.579	0.40589295
512.785	0.40752324
512.991	0.40929266
513.197	0.41114371
513.404	0.41297045
513.61	0.41485564
513.816	0.41660178
514.022	0.41831937
514.228	0.42005466
514.434	0.42170537
514.64	0.42334036
514.846	0.42493642
515.052	0.42650004
515.258	0.42811256
515.464	0.42976712
515.669	0.43154287
515.875	0.43329635
516.081	0.43499088
516.287	0.43685734
516.493	0.43873499
516.699	0.44049533
516.905	0.44216488
517.111	0.44374322
517.316	0.44549524
517.522	0.44720234
517.728	0.44882772
517.934	0.45049564
518.139	0.45227589
518.345	0.45404111
518.551	0.45585327
518.757	0.45749248
518.962	0.45916457
519.168	0.46087782
519.374	0.46247153
519.579	0.46405926
519.785	0.46580273
519.991	0.46758587
520.196	0.46934273
520.402	0.47100191
520.607	0.47275403
520.813	0.47459547
521.018	0.47637274
521.224	0.47799108
521.429	0.47973971
521.635	0.4815038
521.84	0.48318257
522.046	0.48480736
522.251	0.48634625
522.457	0.48793072
522.662	0.48967609
522.868	0.49121628
523.073	0.49271502
523.279	0.49446751
523.484	0.49606131
523.689	0.49779347
523.895	0.49958886
524.1	0.50119442
524.305	0.50288492
524.511	0.50460713
524.716	0.50619509
524.921	0.50788007
525.126	0.50945093
525.332	0.51102082
525.537	0.51260422
525.742	0.5142492
525.947	0.51588803
526.153	0.51748933
526.358	0.51912258
526.563	0.52070518
526.768	0.52225722
526.973	0.52387967
527.178	0.52543371
527.383	0.52696515
527.588	0.52850066
527.794	0.52989032
527.999	0.53147024
528.204	0.53288679
528.409	0.534358
528.614	0.53593203
528.819	0.5373909
529.024	0.53876533
529.229	0.5402345
529.434	0.54180544
529.639	0.54336092
529.843	0.54483603
530.048	0.54626238
530.253	0.54780023
530.458	0.54951595
530.663	0.55113069
530.868	0.5526529
531.073	0.55405291
531.278	0.55537903
531.482	0.55672229
531.687	0.55814161
531.892	0.55957276
532.097	0.56094413
532.302	0.56238166
532.506	0.56388175
532.711	0.56543757
532.916	0.56691749
533.12	0.56837749
533.325	0.56971141
533.53	0.57122799
533.734	0.5725264
533.939	0.57392316
534.144	0.57538661
534.348	0.57676126
534.553	0.57810771
534.757	0.57940529
534.962	0.5806107
535.167	0.58196135
535.371	0.58321251
535.576	0.58451977
535.78	0.58581272
535.985	0.58710565
536.189	0.58838538
536.394	0.58976456
536.598	0.5909488
536.803	0.59219669
537.007	0.59329802
537.211	0.59462295
537.416	0.59577934
537.62	0.5969184
537.825	0.59807555
538.029	0.59954068
538.233	0.600826
538.438	0.60224972
538.642	0.60326346
538.846	0.60460039
539.05	0.60586536
539.255	0.60702105
539.459	0.60805661
539.663	0.60917907
539.867	0.61029786
540.072	0.61160536
540.276	0.61268784
540.48	0.61395888
540.684	0.61510917
540.888	0.6163534
541.092	0.61743735
541.297	0.61839985
541.501	0.61944812
541.705	0.6205115
541.909	0.62137112
542.113	0.62228096
542.317	0.62327371
542.521	0.62440052
542.725	0.62555412
542.929	0.62655941
543.133	0.62758451
543.337	0.62874474
543.541	0.6298536
543.745	0.63063754
543.949	0.63165953
544.153	0.63245307
544.357	0.63330702
544.56	0.63430876
544.764	0.63528992
544.968	0.63621223
545.172	0.63707118
545.376	0.63795471
545.58	0.63900797
545.783	0.64004395
545.987	0.64074073
546.191	0.64150818
546.395	0.64238279
546.598	0.64352889
546.802	0.64443273
547.006	0.64527219
547.21	0.64587978
547.413	0.64682777
547.617	0.64775213
547.821	0.64861704
548.024	0.64939668
548.228	0.65005794
548.431	0.65079296
548.635	0.65164642
548.839	0.65233934
549.042	0.6530241
549.246	0.65366349
549.449	0.65427028
549.653	0.65500132
549.856	0.65571496
550.06	0.65641848
550.263	0.65720836
550.467	0.65794055
550.67	0.65881535
550.874	0.65956568
551.077	0.66044151
551.28	0.6612997
551.484	0.66222869
551.687	0.66295559
551.891	0.66381139
552.094	0.6643481
552.297	0.66499714
552.501	0.66551653
552.704	0.66602311
552.907	0.66648169
553.11	0.66698361
553.314	0.66738334
553.517	0.6677782
553.72	0.66837877
553.923	0.66895518
554.127	0.66958721
554.33	0.66997591
554.533	0.67054736
554.736	0.67096722
554.939	0.67158571
555.142	0.67204046
555.345	0.67252608
555.549	0.6729837
555.752	0.6734839
555.955	0.67392134
556.158	0.67456612
556.361	0.67504716
556.564	0.67546744
556.767	0.67589271
556.97	0.67629669
557.173	0.67682944
557.376	0.67729978
557.579	0.67752985
557.782	0.6779216
557.984	0.67840466
558.187	0.67884639
558.39	0.67913746
558.593	0.67953768
558.796	0.6798074
558.999	0.68010382
559.202	0.68047185
559.404	0.68062787
559.607	0.68087988
559.81	0.68119577
560.013	0.68148269
560.216	0.68178452
560.418	0.68229892
560.621	0.68259863
560.824	0.6830521
561.026	0.68329248
561.229	0.6834944
561.432	0.68375669
561.634	0.68403991
561.837	0.68410145
562.04	0.68425021
562.242	0.68431324
562.445	0.68448277
562.647	0.68472383
562.85	0.68477283
563.053	0.68481755
563.255	0.68502943
563.458	0.68523125
563.66	0.68544061
563.863	0.68565931
564.065	0.68580695
564.268	0.68594056
564.47	0.68615023
564.672	0.68620263
564.875	0.6864039
565.077	0.68649857
565.28	0.68660311
565.482	0.68670858
565.684	0.68685371
565.887	0.68693931
566.089	0.68706299
566.291	0.68704826
566.494	0.68706563
566.696	0.68698502
566.898	0.68703146
567.1	0.68707705
567.303	0.6869864
567.505	0.68695371
567.707	0.68683527
567.909	0.68667178
568.111	0.68667012
568.314	0.68656944
568.516	0.68646918
568.718	0.68643151
568.92	0.68639842
569.122	0.68636156
569.324	0.6863786
569.526	0.68625891
569.728	0.68626372
569.93	0.68609461
570.132	0.68596531
570.334	0.68570074
570.536	0.68543253
570.738	0.68513722
570.94	0.6848961
571.142	0.68463833
571.344	0.68433108
571.546	0.68410025
571.748	0.68408321
571.95	0.6838151
572.152	0.68367148
572.354	0.6835082
572.555	0.68338113
572.757	0.6834097
572.959	0.6832454
573.161	0.68279679
573.363	0.68270142
573.564	0.68260968
573.766	0.68235205
573.968	0.68197582
574.17	0.68145101
574.371	0.68113437
574.573	0.68088599
574.775	0.68044525
574.976	0.67990192
575.178	0.67946026
575.38	0.67890113
575.581	0.6784531
575.783	0.67811288
575.985	0.67762438
576.186	0.67725348
576.388	0.67687183
576.589	0.6764352
576.791	0.67613652
576.992	0.67579431
577.194	0.67527449
577.395	0.67484882
577.597	0.67449059
577.798	0.67404945
578	0.67366715
578.201	0.67331019
578.402	0.67286556
578.604	0.67229903
578.805	0.67194075
579.007	0.6714654
579.208	0.67105131
579.409	0.67056445
579.611	0.67001357
579.812	0.66959839
580.013	0.66915423
580.215	0.66843131
580.416	0.66790204
580.617	0.66736147
580.818	0.66689546
581.019	0.66637275
581.221	0.66574205
581.422	0.66517594
581.623	0.66486119
581.824	0.66415762
582.025	0.66355899
582.226	0.66303627
582.428	0.6624448
582.629	0.66183935
582.83	0.661209
583.031	0.66035318
583.232	0.65985636
583.433	0.6592968
583.634	0.65841094
583.835	0.65767231
584.036	0.65697441
584.237	0.65632307
584.438	0.65568326
584.639	0.65483962
584.84	0.65403508
585.041	0.65321033
585.242	0.65235916
585.442	0.65151191
585.643	0.65079383
585.844	0.64997736
586.045	0.64932427
586.246	0.64843293
586.447	0.6477709
586.647	0.64705049
586.848	0.6463478
587.049	0.64551518
587.25	0.64474898
587.45	0.64389173
587.651	0.6432097
587.852	0.64246748
588.053	0.64181551
588.253	0.64097163
588.454	0.64015841
588.655	0.63931385
588.855	0.63837809
589.056	0.63754887
589.256	0.63673995
589.457	0.63580469
589.658	0.63503267
589.858	0.63411384
590.059	0.63344018
590.259	0.63278008
590.46	0.63183506
590.66	0.63088315
590.861	0.63001384
591.061	0.62892228
591.262	0.62814614
591.462	0.62708697
591.662	0.62599999
591.863	0.62500222
592.063	0.62413105
592.264	0.62322849
592.464	0.62254851
592.664	0.62162825
592.865	0.62088709
593.065	0.61996502
593.265	0.61922857
593.465	0.61824206
593.666	0.61730913
593.866	0.61621791
594.066	0.61540324
594.266	0.61436961
594.467	0.61336742
594.667	0.61228667
594.867	0.61132509
595.067	0.61035245
595.267	0.6093469
595.467	0.60812256
595.668	0.60704784
595.868	0.60610581
596.068	0.60514006
596.268	0.60402696
596.468	0.60295409
596.668	0.60208178
596.868	0.60110108
597.068	0.6001964
597.268	0.59927025
597.468	0.59823594
597.668	0.59732663
597.868	0.59636016
598.068	0.59526172
598.268	0.59433235
598.467	0.59328674
598.667	0.59222967
598.867	0.59119497
599.067	0.59025835
599.267	0.58917056
599.467	0.58806603
599.667	0.58686132
599.866	0.5857575
600.066	0.58454352
600.266	0.58328169
600.466	0.58197429
600.665	0.58089649
600.865	0.57965707
601.065	0.57855846
601.264	0.57727954
601.464	0.57620586
601.664	0.57521342
601.863	0.5741341
602.063	0.57306742
602.263	0.57194448
602.462	0.57088445
602.662	0.5698748
602.861	0.56870321
603.061	0.56757813
603.26	0.56645971
603.46	0.56524446
603.659	0.56419349
603.859	0.56308945
604.058	0.56198104
604.258	0.56097029
604.457	0.56003
604.657	0.55887119
604.856	0.55772679
605.056	0.55666074
605.255	0.55543252
605.454	0.5542963
605.654	0.55303155
605.853	0.55171309
606.052	0.55051717
606.252	0.54936621
606.451	0.54824531
606.65	0.54718324
606.849	0.5458858
607.049	0.54467801
607.248	0.54341688
607.447	0.54223187
607.646	0.54116538
607.845	0.5398692
608.045	0.53850715
608.244	0.53742021
608.443	0.53625181
608.642	0.5352052
608.841	0.53401689
609.04	0.53270484
609.239	0.53157318
609.438	0.53039242
609.637	0.52924579
609.836	0.52810808
610.035	0.52690638
610.234	0.52571892
610.433	0.52448946
610.632	0.52321613
610.831	0.52208105
611.03	0.52074834
611.229	0.51964254
611.428	0.51839223
611.627	0.517207
611.826	0.51611452
612.025	0.51511776
612.224	0.51384483
612.422	0.51268897
612.621	0.51133664
612.82	0.51013001
613.019	0.50887874
613.218	0.50760671
613.416	0.50615668
613.615	0.50492456
613.814	0.50365264
614.012	0.5024736
614.211	0.50116922
614.41	0.49992267
614.608	0.49869774
614.807	0.49744144
615.006	0.49635895
615.204	0.49513755
615.403	0.4940229
615.602	0.49286982
615.8	0.4918005
615.999	0.49054372
616.197	0.48950768
616.396	0.48834032
616.594	0.48717709
616.793	0.48599066
616.991	0.48483911
617.19	0.48350505
617.388	0.48248195
617.586	0.48122729
617.785	0.47987073
617.983	0.47861004
618.182	0.47722495
618.38	0.47592061
618.578	0.47471937
618.777	0.47341653
618.975	0.47221077
619.173	0.47106663
619.372	0.46987439
619.57	0.4686596
619.768	0.46761582
619.966	0.46646918
620.165	0.46525544
620.363	0.46411157
620.561	0.46284352
620.759	0.46166251
620.957	0.46057431
621.155	0.45928323
621.354	0.45796039
621.552	0.45680818
621.75	0.45544676
621.948	0.45427418
622.146	0.45306002
622.344	0.45176118
622.542	0.45053216
622.74	0.44937019
622.938	0.44809107
623.136	0.44697714
623.334	0.4459194
623.532	0.44465869
623.73	0.44356715
623.928	0.4424815
624.126	0.44132545
624.324	0.44016537
624.522	0.43888396
624.719	0.43746249
624.917	0.4363763
625.115	0.43502691
625.313	0.43391582
625.511	0.43272442
625.708	0.43141769
625.906	0.43015157
626.104	0.42900792
626.302	0.42781263
626.499	0.42669887
626.697	0.42526723
626.895	0.42385843
627.093	0.42265318
627.29	0.42153633
627.488	0.42029934
627.686	0.41905177
627.883	0.4176386
628.081	0.41629037
628.278	0.41521171
628.476	0.41387839
628.673	0.41262887
628.871	0.41145418
629.068	0.4101978
629.266	0.40913564
629.463	0.4079721
629.661	0.40680078
629.858	0.40562059
630.056	0.40437384
630.253	0.40314243
630.451	0.40188716
630.648	0.40060474
630.845	0.39951656
631.043	0.39833397
631.24	0.39734879
631.438	0.39622007
631.635	0.39509192
631.832	0.39390712
632.029	0.3928026
632.227	0.39150393
632.424	0.39018566
632.621	0.38874487
632.818	0.38746875
633.016	0.3861687
633.213	0.3850419
633.41	0.38389302
633.607	0.38277621
633.804	0.38165376
634.001	0.38049378
634.199	0.37934882
634.396	0.37820747
634.593	0.37683798
634.79	0.37564764
634.987	0.37443391
635.184	0.37328863
635.381	0.3722456
635.578	0.37112686
635.775	0.3698985
635.972	0.36886183
636.169	0.36762033
636.366	0.36651306
636.563	0.36536688
636.76	0.3641181
636.957	0.36299703
637.153	0.36190473
637.35	0.36095784
637.547	0.36001498
637.744	0.35893216
637.941	0.35800511
638.138	0.35710578
638.334	0.35607513
638.531	0.35508582
638.728	0.35402197
638.925	0.35301089
639.121	0.35200599
639.318	0.35083179
639.515	0.34960067
639.711	0.34845056
639.908	0.34712805
640.105	0.34577082
640.301	0.34441834
640.498	0.34321355
640.695	0.34215828
640.891	0.34112076
641.088	0.34019935
641.284	0.3393619
641.481	0.33859959
641.677	0.33773086
641.874	0.33667571
642.07	0.33569886
642.267	0.33476525
642.463	0.33363604
642.66	0.33267822
642.856	0.33152421
643.053	0.33044322
643.249	0.32954619
643.445	0.32849851
643.642	0.3273462
643.838	0.32633895
644.034	0.32521932
644.231	0.32411604
644.427	0.32309516
644.623	0.32199659
644.82	0.3210552
645.016	0.32018414
645.212	0.3191667
645.408	0.31829584
645.604	0.3175872
645.801	0.31676323
645.997	0.31583388
646.193	0.31487499
646.389	0.31406989
646.585	0.31322084
646.781	0.31228234
646.977	0.31132291
647.173	0.31034389
647.37	0.30951245
647.566	0.30861865
647.762	0.30766727
647.958	0.30688497
648.154	0.30589273
648.35	0.30500901
648.546	0.30408123
648.742	0.30324139
648.937	0.30215234
649.133	0.30123817
649.329	0.3002939
649.525	0.299416
649.721	0.29843651
649.917	0.29760819
650.113	0.29655665
650.309	0.29587822
650.504	0.29491961
650.7	0.29398875
650.896	0.29320446
651.092	0.29238286
651.287	0.29159487
651.483	0.29088674
651.679	0.29004442
651.875	0.28939793
652.07	0.28858406
652.266	0.28772897
652.462	0.28697855
652.657	0.28612461
652.853	0.28519837
653.048	0.28428868
653.244	0.28321213
653.44	0.28240712
653.635	0.28146439
653.831	0.28066027
654.026	0.27990892
654.222	0.27910304
654.417	0.27841465
654.613	0.27764764
654.808	0.27672423
655.004	0.27602357
655.199	0.27508936
655.394	0.27415775
655.59	0.27343592
655.785	0.27248417
655.98	0.27169982
656.176	0.27087321
656.371	0.27021135
656.566	0.26946788
656.762	0.26857801
656.957	0.26767348
657.152	0.26691613
657.348	0.26617086
657.543	0.26552187
657.738	0.26460656
657.933	0.26379798
658.128	0.26310478
658.324	0.26235777
658.519	0.26158719
658.714	0.2608415
658.909	0.26003488
659.104	0.25933613
659.299	0.25856608
659.494	0.25777327
659.689	0.25708126
659.884	0.25634306
660.079	0.25552218
660.274	0.25475082
660.469	0.25395611
660.664	0.25328639
660.859	0.25262537
661.054	0.25195894
661.249	0.25125254
661.444	0.25055042
661.639	0.24976204
661.834	0.24902638
662.029	0.2483042
662.224	0.2476341
662.418	0.24687946
662.613	0.24626262
662.808	0.24563898
663.003	0.2451483
663.198	0.2445187
663.392	0.2438373
663.587	0.2432645
663.782	0.24253735
663.977	0.24179766
664.171	0.24119038
664.366	0.24050348
664.561	0.23987962
664.755	0.23920962
664.95	0.23850459
665.144	0.23787674
665.339	0.23735947
665.534	0.23671054
665.728	0.23606549
665.923	0.23539358
666.117	0.2348114
666.312	0.23414704
666.506	0.23364104
666.701	0.23295983
666.895	0.23237328
667.09	0.23174727
667.284	0.23136825
667.479	0.23083086
667.673	0.23027338
667.867	0.22964921
668.062	0.22902398
668.256	0.22836396
668.45	0.22781076
668.645	0.22700223
668.839	0.22627389
669.033	0.22563256
669.228	0.2250171
669.422	0.22445159
669.616	0.22395723
669.81	0.22344834
670.004	0.2230097
670.199	0.22260801
670.393	0.22214121
670.587	0.22164834
670.781	0.22118433
670.975	0.22068826
671.169	0.22010031
671.363	0.21952968
671.558	0.21903841
671.752	0.21858474
671.946	0.21819969
672.14	0.21774169
672.334	0.2171747
672.528	0.21675323
672.722	0.2161509
672.916	0.21560375
673.11	0.21500954
673.304	0.21448976
673.497	0.21394052
673.691	0.21350826
673.885	0.21288832
674.079	0.21251581
674.273	0.21197365
674.467	0.21149714
674.661	0.21087615
674.854	0.21027172
675.048	0.20977583
675.242	0.20939038
675.436	0.20894235
675.629	0.20859574
675.823	0.2081187
676.017	0.20775262
676.211	0.20740803
676.404	0.20695764
676.598	0.20651196
676.792	0.20609186
676.985	0.20564814
677.179	0.20529585
677.372	0.20486206
677.566	0.20446041
677.76	0.20397565
677.953	0.20350556
678.147	0.20304848
678.34	0.20266238
678.534	0.20227735
678.727	0.2020078
678.921	0.20181688
679.114	0.2016088
679.307	0.20143513
679.501	0.20119258
679.694	0.20083555
679.888	0.20047409
680.081	0.2001228
680.274	0.19956645
680.468	0.19910586
680.661	0.19860643
680.854	0.19824795
681.048	0.19773651
681.241	0.19721508
681.434	0.19661285
681.627	0.19612113
681.821	0.19569718
682.014	0.19534313
682.207	0.19486517
682.4	0.19459912
682.593	0.19436586
682.786	0.19411678
682.98	0.19383279
683.173	0.19359641
683.366	0.19329648
683.559	0.19300291
683.752	0.19262335
683.945	0.1922473
684.138	0.19187728
684.331	0.19146544
684.524	0.19108487
684.717	0.19062822
684.91	0.19025328
685.103	0.18987526
685.296	0.18950421
685.489	0.18924551
685.682	0.18905527
685.874	0.18877375
686.067	0.18855076
686.26	0.18840548
686.453	0.18833746
686.646	0.18825739
686.839	0.18813942
687.031	0.18808021
687.224	0.18798233
687.417	0.18799708
687.61	0.18774523
687.802	0.18744968
687.995	0.18715659
688.188	0.18684021
688.38	0.18642024
688.573	0.18604119
688.766	0.18562937
688.958	0.18531337
689.151	0.1850186
689.343	0.18483952
689.536	0.18461181
689.729	0.1845084
689.921	0.18436134
690.114	0.18413908
690.306	0.18399666
690.499	0.18392477
690.691	0.18377013
690.884	0.18365192
691.076	0.18346139
691.268	0.18324635
691.461	0.18309901
691.653	0.18306597
691.846	0.18301534
692.038	0.18295288
692.23	0.18280315
692.423	0.18270742
692.615	0.18271417
692.807	0.18260377
692.999	0.1823426
693.192	0.18205621
693.384	0.18178303
693.576	0.1815964
693.768	0.18144735
693.961	0.18119483
694.153	0.18106814
694.345	0.18100501
694.537	0.18096771
694.729	0.18102751
694.921	0.18099157
695.113	0.1808407
695.305	0.18064768
695.498	0.18038952
695.69	0.18011142
695.882	0.17980853
696.074	0.17939824
696.266	0.17910548
696.458	0.17890565
696.65	0.1787834
696.842	0.17876376
697.033	0.17881421
697.225	0.17881794
697.417	0.17888411
697.609	0.17886337
697.801	0.17879859
697.993	0.1788038
698.185	0.17874983
698.376	0.17858092
698.568	0.17849065
698.76	0.17838808
698.952	0.1783066
699.144	0.17824702
699.335	0.17819715
699.527	0.17811279
699.719	0.17806195
699.91	0.17798722
700.102	0.17784963
700.294	0.17780753
700.485	0.17774787
700.677	0.17764065
700.869	0.17772136
701.06	0.17772952
701.252	0.17772604
701.443	0.17777524
701.635	0.17782207
701.826	0.17791011
702.018	0.17802929
702.209	0.17809008
702.401	0.17821382
702.592	0.17840932
702.784	0.17856512
702.975	0.17872522
703.166	0.17888528
703.358	0.17894101
703.549	0.17890647
703.741	0.17892239
703.932	0.17891193
704.123	0.17898315
704.315	0.17903025
704.506	0.17907021
704.697	0.17906238
704.888	0.17920752
705.08	0.1792333
705.271	0.17927705
705.462	0.17914652
705.653	0.17902792
705.844	0.17887961
706.035	0.17894978
706.227	0.17886864
706.418	0.178931
706.609	0.17897591
706.8	0.17917236
706.991	0.17927353
707.182	0.17950012
707.373	0.17957841
707.564	0.17971488
707.755	0.17978705
707.946	0.17985383
708.137	0.17986705
708.328	0.17993309
708.519	0.17991686
708.71	0.1798359
708.901	0.17968997
709.092	0.17973661
709.283	0.17973557
709.473	0.17979455
709.664	0.17993119
709.855	0.17996292
710.046	0.18018679
710.237	0.18037939
710.427	0.18040271
710.618	0.18045649
710.809	0.18056576
711	0.18060391
711.19	0.18076763
711.381	0.1809085
711.572	0.18109025
711.762	0.18143086
711.953	0.18175491
712.144	0.18201677
712.334	0.18226654
712.525	0.18250644
712.715	0.18263894
712.906	0.18273548
713.097	0.18267438
713.287	0.18268281
713.478	0.18267824
713.668	0.18278232
713.859	0.18291647
714.049	0.18310581
714.239	0.18334176
714.43	0.18350141
714.62	0.18365818
714.811	0.18387839
715.001	0.18411265
715.191	0.18432795
715.382	0.18454984
715.572	0.18489811
715.762	0.18533029
715.953	0.185774
716.143	0.18614508
716.333	0.18642804
716.523	0.18675733
716.714	0.18711891
716.904	0.18737747
717.094	0.18766479
717.284	0.18780814
717.474	0.18799126
717.664	0.18821203
717.855	0.18838543
718.045	0.18851361
718.235	0.18866025
718.425	0.18886567
718.615	0.18914374
718.805	0.18943414
718.995	0.18969458
719.185	0.18998273
719.375	0.19026417
719.565	0.19053248
719.755	0.19066854
719.945	0.19089409
720.135	0.19119495
720.325	0.191524
720.515	0.19189721
720.704	0.19229203
720.894	0.19274877
721.084	0.19321638
721.274	0.19363031
721.464	0.19384478
721.654	0.19407059
721.843	0.19423451
722.033	0.19456033
722.223	0.19484127
722.413	0.19529241
722.602	0.19562112
722.792	0.19603856
722.982	0.19646906
723.171	0.19686852
723.361	0.19710092
723.55	0.19740899
723.74	0.19751738
723.93	0.19782772
724.119	0.19813918
724.309	0.19837883
724.498	0.19865466
724.688	0.19895742
724.877	0.19918994
725.067	0.19952249
725.256	0.19980693
725.446	0.20018493
725.635	0.20056931
725.825	0.20106383
726.014	0.20156854
726.203	0.20207811
726.393	0.20247973
726.582	0.20282736
726.771	0.20322628
726.961	0.20364232
727.15	0.20390103
727.339	0.20409561
727.529	0.20431588
727.718	0.20459959
727.907	0.20493269
728.096	0.20515769
728.286	0.20534606
728.475	0.2056287
728.664	0.20589585
728.853	0.20616829
729.042	0.20652772
729.231	0.20691933
729.42	0.20731297
729.609	0.20764754
729.799	0.20796972
729.988	0.2083644
730.177	0.20869347
730.366	0.20893895
730.555	0.20915156
730.744	0.20930885
730.933	0.20959341
731.122	0.20984844
731.31	0.21010869
731.499	0.2104097
731.688	0.21073835
731.877	0.21102134
732.066	0.21139209
732.255	0.21182066
732.444	0.21223628
732.632	0.21259496
732.821	0.21300038
733.01	0.21343081
733.199	0.21390691
733.388	0.21434422
733.576	0.21476986
733.765	0.21524805
733.954	0.21578921
734.142	0.21630541
734.331	0.21674621
734.52	0.2171826
734.708	0.21762494
734.897	0.21800986
735.086	0.21837566
735.274	0.21870539
735.463	0.21902991
735.651	0.21941709
735.84	0.21983628
736.028	0.22026124
736.217	0.2207066
736.405	0.22112655
736.594	0.22156545
736.782	0.22197231
736.971	0.22232919
737.159	0.22263691
737.347	0.22305091
737.536	0.22342891
737.724	0.22383234
737.912	0.22412336
738.101	0.22445467
738.289	0.22484549
738.477	0.22524892
738.666	0.22550717
738.854	0.2258406
739.042	0.22619082
739.23	0.22661398
739.418	0.22708394
739.607	0.2274783
739.795	0.22779192
739.983	0.22819111
740.171	0.22852568
740.359	0.22887956
740.547	0.22929438
740.735	0.22961416
740.923	0.23003714
741.112	0.23059993
741.3	0.23120083
741.488	0.23190094
741.676	0.23263733
741.864	0.23328998
742.052	0.23391845
742.239	0.23440054
742.427	0.23488251
742.615	0.23520362
742.803	0.23554512
742.991	0.23571627
743.179	0.23602629
743.367	0.23643768
743.555	0.23699545
743.742	0.23748635
743.93	0.23806206
744.118	0.23849739
744.306	0.239127
744.494	0.23972578
744.681	0.24029148
744.869	0.24089671
745.057	0.24148977
745.244	0.24209213
745.432	0.24266032
745.62	0.24316009
745.807	0.24368462
745.995	0.24419531
746.182	0.24469388
746.37	0.24521817
746.558	0.24564637
746.745	0.24615187
746.933	0.24663611
747.12	0.2470498
747.308	0.24751097
747.495	0.24784793
747.683	0.24820254
747.87	0.24864738
748.057	0.24912988
748.245	0.24964285
748.432	0.25012931
748.62	0.25057569
748.807	0.25112371
748.994	0.25170222
749.182	0.25224418
749.369	0.25274942
749.556	0.25321742
749.743	0.25368784
749.931	0.25415442
750.118	0.2546408
750.305	0.25505904
750.492	0.25547436
750.68	0.25601814
750.867	0.25655888
751.054	0.25716854
751.241	0.25771989
751.428	0.258154
751.615	0.25865307
751.802	0.25916913
751.989	0.25951373
752.176	0.25995842
752.363	0.26026205
752.55	0.26061931
752.737	0.26109568
752.924	0.26150104
753.111	0.26198146
753.298	0.26253539
753.485	0.26296925
753.672	0.26351134
753.859	0.26414846
754.046	0.2647114
754.233	0.26526813
754.42	0.2658737
754.606	0.26633338
754.793	0.26678736
754.98	0.26726909
755.167	0.2676269
755.353	0.26802767
755.54	0.26848607
755.727	0.26888693
755.914	0.26931165
756.1	0.26979897
756.287	0.27021504
756.474	0.27072427
756.66	0.27121613
756.847	0.27164828
757.033	0.27202914
757.22	0.27243939
757.407	0.27286645
757.593	0.27332765
757.78	0.27367835
757.966	0.27405832
758.153	0.27444364
758.339	0.27478155
758.526	0.27526082
758.712	0.27570424
758.898	0.276245
759.085	0.27686087
759.271	0.27754228
759.458	0.27824075
759.644	0.2789958
759.83	0.2795787
760.017	0.28015321
760.203	0.28066512
760.389	0.28118309
760.576	0.28159995
760.762	0.28200848
760.948	0.28241415
761.134	0.2828541
761.32	0.28346198
761.507	0.28398909
761.693	0.28458992
761.879	0.2850843
762.065	0.28567028
762.251	0.28632977
762.437	0.28715221
762.623	0.28780705
762.809	0.28848119
762.995	0.28908812
763.181	0.28982516
763.367	0.29045844
763.553	0.29098345
763.739	0.29133859
763.925	0.29170561
764.111	0.29218321
764.297	0.29260938
764.483	0.29292758
764.669	0.2933117
764.855	0.29382472
765.041	0.29443713
765.227	0.29503069
765.412	0.2955159
765.598	0.29615426
765.784	0.29691035
765.97	0.29766774
766.156	0.29835639
766.341	0.29897164
766.527	0.29960981
766.713	0.30040684
766.898	0.30113308
767.084	0.30173783
767.27	0.30227988
767.455	0.30276818
767.641	0.3033013
767.827	0.30384144
768.012	0.30432761
768.198	0.3048115
768.383	0.30542006
768.569	0.30601166
768.754	0.30671759
768.94	0.30729462
769.125	0.30789859
769.311	0.30844063
769.496	0.3090309
769.682	0.30962933
769.867	0.31023827
770.052	0.31077063
770.238	0.31127124
770.423	0.31181361
770.608	0.31232887
770.794	0.31270268
770.979	0.31297725
771.164	0.31332518
771.35	0.3136321
771.535	0.31411444
771.72	0.31459441
771.905	0.31520946
772.09	0.3157604
772.276	0.31639911
772.461	0.31697654
772.646	0.31769514
772.831	0.31840705
773.016	0.31910173
773.201	0.31959474
773.386	0.32034883
773.571	0.32097837
773.756	0.32162999
773.941	0.32216794
774.126	0.32279814
774.311	0.32329563
774.496	0.32390948
774.681	0.3243708
774.866	0.32491064
775.051	0.32539076
775.236	0.32597956
775.421	0.32641934
775.606	0.32690456
775.791	0.32734228
775.976	0.32774314
776.16	0.32814746
776.345	0.32858555
776.53	0.32903132
776.715	0.3295143
776.899	0.32994556
777.084	0.33026374
777.269	0.33070402
777.454	0.33112487
777.638	0.33161167
777.823	0.33197787
778.008	0.33231302
778.192	0.33284294
778.377	0.33344532
778.561	0.33401483
778.746	0.33453461
778.931	0.33502043
779.115	0.33561523
779.3	0.33606027
779.484	0.33636553
779.669	0.33669324
779.853	0.33692973
780.037	0.33730624
780.222	0.33752801
780.406	0.33764368
780.591	0.337944
780.775	0.33820753
780.959	0.33837474
781.144	0.33861963
781.328	0.33886259
781.512	0.33920228
781.697	0.33957094
781.881	0.33995803
782.065	0.34039851
782.249	0.34084914
782.434	0.34129732
782.618	0.34171063
782.802	0.34210203
782.986	0.34245072
783.17	0.34269324
783.354	0.34288512
783.539	0.34316463
783.723	0.34350084
783.907	0.34382275
784.091	0.34413272
784.275	0.34437981
784.459	0.34463456
784.643	0.34497182
784.827	0.34520517
785.011	0.3452724
785.195	0.34536886
785.379	0.3455417
785.563	0.34585105
785.747	0.34610548
785.93	0.34648992
786.114	0.34688624
786.298	0.34720058
786.482	0.34758408
786.666	0.34798704
786.85	0.34836824
787.033	0.34904516
787.217	0.3495106
787.401	0.35002492
787.585	0.35076724
787.768	0.35142415
787.952	0.3519071
788.136	0.35229461
788.319	0.35255329
788.503	0.35289058
788.687	0.35329393
788.87	0.35361042
789.054	0.35382747
789.237	0.35433243
789.421	0.35487744
789.605	0.35537842
789.788	0.35582153
789.972	0.35630132
790.155	0.35683222
790.338	0.35741816
790.522	0.35795937
790.705	0.35844266
790.889	0.35899214
791.072	0.3596172
791.256	0.36011436
791.439	0.36057484
791.622	0.36100422
791.806	0.3613774
791.989	0.36175375
792.172	0.36206436
792.355	0.36228588
792.539	0.36261754
792.722	0.36298741
792.905	0.36340936
793.088	0.36385783
793.271	0.36452774
793.455	0.36517637
793.638	0.36581474
793.821	0.36633464
794.004	0.36683558
794.187	0.36739927
794.37	0.36790852
794.553	0.36823649
794.736	0.36856214
794.919	0.36899154
795.102	0.36937563
795.285	0.36986134
795.468	0.37026538
795.651	0.37072679
795.834	0.37129269
796.017	0.37191148
796.2	0.37252406
796.383	0.37317814
796.566	0.37382952
796.749	0.37435188
796.931	0.37484227
797.114	0.37527236
797.297	0.37569608
797.48	0.37616782
797.663	0.37667234
797.845	0.37696886
798.028	0.37763091
798.211	0.37818707
798.393	0.37878026
798.576	0.37934546
798.759	0.37978391
798.941	0.38038307
799.124	0.38102254
799.307	0.38150111
799.489	0.38199767
799.672	0.38239016
799.854	0.38275447
800.037	0.38317107
800.219	0.38355701
800.402	0.38405744
800.584	0.38452364
800.767	0.38508229
800.949	0.38573401
801.132	0.38643482
801.314	0.38695172
801.496	0.38749276
801.679	0.38788417
801.861	0.38823172
802.043	0.38850699
802.226	0.38888379
802.408	0.38908481
802.59	0.38944417
802.772	0.38960584
802.955	0.38992294
803.137	0.39014187
803.319	0.39039741
803.501	0.39038779
803.684	0.3905147
803.866	0.39057036
804.048	0.39085513
804.23	0.3912076
804.412	0.39171008
804.594	0.39204291
804.776	0.39276654
804.958	0.39325356
805.14	0.39386594
805.322	0.39428462
805.504	0.39459851
805.686	0.39478293
805.868	0.39511858
806.05	0.39520178
806.232	0.3954142
806.414	0.39561725
806.596	0.39577139
806.778	0.39582557
806.96	0.39604154
807.141	0.3960348
807.323	0.39597799
807.505	0.39590945
807.687	0.39577088
807.869	0.39569287
808.05	0.39553895
808.232	0.39530851
808.414	0.39530163
808.595	0.39522933
808.777	0.39520359
808.959	0.3952889
809.14	0.39539855
809.322	0.39558745
809.504	0.39565823
809.685	0.39572736
809.867	0.39588447
810.048	0.39605132
810.23	0.39623326
810.411	0.39639093
810.593	0.39661654
810.774	0.39690625
810.956	0.3972701
811.137	0.39747126
811.319	0.39781857
811.5	0.39807944
811.681	0.39836223
811.863	0.39859727
812.044	0.39884569
812.225	0.399058
812.407	0.39929331
812.588	0.3994459
812.769	0.39955826
812.951	0.39963703
813.132	0.39970422
813.313	0.39985178
813.494	0.3999454
813.675	0.40016578
813.857	0.4002872
814.038	0.40050961
814.219	0.40071208
814.4	0.4009011
814.581	0.40115859
814.762	0.40127366
814.943	0.40148359
815.124	0.40172736
815.305	0.40204147
815.486	0.40239404
815.667	0.40273953
815.848	0.40288933
816.029	0.40311488
816.21	0.40336444
816.391	0.40356881
816.572	0.40353174
816.753	0.4036186
816.934	0.40369215
817.115	0.40389497
817.295	0.40414932
817.476	0.40418983
817.657	0.4043857
817.838	0.40479041
818.019	0.40496462
818.199	0.4053065
818.38	0.40562892
818.561	0.40601743
818.741	0.40651591
818.922	0.40700587
819.103	0.40751276
819.283	0.40808654
819.464	0.40862835
819.645	0.40904836
819.825	0.40943759
820.006	0.40973799
820.186	0.41003273
820.367	0.4102019
820.547	0.4102476
820.728	0.41033411
820.908	0.41057189
821.089	0.410958
821.269	0.41150069
821.45	0.41200956
821.63	0.41230929
821.81	0.4129231
821.991	0.41347694
822.171	0.41396596
822.351	0.41429898
822.532	0.41459993
822.712	0.41487083
822.892	0.4154443
823.072	0.41571255
823.253	0.41602809
823.433	0.41629628
823.613	0.41655092
823.793	0.41676475
823.973	0.41702588
824.154	0.41709227
824.334	0.41730362
824.514	0.41739537
824.694	0.41765044
824.874	0.41793589
825.054	0.41835889
825.234	0.41873305
825.414	0.41904522
825.594	0.41952431
825.774	0.42003188
825.954	0.42041173
826.134	0.42076415
826.314	0.42097981
826.494	0.42134447
826.674	0.42148226
826.854	0.42163298
827.033	0.42168413
827.213	0.42185221
827.393	0.42187816
827.573	0.4220071
827.753	0.42204564
827.932	0.42251232
828.112	0.42286244
828.292	0.42328735
828.472	0.42340701
828.651	0.42383671
828.831	0.42402921
829.011	0.42435018
829.19	0.42440262
829.37	0.42465444
829.549	0.42490649
829.729	0.42531943
829.909	0.42561607
830.088	0.42614252
830.268	0.42641423
830.447	0.4269533
830.627	0.42734293
830.806	0.42766965
830.986	0.42787135
831.165	0.42813862
831.344	0.42832618
831.524	0.42840723
831.703	0.4284609
831.883	0.42844156
832.062	0.42848525
832.241	0.42862959
832.421	0.42877312
832.6	0.42879129
832.779	0.42907282
832.958	0.42929089
833.138	0.42948679
833.317	0.42992728
833.496	0.43023034
833.675	0.43042333
833.854	0.43089381
834.034	0.4311523
834.213	0.43140904
834.392	0.43175683
834.571	0.43156653
834.75	0.43177465
834.929	0.43200229
835.108	0.43190488
835.287	0.43209221
835.466	0.43214299
835.645	0.43222981
835.824	0.43244766
836.003	0.43251796
836.182	0.4325637
836.361	0.43266626
836.54	0.43260006
836.719	0.43270654
836.897	0.43275902
837.076	0.43284164
837.255	0.43291774
837.434	0.4331155
837.613	0.43327904
837.791	0.43346158
837.97	0.43359876
838.149	0.43358793
838.328	0.43364885
838.506	0.4336578
838.685	0.43366139
838.864	0.43393049
839.042	0.43411636
839.221	0.43441076
839.4	0.4347588
839.578	0.43500449
839.757	0.4351237
839.935	0.43525569
840.114	0.43527007
840.292	0.43525769
840.471	0.43534085
840.649	0.43527357
840.828	0.43528728
841.006	0.43546375
841.185	0.43538989
841.363	0.43554805
841.541	0.43569385
841.72	0.43589448
841.898	0.43618407
842.076	0.43647017
842.255	0.43663742
842.433	0.43699013
842.611	0.43693779
842.789	0.43703823
842.968	0.43707081
843.146	0.43699083
843.324	0.43702279
843.502	0.437207
843.68	0.43735087
843.859	0.43754842
844.037	0.43762723
844.215	0.43760627
844.393	0.43783944
844.571	0.43797262
844.749	0.43806996
844.927	0.4381333
845.105	0.43822913
845.283	0.43830866
845.461	0.43848031
845.639	0.43857733
845.817	0.43858701
845.995	0.43880756
846.173	0.43892517
846.351	0.43884026
846.529	0.43894361
846.706	0.43890786
846.884	0.43889388
847.062	0.43886437
847.24	0.438525
847.418	0.43813799
847.595	0.43806144
847.773	0.43795262
847.951	0.43781104
848.129	0.43780418
848.306	0.43797975
848.484	0.43810516
848.662	0.43854611
848.839	0.43887786
849.017	0.43912733
849.194	0.43926457
849.372	0.43924867
849.549	0.43922263
849.727	0.43942505
849.905	0.43937635
850.082	0.43931653
850.26	0.43934844
850.437	0.43939413
850.614	0.43955745
850.792	0.43961852
850.969	0.43970802
851.147	0.43990077
851.324	0.43986739
851.501	0.43974618
851.679	0.43958712
851.856	0.43947737
852.033	0.43940225
852.211	0.4392566
852.388	0.43880338
852.565	0.43895885
852.742	0.43900052
852.92	0.43915412
853.097	0.43925797
853.274	0.43927965
853.451	0.43900536
853.628	0.43903354
853.805	0.4386491
853.982	0.43840667
854.159	0.43810861
854.336	0.43774344
854.514	0.43746244
854.691	0.43735059
854.868	0.43733803
855.045	0.43734414
855.221	0.43746472
855.398	0.43756575
855.575	0.43771102
855.752	0.4378335
855.929	0.43814279
856.106	0.4380867
856.283	0.43807969
856.46	0.43792975
856.637	0.43799708
856.813	0.43785354
856.99	0.43777185
857.167	0.437617
857.344	0.43763985
857.52	0.43768585
857.697	0.43740802
857.874	0.43703229
858.05	0.43685457
858.227	0.43671926
858.404	0.43656053
858.58	0.43639723
858.757	0.43638062
858.933	0.43653266
859.11	0.43659333
859.287	0.43644247
859.463	0.43631641
859.64	0.43636905
859.816	0.43633596
859.993	0.43635869
860.169	0.43663064
860.345	0.43666769
860.522	0.43675714
860.698	0.43662078
860.875	0.43630317
861.051	0.4361748
861.227	0.4355987
861.404	0.43516882
861.58	0.43506969
861.756	0.43501638
861.932	0.43524666
862.109	0.4350663
862.285	0.43514419
862.461	0.4355199
862.637	0.43563597
862.813	0.43574123
862.99	0.43571506
863.166	0.4354474
863.342	0.43580899
863.518	0.43550263
863.694	0.43522265
863.87	0.43486849
864.046	0.43452543
864.222	0.43447339
864.398	0.4343077
864.574	0.43371008
864.75	0.43354307
864.926	0.43339368
865.102	0.43337987
865.278	0.43304147
865.454	0.43269021
865.63	0.43250259
865.805	0.43242112
865.981	0.43252648
866.157	0.43242683
866.333	0.43208691
866.509	0.43223029
866.684	0.43216395
866.86	0.43231146
867.036	0.43217782
867.212	0.43178935
867.387	0.43154024
867.563	0.43157682
867.739	0.43130721
867.914	0.43135721
868.09	0.43094517
868.265	0.43077245
868.441	0.43075238
868.617	0.43074404
868.792	0.43053335
868.968	0.43035656
869.143	0.43027006
869.319	0.43033057
869.494	0.43026294
869.67	0.43022693
869.845	0.43016863
870.02	0.43033566
870.196	0.43053817
870.371	0.43021181
870.546	0.43014233
870.722	0.43028634
870.897	0.43013224
871.072	0.42993692
871.248	0.42945434
871.423	0.42891464
871.598	0.42867193
871.773	0.42803605
871.949	0.42743053
872.124	0.42729734
872.299	0.42688225
872.474	0.4265769
872.649	0.42623683
872.824	0.42592299
872.999	0.42577338
873.174	0.42581969
873.349	0.42551333
873.524	0.42534447
873.699	0.42521444
873.874	0.42499981
874.049	0.42459394
874.224	0.42424939
874.399	0.4237553
874.574	0.42343704
874.749	0.4231168
874.924	0.42254307
875.099	0.42232902
875.274	0.42213735
875.449	0.42218201
875.623	0.42179221
875.798	0.42140718
875.973	0.42107713
876.148	0.42077362
876.322	0.42049389
876.497	0.4203061
876.672	0.41986938
876.846	0.41988613
877.021	0.41966785
877.196	0.41936323
877.37	0.41968359
877.545	0.41972521
877.72	0.41958124
877.894	0.41957729
878.069	0.41925776
878.243	0.41871395
878.418	0.41861854
878.592	0.41816114
878.767	0.41779696
878.941	0.41754386
879.116	0.41721129
879.29	0.41693714
879.464	0.41690279
879.639	0.41665643
879.813	0.41655137
879.987	0.41622443
880.162	0.41577189
880.336	0.41528266
880.51	0.41499402
880.685	0.41473872
880.859	0.41443791
881.033	0.41384566
881.207	0.41334905
881.381	0.41313035
881.556	0.41301119
881.73	0.4127614
881.904	0.41259039
882.078	0.4123197
882.252	0.41242889
882.426	0.4124894
882.6	0.41242757
882.774	0.41246949
882.948	0.41233813
883.122	0.41189016
883.296	0.41165653
883.47	0.41121843
883.644	0.41106492
883.818	0.41069249
883.992	0.41032968
884.166	0.41031657
884.34	0.41054782
884.514	0.41061091
884.687	0.41047723
884.861	0.41000731
885.035	0.40995895
885.209	0.40977801
885.382	0.40925439
885.556	0.40893208
885.73	0.4086204
885.904	0.40845019
886.077	0.40818395
886.251	0.40783382
886.425	0.40752146
886.598	0.40741613
886.772	0.40687899
886.945	0.40624536
887.119	0.40563442
887.292	0.40523967
887.466	0.40507961
887.64	0.40458788
887.813	0.40419796
887.986	0.4040227
888.16	0.40410669
888.333	0.40389963
888.507	0.40398014
888.68	0.4034228
888.854	0.40318323
889.027	0.40279616
889.2	0.40258445
889.374	0.40195437
889.547	0.40176772
889.72	0.40130738
889.893	0.4009997
890.067	0.40056723
890.24	0.40013864
890.413	0.39974588
890.586	0.3993218
890.759	0.39910497
890.933	0.39871782
891.106	0.39816686
891.279	0.39783543
891.452	0.39755627
891.625	0.39696247
891.798	0.39668913
891.971	0.39584229
892.144	0.39536488
892.317	0.39527855
892.49	0.39471949
892.663	0.3945603
892.836	0.39460774
893.009	0.39453165
893.182	0.39446909
893.355	0.39432746
893.527	0.39404818
893.7	0.39418521
893.873	0.39369858
894.046	0.39293382
894.219	0.39257534
894.391	0.39213621
894.564	0.39175694
894.737	0.39133136
894.91	0.39084839
895.082	0.39045674
895.255	0.39029682
895.428	0.38965894
895.6	0.38940535
895.773	0.38900817
895.945	0.3887355
896.118	0.38840751
896.291	0.38822117
896.463	0.38796481
896.636	0.38785726
896.808	0.38759455
896.981	0.38744508
897.153	0.38709985
897.326	0.3868764
897.498	0.38638487
897.67	0.38600545
897.843	0.38575756
898.015	0.38546375
898.187	0.38487412
898.36	0.38418307
898.532	0.38335535
898.704	0.38312622
898.877	0.38260036
899.049	0.38218424
899.221	0.38185666
899.393	0.38165117
899.566	0.38171716
899.738	0.38196184
899.91	0.38180295
900.082	0.38197941
900.254	0.38188554
900.426	0.38191659
900.598	0.38179834
900.77	0.38141242
900.942	0.38097776
901.114	0.380422
901.286	0.37957078
901.458	0.37886711
901.63	0.37803966
901.802	0.37758852
901.974	0.37723674
902.146	0.37673359
902.318	0.37656531
902.49	0.37642542
902.662	0.37609361
902.834	0.37577491
903.005	0.37543102
903.177	0.37502631
903.349	0.37467748
903.521	0.37390095
903.693	0.37339666
903.864	0.37298917
904.036	0.3725552
904.208	0.37180772
904.379	0.37148254
904.551	0.37133688
904.723	0.37109956
904.894	0.37057529
905.066	0.37011681
905.237	0.36968973
905.409	0.3691771
905.58	0.36856319
905.752	0.36793357
905.923	0.36750152
906.095	0.3671586
906.266	0.36689053
906.438	0.36674249
906.609	0.3668285
906.78	0.36632049
906.952	0.36592368
907.123	0.36546059
907.295	0.36510816
907.466	0.3646367
907.637	0.36419709
907.808	0.36355261
907.98	0.36322708
908.151	0.36273783
908.322	0.36264995
908.493	0.36239186
908.665	0.36223243
908.836	0.36171412
909.007	0.3613814
909.178	0.36095661
909.349	0.36054909
909.52	0.36018017
909.691	0.35958655
909.862	0.35903996
910.033	0.35862706
910.204	0.35820608
910.375	0.35791188
910.546	0.35763329
910.717	0.35680698
910.888	0.3565514
911.059	0.35599023
911.23	0.35559705
911.401	0.35513367
911.572	0.35464149
911.742	0.35412556
911.913	0.35406261
912.084	0.35368342
912.255	0.35343658
912.426	0.35304694
912.596	0.35279024
912.767	0.35284731
912.938	0.35288554
913.108	0.3528363
913.279	0.35266348
913.45	0.35251092
913.62	0.35231061
913.791	0.35219149
913.962	0.35184579
914.132	0.3512373
914.303	0.35065335
914.473	0.350225
914.644	0.34962546
914.814	0.34911726
914.985	0.34861475
915.155	0.34799342
915.326	0.34757277
915.496	0.34704294
915.666	0.34643999
915.837	0.34627692
916.007	0.34561601
916.177	0.34484001
916.348	0.34437338
916.518	0.3440312
916.688	0.34363227
916.858	0.3433038
917.029	0.34258507
917.199	0.34233527
917.369	0.34230192
917.539	0.3421612
917.709	0.34187477
917.88	0.34137421
918.05	0.34081331
918.22	0.34069247
918.39	0.34049621
918.56	0.34014314
918.73	0.33988573
918.9	0.33921247
919.07	0.33891345
919.24	0.33866672
919.41	0.3382827
919.58	0.33768341
919.75	0.33725242
919.92	0.33641433
920.09	0.33616117
920.26	0.33551046
920.429	0.33507365
920.599	0.3343617
920.769	0.33394332
920.939	0.3331667
921.109	0.33259144
921.278	0.33203032
921.448	0.33180172
921.618	0.33138644
921.787	0.3308879
921.957	0.33062522
922.127	0.33018121
922.296	0.33016322
922.466	0.32970363
922.636	0.3293499
922.805	0.32893127
922.975	0.32850591
923.144	0.32774056
923.314	0.32722885
923.483	0.32637885
923.653	0.32568479
923.822	0.32492963
923.992	0.3243803
924.161	0.32404945
924.331	0.32372849
924.5	0.32341332
924.669	0.32292721
924.839	0.32277219
925.008	0.3224259
925.177	0.32185376
925.347	0.32154436
925.516	0.32119361
925.685	0.32093232
925.854	0.3208608
926.023	0.32066113
926.193	0.32069645
926.362	0.32048452
926.531	0.32014682
926.7	0.31979413
926.869	0.31942879
927.038	0.31869769
927.207	0.31804823
927.376	0.31735817
927.545	0.31681042
927.715	0.31619287
927.884	0.3156771
928.052	0.31530374
928.221	0.31473868
928.39	0.31403904
928.559	0.31328191
928.728	0.31292395
928.897	0.31249879
929.066	0.31191872
929.235	0.31111111
929.404	0.31097302
929.572	0.31065561
929.741	0.31052647
929.91	0.31011665
930.079	0.30965656
930.247	0.3093707
930.416	0.3094061
930.585	0.30891324
930.753	0.30863566
930.922	0.30826407
931.091	0.30795121
931.259	0.30769757
931.428	0.30752613
931.596	0.30705632
931.765	0.30721026
931.934	0.30702346
932.102	0.30618706
932.27	0.30569516
932.439	0.30518858
932.607	0.30462762
932.776	0.3045322
932.944	0.30379842
933.113	0.30330384
933.281	0.30332213
933.449	0.30274659
933.618	0.3021768
933.786	0.30194875
933.954	0.30107966
934.123	0.30033798
934.291	0.3000658
934.459	0.29953254
934.627	0.29951662
934.795	0.29917204
934.964	0.29836894
935.132	0.29781407
935.3	0.29758483
935.468	0.29689373
935.636	0.29646734
935.804	0.29556652
935.972	0.29527616
936.14	0.29496707
936.308	0.29447443
936.476	0.29438828
936.644	0.29438609
936.812	0.2941544
936.98	0.29399545
937.148	0.29336271
937.316	0.29285961
937.484	0.29291906
937.652	0.29206025
937.82	0.29180017
937.987	0.29122373
938.155	0.29104437
938.323	0.29089895
938.491	0.28994662
938.658	0.29000421
938.826	0.2895148
938.994	0.28853728
939.162	0.28811177
939.329	0.28787791
939.497	0.28780804
939.665	0.2877494
939.832	0.28782034
940	0.28758275
940.167	0.28676065
940.335	0.28584355
940.502	0.28430598
940.67	0.28405987
940.837	0.28465234
941.005	0.28343093
941.172	0.28334934
941.34	0.2835036
941.507	0.2855088
941.674	0.28698449
941.842	0.28619011
942.009	0.28654132
942.177	0.28412303
942.344	0.28439914
942.511	0.28454883
942.678	0.28380472
942.846	0.28171992
943.013	0.28171527
943.18	0.28034562
943.347	0.28189977
943.514	0.28065084
943.682	0.28133036
943.849	0.27935458
944.016	0.27914839
944.183	0.27904785
944.35	0.27912951
944.517	0.279923
944.684	0.27956312
944.851	0.27447285
945.018	0.27421735
945.185	0.27353682
945.352	0.27201476
945.519	0.27065655
945.686	0.2691121
945.853	0.2709576
946.02	0.27203961
946.187	0.27077422
946.353	0.27215087
946.52	0.27159584
946.687	0.27105148
946.854	0.27129125
947.021	0.26842036
947.187	0.26841791
947.354	0.26720194
947.521	0.26641521
947.687	0.26588255
947.854	0.26569028
948.021	0.26289785
948.187	0.26236525
948.354	0.26172997
948.52	0.26171589
948.687	0.2612747
948.854	0.26179236
949.02	0.25964015
949.187	0.26022123
949.353	0.25993446
949.52	0.25833488
949.686	0.2583328
949.852	0.25802332
950.019	0.25734808
950.185	0.25813739
950.352	0.256739
950.518	0.25551335
950.684	0.25620715
950.851	0.2556742
951.017	0.25358844
951.183	0.2529889
951.349	0.2522041
951.516	0.25162962
951.682	0.25169152
951.848	0.25078277
952.014	0.24896419
952.18	0.24923638
952.346	0.24858186
952.512	0.24857912
952.679	0.24931955
952.845	0.24926256
953.011	0.24903558
953.177	0.24981049
953.343	0.24903781
953.509	0.24909118
953.675	0.24875037
953.841	0.24825047
954.007	0.24818747
954.172	0.24838889
954.338	0.24751287
954.504	0.24633157
954.67	0.24452537
954.836	0.24397526
955.002	0.24305247
955.167	0.24160877
955.333	0.24002037
955.499	0.23958882
955.665	0.23888533
955.83	0.23871636
955.996	0.2379262
956.162	0.23685836
956.327	0.23612758
956.493	0.23542774
956.659	0.23527413
956.824	0.23556171
956.99	0.23508495
957.155	0.2347178
957.321	0.23481529
957.486	0.23416797
957.652	0.2340923
957.817	0.23387115
957.983	0.23295112
958.148	0.23239564
958.314	0.23177235
958.479	0.23034639
958.644	0.23056954
958.81	0.23028042
958.975	0.22936404
959.14	0.22921829
959.306	0.22852978
959.471	0.22795116
959.636	0.22752526
959.801	0.22768924
959.967	0.22763426
960.132	0.22714736
960.297	0.22670741
960.462	0.22764301
960.627	0.227403
960.792	0.22686658
960.957	0.2261035
961.123	0.2261999
961.288	0.22627233
961.453	0.22616719
961.618	0.22541893
961.783	0.22530245
961.948	0.22567021
962.113	0.22493251
962.277	0.22378088
962.442	0.22348685
962.607	0.22314156
962.772	0.22223615
962.937	0.22105841
963.102	0.22046819
963.267	0.22048403
963.431	0.22005028
963.596	0.21931022
963.761	0.21864367
963.926	0.21849358
964.09	0.21896665
964.255	0.21890993
964.42	0.21829044
964.584	0.21802526
964.749	0.21712489
964.914	0.21665267
965.078	0.21586639
965.243	0.21490122
965.407	0.2140719
965.572	0.21367862
965.736	0.21321341
965.901	0.21348852
966.065	0.21366795
966.23	0.21347574
966.394	0.213613
966.559	0.21335566
966.723	0.21283807
966.887	0.21242104
967.052	0.21177325
967.216	0.21046174
967.38	0.20936209
967.545	0.20875895
967.709	0.20888656
967.873	0.208943
968.037	0.20845354
968.202	0.20826463
968.366	0.20869848
968.53	0.20933871
968.694	0.20892085
968.858	0.20829796
969.022	0.20755522
969.187	0.20720805
969.351	0.20699024
969.515	0.20664564
969.679	0.20617626
969.843	0.20572871
970.007	0.20508096
970.171	0.20500058
970.335	0.20459893
970.499	0.20415376
970.662	0.20394581
970.826	0.20347696
970.99	0.20350561
971.154	0.20375335
971.318	0.20329668
971.482	0.202833
971.645	0.20248774
971.809	0.20198339
971.973	0.20138187
972.137	0.2007047
972.3	0.19996102
972.464	0.19978247
972.628	0.20003849
972.791	0.20001499
972.955	0.19958934
973.119	0.19922665
973.282	0.19880598
973.446	0.19834408
973.609	0.19778015
973.773	0.19703444
973.936	0.19611084
974.1	0.19556108
974.263	0.19530193
974.427	0.19490339
974.59	0.19460224
974.754	0.19393632
974.917	0.19358987
975.08	0.19346752
975.244	0.19299165
975.407	0.19275301
975.57	0.19242619
975.734	0.19236012
975.897	0.19245552
976.06	0.19231667
976.223	0.19212164
976.387	0.19218203
976.55	0.19183835
976.713	0.19169361
976.876	0.19112961
977.039	0.19048913
977.202	0.19008381
977.365	0.1890974
977.528	0.18882821
977.692	0.18873122
977.855	0.18762216
978.018	0.18700352
978.181	0.18650246
978.344	0.18551046
978.506	0.18533676
978.669	0.18438324
978.832	0.18341599
978.995	0.18316702
979.158	0.18295571
979.321	0.182626
979.484	0.18242931
979.646	0.18235064
979.809	0.18214441
979.972	0.18178565
980.135	0.18215784
980.297	0.18151153
980.46	0.18120222
980.623	0.18111458
980.786	0.18065708
980.948	0.18048634
981.111	0.18017456
981.273	0.17968162
981.436	0.17934445
981.599	0.17923135
981.761	0.17864672
981.924	0.17877653
982.086	0.17803758
982.249	0.17808049
982.411	0.17747235
982.573	0.17755377
982.736	0.17769168
982.898	0.17752874
983.061	0.1768744
983.223	0.17704805
983.385	0.17651149
983.548	0.17696677
983.71	0.17644489
983.872	0.17575988
984.034	0.17600118
984.197	0.17537356
984.359	0.17514922
984.521	0.17517043
984.683	0.17475681
984.845	0.17506268
985.008	0.17470943
985.17	0.17453225
985.332	0.17454924
985.494	0.17368915
985.656	0.17339926
985.818	0.17260405
985.98	0.17163857
986.142	0.17085009
986.304	0.16980098
986.466	0.16901729
986.628	0.16883351
986.79	0.16866992
986.952	0.1680973
987.113	0.16798615
987.275	0.16751552
987.437	0.16698558
987.599	0.16670575
987.761	0.16635851
987.922	0.16521536
988.084	0.1651575
988.246	0.16521538
988.408	0.16549427
988.569	0.16618308
988.731	0.16634667
988.893	0.16605475
989.054	0.1667935
989.216	0.16662215
989.377	0.16570137
989.539	0.16497799
989.701	0.16378775
989.862	0.1632995
990.024	0.16308138
990.185	0.16200364
990.347	0.16168413
990.508	0.16119535
990.669	0.16119307
990.831	0.16146616
990.992	0.16191702
991.154	0.16129115
991.315	0.16209292
991.476	0.16176172
991.638	0.16203728
991.799	0.16184705
991.96	0.16154011
992.121	0.16122851
992.283	0.16134323
992.444	0.16028482
992.605	0.15985146
992.766	0.159642
992.927	0.15901974
993.088	0.15868033
993.249	0.15786207
993.41	0.156898
993.572	0.15671046
993.733	0.15668318
993.894	0.1560739
994.055	0.15495688
994.216	0.15421953
994.376	0.15320521
994.537	0.15377818
994.698	0.15323181
994.859	0.15217008
995.02	0.15207506
995.181	0.15164085
995.342	0.15170937
995.503	0.15158607
995.663	0.15038397
995.824	0.14947573
995.985	0.15020728
996.146	0.14984536
996.306	0.15015891
996.467	0.15000076
996.628	0.15000112
996.788	0.150223
996.949	0.15039487
997.11	0.14927253
997.27	0.14818938
997.431	0.14784264
997.591	0.14620337
997.752	0.14542762
997.912	0.14577099
998.073	0.14530195
998.233	0.1457913
998.394	0.14638433
998.554	0.14727282
998.714	0.14796456
998.875	0.147625
999.035	0.1465706
999.196	0.14677734
999.356	0.14616518
999.516	0.14537807
999.676	0.14528266
999.837	0.14467764
999.997	0.14462591
1000.157	0.14425593
1000.317	0.14272675
1000.477	0.14212329
1000.638	0.14162768
1000.798	0.14065193
1000.958	0.1408724
1001.118	0.14083939
1001.278	0.14050451
1001.438	0.14071806
1001.598	0.14074757
1001.758	0.14107552
1001.918	0.14030138
1002.078	0.13939025
1002.238	0.13923052
1002.398	0.13939973
1002.558	0.13964505
1002.718	0.13978265
1002.878	0.13921773
1003.037	0.13778887
1003.197	0.13780435
1003.357	0.13726821
1003.517	0.13816149
1003.677	0.13733711
1003.836	0.1364764
1003.996	0.13615211
1004.156	0.13739381
1004.315	0.13768933
1004.475	0.13744656
1004.635	0.13699192
1004.794	0.13763988
1004.954	0.13717257
1005.114	0.13659264
1005.273	0.13726162
1005.433	0.13621585
1005.592	0.13604876
1005.752	0.13525557
1005.911	0.13453457
1006.071	0.13458835
1006.23	0.13446295
1006.389	0.13340231
1006.549	0.13355578
1006.708	0.13369478
1006.868	0.13216955
1007.027	0.13265815
1007.186	0.13319671
1007.345	0.13382527
1007.505	0.13380178
1007.664	0.13396189
1007.823	0.13367888
1007.982	0.13409618
1008.142	0.13377935
1008.301	0.13372321
1008.46	0.13300973
1008.619	0.13205108
1008.778	0.1320728
1008.937	0.13154908
1009.096	0.13207353
1009.255	0.13205993
1009.414	0.13062445
1009.573	0.13009971
1009.732	0.13120822
1009.891	0.13048492
1010.05	0.13140075
1010.209	0.13073346
1010.368	0.13021628
1010.527	0.13067959
1010.686	0.13108835
1010.845	0.12989421
1011.003	0.13004462
1011.162	0.12900538
1011.321	0.12865687
1011.48	0.12906908
1011.638	0.12819151
1011.797	0.1295635
1011.956	0.12970985
1012.115	0.12984357
1012.273	0.1290408
1012.432	0.12883814
1012.59	0.12794079
1012.749	0.12834529
1012.908	0.1265165
1013.066	0.12651095
1013.225	0.12614448
1013.383	0.1261003
1013.542	0.12620842
1013.7	0.12535452
1013.859	0.12577024
1014.017	0.12654697
1014.175	0.12483984
1014.334	0.12509665
1014.492	0.12614178
1014.65	0.1261014
1014.809	0.12717297
1014.967	0.12592518
1015.125	0.12496321
1015.284	0.12671827
1015.442	0.1257765
1015.6	0.12468336
1015.758	0.12410874
1015.916	0.12310823
1016.075	0.12289075
1016.233	0.12275807
1016.391	0.1220897
1016.549	0.12243854
1016.707	0.12296294
1016.865	0.12345656
1017.023	0.12305275
1017.181	0.12340086
1017.339	0.12343898
1017.497	0.12342148
1017.655	0.12287154
1017.813	0.12351836
1017.971	0.12284712
1018.129	0.12327081
1018.286	0.12310201
1018.444	0.12224323
1018.602	0.12322386
1018.76	0.12324994
1018.918	0.12237759
1019.075	0.12127226
1019.233	0.12086428
1019.391	0.1210674
1019.549	0.12217645
1019.706	0.11987991
1019.864	0.12052745
1020.022	0.12005592
1020.179	0.12207725
1020.337	0.12250108
1020.494	0.12247404
1020.652	0.12123886
1020.809	0.12308189
1020.967	0.12182235
1021.124	0.12318717
1021.282	0.12245873
1021.439	0.12198678
1021.597	0.12069661
1021.754	0.12003262
1021.911	0.12036127
1022.069	0.11945929
1022.226	0.11729846
1022.384	0.11633885
1022.541	0.11554612
1022.698	0.11693081
1022.855	0.1173724
1023.013	0.11609008
1023.17	0.11683427
1023.327	0.11911673
1023.484	0.11900134
1023.641	0.11969833
1023.798	0.12110529
1023.956	0.12398651
1024.113	0.12406537
1024.27	0.12388067
1024.427	0.12277898
1024.584	0.12506787
1024.741	0.12505562
1024.898	0.12277637
1025.055	0.11996139
1025.212	0.11757554
1025.369	0.11605952
1025.525	0.11382304
1025.682	0.11354577
1025.839	0.11418467
1025.996	0.11538516
1026.153	0.11604812
1026.31	0.12018294
1026.466	0.12282656
1026.623	0.12543799
1026.78	0.12441802
1026.937	0.12414497
1027.093	0.12290721
1027.25	0.12296525
1027.407	0.12169284
1027.563	0.12166361
1027.72	0.11949279
1027.876	0.12097609
1028.033	0.12077859
1028.19	0.11976288
1028.346	0.11809602
1028.503	0.11872473
1028.659	0.1189704
1028.816	0.11994778
1028.972	0.12048534
1029.128	0.12264091
1029.285	0.1215431
1029.441	0.12280998
1029.598	0.12007446
1029.754	0.12089682
1029.91	0.12245448
1030.067	0.12053561
1030.223	0.11782951
1030.379	0.11874278
1030.535	0.12354368
1030.691	0.12595559
1030.848	0.12558581
1031.004	0.12263139
1031.16	0.12466198
1031.316	0.12667844
1031.472	0.12829549
1031.628	0.12098041
1031.784	0.12219818
1031.94	0.12447349
1032.096	0.12942627
1032.252	0.1305467
1032.408	0.13229831
1032.564	0.13190776
1032.72	0.13736417
1032.876	0.13119006
1033.032	0.12750594
1033.188	0.12532647
1033.344	0.12400143
1033.5	0.12347617
1033.655	0.12500829
1033.811	0.12297369
1033.967	0.1305053
