Data from 1_mm_pl_0pc_Absorbance__0__17-19-27-755.txt Node

Date: Wed Mar 08 17:19:27 CET 2023
User: Ange
Spectrometer: FLMT08341
Trigger mode: 0
Integration Time (sec): 1.000000E-2
Scans to average: 400
Electric dark correction enabled: true
Nonlinearity correction enabled: false
Boxcar width: 3
XAxis mode: Wavelengths
Number of Pixels in Spectrum: 3648
>>>>>Begin Spectral Data<<<<<
345.271	0.03264516
345.487	0.01979975
345.704	0.02287124
345.921	0.01872399
346.137	0.03790584
346.354	0.02497092
346.571	0.03040514
346.787	-0.09439468
347.004	0.00869194
347.22	0.05251374
347.437	0.15406979
347.653	0.59918133
347.87	-0.45691266
348.086	-0.55028059
348.303	-0.03861906
348.519	0.26801219
348.736	0.26999468
348.952	0.27846285
349.169	0.28433592
349.385	0.30152758
349.601	0.29911835
349.818	0.29830377
350.034	0.29572913
350.251	0.29541302
350.467	0.29867712
350.683	0.29202382
350.9	0.29117995
351.116	0.29010799
351.332	0.28765817
351.549	0.29966297
351.765	0.30840993
351.981	0.31333431
352.197	0.32686258
352.414	0.33915817
352.63	0.34589143
352.846	0.35581271
353.062	0.35078628
353.278	0.34823201
353.495	0.36040119
353.711	0.36175679
353.927	0.36079789
354.143	0.36278242
354.359	0.36080447
354.575	0.3597597
354.792	0.36940315
355.008	0.36080524
355.224	0.35644911
355.44	0.35413565
355.656	0.35268952
355.872	0.35820862
356.088	0.37609954
356.304	0.37783994
356.52	0.38244716
356.736	0.38944935
356.952	0.39680462
357.168	0.40325624
357.384	0.41015018
357.6	0.40063104
357.816	0.40561389
358.032	0.41017136
358.248	0.42047024
358.464	0.42327533
358.679	0.42764401
358.895	0.42821029
359.111	0.43729887
359.327	0.43276836
359.543	0.43838199
359.759	0.44437481
359.974	0.4435586
360.19	0.44347468
360.406	0.44725857
360.622	0.44460046
360.838	0.44395199
361.053	0.44723503
361.269	0.44867443
361.485	0.45241289
361.701	0.45645038
361.916	0.45248264
362.132	0.45551151
362.348	0.46296665
362.563	0.46672557
362.779	0.46426364
362.995	0.4699717
363.21	0.4755107
363.426	0.4799775
363.641	0.48243308
363.857	0.48549577
364.073	0.48177685
364.288	0.47966679
364.504	0.48568331
364.719	0.48818831
364.935	0.49007401
365.15	0.49461201
365.366	0.49871054
365.581	0.50717195
365.797	0.51485155
366.012	0.51135309
366.228	0.50587578
366.443	0.51510542
366.658	0.51678729
366.874	0.51111495
367.089	0.51709283
367.305	0.51991713
367.52	0.5250393
367.735	0.52952782
367.951	0.52460364
368.166	0.52947503
368.381	0.54243606
368.597	0.54087262
368.812	0.54552708
369.027	0.54707912
369.243	0.55212271
369.458	0.56513388
369.673	0.56766988
369.888	0.56902709
370.104	0.56542974
370.319	0.56745934
370.534	0.56810734
370.749	0.56922557
370.964	0.57011477
371.179	0.56942505
371.395	0.5643991
371.61	0.57193535
371.825	0.56861987
372.04	0.57247157
372.255	0.57236317
372.47	0.56951337
372.685	0.56726489
372.9	0.57032447
373.115	0.56688721
373.33	0.57425937
373.545	0.57743063
373.76	0.58332259
373.975	0.58543993
374.19	0.58601962
374.405	0.59020137
374.62	0.60233866
374.835	0.60908284
375.05	0.61015132
375.265	0.61325138
375.48	0.61631377
375.695	0.63042992
375.91	0.63136472
376.125	0.62204075
376.339	0.61240232
376.554	0.61572755
376.769	0.61736809
376.984	0.61755607
377.199	0.62008004
377.414	0.62133599
377.628	0.6329742
377.843	0.64152286
378.058	0.64510707
378.273	0.65068263
378.487	0.65361386
378.702	0.65458737
378.917	0.65759396
379.131	0.65302842
379.346	0.6471588
379.561	0.64654259
379.775	0.6437093
379.99	0.64212786
380.205	0.63682942
380.419	0.63342936
380.634	0.62930815
380.848	0.63936743
381.063	0.64169813
381.278	0.64935892
381.492	0.64750124
381.707	0.65881794
381.921	0.66274994
382.136	0.67511938
382.35	0.67222242
382.565	0.66997699
382.779	0.67112931
382.994	0.67844996
383.208	0.67376088
383.422	0.68300815
383.637	0.68272527
383.851	0.68970338
384.066	0.69707078
384.28	0.70062492
384.494	0.70331407
384.709	0.7088236
384.923	0.70849762
385.137	0.70735241
385.352	0.70916505
385.566	0.71191878
385.78	0.71241438
385.995	0.71164574
386.209	0.71027514
386.423	0.71596652
386.637	0.72128061
386.852	0.71856145
387.066	0.71843256
387.28	0.71392626
387.494	0.72159101
387.708	0.72448389
387.923	0.7232528
388.137	0.72617742
388.351	0.73082825
388.565	0.73806723
388.779	0.74504943
388.993	0.75307645
389.207	0.7573403
389.421	0.7625427
389.635	0.76185943
389.85	0.76279919
390.064	0.7614072
390.278	0.76377523
390.492	0.76347249
390.706	0.76584772
390.92	0.76549364
391.134	0.77303015
391.348	0.78344674
391.561	0.78409641
391.775	0.78482783
391.989	0.78101244
392.203	0.78551
392.417	0.78901952
392.631	0.79330621
392.845	0.78867241
393.059	0.79610648
393.273	0.79659815
393.486	0.795515
393.7	0.79106966
393.914	0.79654625
394.128	0.79466198
394.342	0.79474337
394.555	0.78811357
394.769	0.79063736
394.983	0.79596012
395.197	0.80162402
395.41	0.8010465
395.624	0.80405815
395.838	0.80622909
396.051	0.81799485
396.265	0.81699419
396.479	0.82061316
396.692	0.82220994
396.906	0.82057772
397.12	0.82109213
397.333	0.82733522
397.547	0.82532808
397.76	0.83340614
397.974	0.83509862
398.187	0.83755965
398.401	0.84463528
398.614	0.84737387
398.828	0.84859656
399.041	0.85093615
399.255	0.85039193
399.468	0.85206625
399.682	0.8541623
399.895	0.85678472
400.109	0.85663827
400.322	0.85579889
400.536	0.85100786
400.749	0.85607305
400.962	0.85804526
401.176	0.85617418
401.389	0.85439205
401.602	0.84958763
401.816	0.85319427
402.029	0.86003359
402.242	0.85718902
402.456	0.85553863
402.669	0.85368317
402.882	0.84942302
403.095	0.8602508
403.309	0.85966965
403.522	0.86104817
403.735	0.86089215
403.948	0.86276603
404.161	0.87477661
404.375	0.87954319
404.588	0.87780279
404.801	0.87998108
405.014	0.87786535
405.227	0.88428812
405.44	0.88891723
405.653	0.88871132
405.866	0.88607471
406.079	0.88595653
406.293	0.88486786
406.506	0.88642119
406.719	0.88482949
406.932	0.88263737
407.145	0.87826779
407.358	0.88683664
407.571	0.88337948
407.784	0.88596468
407.996	0.88866422
408.209	0.88529
408.422	0.8841874
408.635	0.88658775
408.848	0.88595696
409.061	0.88423356
409.274	0.88263833
409.487	0.88022714
409.7	0.88136041
409.912	0.88409495
410.125	0.88415944
410.338	0.88279968
410.551	0.88489885
410.764	0.88613141
410.976	0.88719143
411.189	0.88864515
411.402	0.88484662
411.615	0.88652291
411.827	0.88668035
412.04	0.88858201
412.253	0.88669407
412.465	0.88407727
412.678	0.88255646
412.891	0.88608087
413.103	0.87926491
413.316	0.87763842
413.529	0.88060346
413.741	0.88338896
413.954	0.88654461
414.166	0.88718144
414.379	0.88601447
414.591	0.89067676
414.804	0.88895804
415.016	0.88623822
415.229	0.88367441
415.441	0.88047341
415.654	0.88091477
415.866	0.88086769
416.079	0.88089593
416.291	0.87980129
416.504	0.88228786
416.716	0.88263192
416.928	0.88320016
417.141	0.88103403
417.353	0.88109293
417.566	0.87594996
417.778	0.87634443
417.99	0.86957271
418.203	0.86550647
418.415	0.8643829
418.627	0.86473245
418.839	0.86281125
419.052	0.86815889
419.264	0.86750331
419.476	0.86867698
419.688	0.86946187
419.901	0.86902031
420.113	0.8663899
420.325	0.8636775
420.537	0.8573604
420.749	0.8571793
420.961	0.85664605
421.174	0.8548255
421.386	0.85135455
421.598	0.85000241
421.81	0.84918326
422.022	0.84848956
422.234	0.84688705
422.446	0.84408708
422.658	0.84270475
422.87	0.84261667
423.082	0.84112014
423.294	0.83874117
423.506	0.83705902
423.718	0.83448592
423.93	0.83193063
424.142	0.82905202
424.354	0.82553771
424.566	0.82322061
424.778	0.82188933
424.99	0.81963064
425.202	0.81602202
425.414	0.81481152
425.625	0.81432081
425.837	0.81145927
426.049	0.81079789
426.261	0.80811845
426.473	0.80520375
426.684	0.80393419
426.896	0.80285137
427.108	0.7992279
427.32	0.79909192
427.531	0.79526268
427.743	0.79293668
427.955	0.79346237
428.167	0.78992546
428.378	0.78684713
428.59	0.78498006
428.802	0.7823298
429.013	0.77965838
429.225	0.77637849
429.436	0.7718764
429.648	0.77148279
429.86	0.76963002
430.071	0.76768841
430.283	0.76500834
430.494	0.76243342
430.706	0.76080901
430.917	0.75793145
431.129	0.75500089
431.34	0.75147966
431.552	0.74950983
431.763	0.74606015
431.975	0.74477197
432.186	0.74055899
432.398	0.73778491
432.609	0.73229005
432.821	0.72995776
433.032	0.7262646
433.243	0.72329514
433.455	0.71981157
433.666	0.71801041
433.877	0.71647925
434.089	0.71406993
434.3	0.71037723
434.511	0.70588888
434.723	0.70226336
434.934	0.69787553
435.145	0.69314975
435.356	0.68839243
435.568	0.68570174
435.779	0.6820958
435.99	0.678324
436.201	0.67536829
436.412	0.67224095
436.624	0.67066946
436.835	0.66824323
437.046	0.66596253
437.257	0.66278913
437.468	0.66169509
437.679	0.65951164
437.89	0.65703718
438.101	0.65432063
438.312	0.65152445
438.523	0.64799571
438.734	0.64523884
438.945	0.6416052
439.156	0.63724854
439.367	0.63416398
439.578	0.63120273
439.789	0.62664915
440	0.62347689
440.211	0.61959965
440.422	0.61649716
440.633	0.61416622
440.844	0.61000519
441.055	0.60600658
441.266	0.60381514
441.477	0.59993546
441.687	0.59681757
441.898	0.59354192
442.109	0.58934997
442.32	0.58597761
442.531	0.58173014
442.741	0.57665891
442.952	0.57302753
443.163	0.5696015
443.374	0.56537152
443.584	0.56181475
443.795	0.55860596
444.006	0.55585826
444.216	0.55274844
444.427	0.54861126
444.638	0.54481617
444.848	0.54140561
445.059	0.53789867
445.27	0.53411799
445.48	0.53005483
445.691	0.52712096
445.901	0.52452694
446.112	0.52119808
446.323	0.51733009
446.533	0.51386138
446.744	0.51008525
446.954	0.50637631
447.165	0.50256996
447.375	0.49941414
447.586	0.49620505
447.796	0.49317125
448.006	0.48972068
448.217	0.48700706
448.427	0.48367002
448.638	0.48010485
448.848	0.4761033
449.058	0.4723628
449.269	0.46887152
449.479	0.46551956
449.689	0.46164848
449.9	0.45850172
450.11	0.45490293
450.32	0.45220724
450.531	0.4487848
450.741	0.44531131
450.951	0.44223096
451.161	0.43906177
451.372	0.43580158
451.582	0.43363088
451.792	0.42997645
452.002	0.42676826
452.212	0.42342483
452.422	0.42010639
452.633	0.41661484
452.843	0.41374985
453.053	0.409577
453.263	0.40655664
453.473	0.40328882
453.683	0.40058445
453.893	0.397033
454.103	0.39435368
454.313	0.39091944
454.523	0.38805525
454.733	0.38501782
454.943	0.38240692
455.153	0.37938101
455.363	0.37649452
455.573	0.37339853
455.783	0.37063284
455.993	0.36748222
456.203	0.36453963
456.413	0.36166615
456.623	0.35854075
456.833	0.35612441
457.042	0.35322014
457.252	0.35042276
457.462	0.34755583
457.672	0.34487265
457.882	0.34183258
458.091	0.3391595
458.301	0.33605871
458.511	0.33321262
458.721	0.33035182
458.931	0.32771369
459.14	0.3251241
459.35	0.32280279
459.56	0.32032006
459.769	0.31808238
459.979	0.31552052
460.189	0.31309566
460.398	0.31033836
460.608	0.30787593
460.817	0.30536999
461.027	0.30271272
461.237	0.29993268
461.446	0.29738979
461.656	0.29505096
461.865	0.29270895
462.075	0.29012812
462.284	0.28774876
462.494	0.28532341
462.703	0.28291636
462.913	0.28075916
463.122	0.27826725
463.332	0.27606343
463.541	0.27403129
463.751	0.2716607
463.96	0.26957294
464.169	0.26752993
464.379	0.26554616
464.588	0.26345114
464.797	0.26142118
465.007	0.2593359
465.216	0.25745449
465.425	0.25561554
465.635	0.25373201
465.844	0.2518806
466.053	0.25001419
466.263	0.24810666
466.472	0.2462335
466.681	0.24443143
466.89	0.24250753
467.099	0.24056205
467.309	0.23856761
467.518	0.23689683
467.727	0.23514108
467.936	0.2333413
468.145	0.23155469
468.354	0.22997055
468.563	0.22828444
468.772	0.2265437
468.982	0.22484736
469.191	0.22337244
469.4	0.22164398
469.609	0.22004447
469.818	0.21840543
470.027	0.21690604
470.236	0.21538554
470.445	0.21381857
470.654	0.21212198
470.863	0.21066438
471.072	0.20922479
471.28	0.20763586
471.489	0.20617083
471.698	0.20477403
471.907	0.20337862
472.116	0.20215965
472.325	0.20080331
472.534	0.19946384
472.743	0.19816392
472.951	0.19695791
473.16	0.19567218
473.369	0.1945033
473.578	0.19317101
473.786	0.1920194
473.995	0.19075666
474.204	0.18967247
474.413	0.18833066
474.621	0.18717171
474.83	0.1861671
475.039	0.18505725
475.247	0.18390124
475.456	0.18291204
475.665	0.18175884
475.873	0.18073286
476.082	0.17953037
476.291	0.17844718
476.499	0.17759163
476.708	0.17656844
476.916	0.17568412
477.125	0.17486236
477.333	0.17406182
477.542	0.17337256
477.75	0.17228142
477.959	0.17138912
478.167	0.17064944
478.376	0.1696673
478.584	0.16885777
478.793	0.16810294
479.001	0.16725128
479.209	0.16660966
479.418	0.16589766
479.626	0.1651454
479.834	0.16437375
480.043	0.16360469
480.251	0.16289966
480.459	0.16226888
480.668	0.16171814
480.876	0.16106368
481.084	0.16039924
481.293	0.15982256
481.501	0.15917327
481.709	0.15851267
481.917	0.15794155
482.125	0.15736354
482.334	0.15676153
482.542	0.15624065
482.75	0.15576363
482.958	0.15533097
483.166	0.15494263
483.374	0.15450947
483.583	0.15407354
483.791	0.15368814
483.999	0.15326187
484.207	0.15288838
484.415	0.1525235
484.623	0.15202465
484.831	0.15153482
485.039	0.15107483
485.247	0.15065468
485.455	0.15024559
485.663	0.14984264
485.871	0.14948803
486.079	0.1491347
486.287	0.1488529
486.495	0.14859733
486.702	0.14828661
486.91	0.14801292
487.118	0.14773691
487.326	0.1474767
487.534	0.14731746
487.742	0.14717815
487.95	0.1469473
488.157	0.14678755
488.365	0.1466688
488.573	0.14656698
488.781	0.1465267
488.988	0.1464171
489.196	0.14631849
489.404	0.146269
489.612	0.1463102
489.819	0.1463733
490.027	0.1463488
490.235	0.14616576
490.442	0.14607753
490.65	0.14593007
490.857	0.14598782
491.065	0.14591555
491.273	0.14585093
491.48	0.14586632
491.688	0.14591791
491.895	0.14594959
492.103	0.14607986
492.31	0.14617201
492.518	0.14608317
492.725	0.14603045
492.933	0.14595777
493.14	0.14597265
493.348	0.14605116
493.555	0.14608902
493.763	0.14596617
493.97	0.14615109
494.177	0.14637852
494.385	0.14655848
494.592	0.1467102
494.8	0.14682165
495.007	0.14700833
495.214	0.14721854
495.422	0.14740971
495.629	0.14753369
495.836	0.14773359
496.043	0.14792054
496.251	0.14814465
496.458	0.14834045
496.665	0.1485803
496.872	0.14874482
497.08	0.14894284
497.287	0.14914497
497.494	0.14950637
497.701	0.14983911
497.908	0.15011323
498.115	0.15032345
498.322	0.15062683
498.53	0.15097665
498.737	0.15130351
498.944	0.15156998
499.151	0.15179682
499.358	0.15216876
499.565	0.15255744
499.772	0.1529833
499.979	0.15335484
500.186	0.15374315
500.393	0.15411944
500.6	0.15448446
500.807	0.15486521
501.014	0.15525931
501.221	0.15557504
501.427	0.15596271
501.634	0.15633109
501.841	0.15666594
502.048	0.15705939
502.255	0.15735296
502.462	0.15772832
502.669	0.15812599
502.875	0.15848112
503.082	0.15887399
503.289	0.15924459
503.496	0.15974278
503.702	0.16024902
503.909	0.16072905
504.116	0.16123934
504.323	0.16174355
504.529	0.16230036
504.736	0.1628753
504.943	0.16333241
505.149	0.16388159
505.356	0.16450084
505.563	0.16514884
505.769	0.16581134
505.976	0.16643093
506.182	0.16707213
506.389	0.16770564
506.595	0.16834214
506.802	0.16891077
507.008	0.1694332
507.215	0.16997157
507.421	0.17052203
507.628	0.17102302
507.834	0.17164676
508.041	0.1721978
508.247	0.17277316
508.454	0.17335577
508.66	0.17390984
508.866	0.17447812
509.073	0.17515864
509.279	0.17578204
509.486	0.17638475
509.692	0.17701482
509.898	0.17761943
510.105	0.17827245
510.311	0.17898435
510.517	0.17967201
510.723	0.18028802
510.93	0.18092335
511.136	0.18157245
511.342	0.18228055
511.548	0.18294073
511.754	0.18357721
511.961	0.18416702
512.167	0.1848777
512.373	0.18557275
512.579	0.18636799
512.785	0.18709604
512.991	0.18792862
513.197	0.18872542
513.404	0.18965178
513.61	0.19050088
513.816	0.19133668
514.022	0.19205003
514.228	0.19281662
514.434	0.19351578
514.64	0.19424386
514.846	0.19494536
515.052	0.19560676
515.258	0.19634048
515.464	0.19712997
515.669	0.19792511
515.875	0.19872825
516.081	0.19964028
516.287	0.20053662
516.493	0.20148128
516.699	0.20234282
516.905	0.20315532
517.111	0.20400719
517.316	0.20487711
517.522	0.20561412
517.728	0.20638696
517.934	0.20722692
518.139	0.20808173
518.345	0.20897551
518.551	0.20980876
518.757	0.21062212
518.962	0.21152281
519.168	0.21241206
519.374	0.21331262
519.579	0.21427751
519.785	0.21529108
519.991	0.21638003
520.196	0.21748212
520.402	0.21844338
520.607	0.21943684
520.813	0.22039002
521.018	0.22125972
521.224	0.22209592
521.429	0.22292841
521.635	0.22377449
521.84	0.22465145
522.046	0.2256099
522.251	0.22652287
522.457	0.2274595
522.662	0.22845729
522.868	0.22941949
523.073	0.23038308
523.279	0.23148287
523.484	0.23245168
523.689	0.23349715
523.895	0.23459782
524.1	0.23563116
524.305	0.23668968
524.511	0.23766658
524.716	0.23867265
524.921	0.2396931
525.126	0.2407025
525.332	0.24174089
525.537	0.24275034
525.742	0.24376606
525.947	0.24487487
526.153	0.24587485
526.358	0.2468466
526.563	0.24783154
526.768	0.24882845
526.973	0.24990036
527.178	0.25101214
527.383	0.25210671
527.588	0.25321277
527.794	0.25432019
527.999	0.25543798
528.204	0.25657332
528.409	0.25764241
528.614	0.25874297
528.819	0.25981794
529.024	0.26077129
529.229	0.2618082
529.434	0.26295403
529.639	0.26402947
529.843	0.26512376
530.048	0.26620375
530.253	0.26730802
530.458	0.26860226
530.663	0.26982684
530.868	0.27093356
531.073	0.27200469
531.278	0.27308082
531.482	0.27422125
531.687	0.2753731
531.892	0.27644792
532.097	0.27756403
532.302	0.2787427
532.506	0.2799748
532.711	0.28118386
532.916	0.28241555
533.12	0.28362696
533.325	0.28482243
533.53	0.28605473
533.734	0.28730111
533.939	0.28855937
534.144	0.28985773
534.348	0.29102619
534.553	0.29223393
534.757	0.29346912
534.962	0.29469175
535.167	0.29592363
535.371	0.29702021
535.576	0.29826215
535.78	0.29948553
535.985	0.300758
536.189	0.30193944
536.394	0.30317822
536.598	0.30443147
536.803	0.30576059
537.007	0.30700144
537.211	0.30829491
537.416	0.30945116
537.62	0.31075485
537.825	0.31202215
538.029	0.3133409
538.233	0.31463984
538.438	0.31598528
538.642	0.31726192
538.846	0.31869039
539.05	0.31999698
539.255	0.3212025
539.459	0.32240502
539.663	0.32367834
539.867	0.32492446
540.072	0.32622669
540.276	0.32747998
540.48	0.32885588
540.684	0.33027581
540.888	0.33178223
541.092	0.33310264
541.297	0.33443604
541.501	0.33579393
541.705	0.33717185
541.909	0.33841481
542.113	0.33957689
542.317	0.34076023
542.521	0.34213939
542.725	0.34348236
542.929	0.34483358
543.133	0.34610373
543.337	0.34749578
543.541	0.34894576
543.745	0.35022694
543.949	0.35145331
544.153	0.3527144
544.357	0.3539376
544.56	0.35528181
544.764	0.35668282
544.968	0.35801079
545.172	0.35931716
545.376	0.36081693
545.58	0.36231751
545.783	0.36378425
545.987	0.3650986
546.191	0.36640398
546.395	0.36782894
546.598	0.36938445
546.802	0.37077175
547.006	0.37210012
547.21	0.37326021
547.413	0.37471613
547.617	0.37607592
547.821	0.37747657
548.024	0.37888184
548.228	0.38020017
548.431	0.38159233
548.635	0.38314403
548.839	0.38446298
549.042	0.38590928
549.246	0.3871686
549.449	0.38849498
549.653	0.38991064
549.856	0.39130025
550.06	0.39266515
550.263	0.39418275
550.467	0.39561271
550.67	0.39714627
550.874	0.39858562
551.077	0.40004438
551.28	0.40145397
551.484	0.40289143
551.687	0.40424818
551.891	0.40564562
552.094	0.40701839
552.297	0.40850877
552.501	0.40996316
552.704	0.41148989
552.907	0.41291594
553.11	0.41437656
553.314	0.41581732
553.517	0.41718948
553.72	0.41854555
553.923	0.41998322
554.127	0.42144448
554.33	0.42280403
554.533	0.42426738
554.736	0.42560134
554.939	0.42697004
555.142	0.42835435
555.345	0.42962732
555.549	0.43094762
555.752	0.43233096
555.955	0.43358893
556.158	0.43503174
556.361	0.43646349
556.564	0.43786976
556.767	0.4393628
556.97	0.44080579
557.173	0.44237638
557.376	0.443971
557.579	0.44536541
557.782	0.44688035
557.984	0.448329
558.187	0.44980355
558.39	0.45108771
558.593	0.45241948
558.796	0.45373786
558.999	0.45508368
559.202	0.45648367
559.404	0.45780142
559.607	0.45914459
559.81	0.46068551
560.013	0.46206106
560.216	0.46350901
560.418	0.46508772
560.621	0.46650108
560.824	0.46805428
561.026	0.4695134
561.229	0.47092559
561.432	0.47240831
561.634	0.47381947
561.837	0.47513579
562.04	0.47652285
562.242	0.47790708
562.445	0.47919645
562.647	0.48059762
562.85	0.48184361
563.053	0.48316041
563.255	0.48452841
563.458	0.4858765
563.66	0.48717426
563.863	0.48865344
564.065	0.48995188
564.268	0.49133308
564.47	0.49278219
564.672	0.49417945
564.875	0.4955789
565.077	0.49702008
565.28	0.49833911
565.482	0.49986268
565.684	0.50132735
565.887	0.50263216
566.089	0.50399776
566.291	0.50536795
566.494	0.50671839
566.696	0.50811108
566.898	0.50946441
567.1	0.51084333
567.303	0.51229718
567.505	0.51367977
567.707	0.51490333
567.909	0.51616123
568.111	0.51744112
568.314	0.51874368
568.516	0.52005049
568.718	0.52126271
568.92	0.52262319
569.122	0.52400729
569.324	0.52539124
569.526	0.52663299
569.728	0.52801113
569.93	0.52929703
570.132	0.53066686
570.334	0.53196878
570.536	0.53324918
570.738	0.53453746
570.94	0.53586694
571.142	0.53720319
571.344	0.53848261
571.546	0.53971824
571.748	0.54102371
571.95	0.54225274
572.152	0.54358781
572.354	0.54495803
572.555	0.54629184
572.757	0.54776837
572.959	0.549082
573.161	0.55020958
573.363	0.55160252
573.564	0.55296502
573.766	0.55408854
573.968	0.55517926
574.17	0.55606842
574.371	0.55731169
574.573	0.55857861
574.775	0.55974304
574.976	0.56088948
575.178	0.56208685
575.38	0.56325195
575.581	0.56456778
575.783	0.56575448
575.985	0.56694267
576.186	0.56816876
576.388	0.56930026
576.589	0.57047879
576.791	0.57178043
576.992	0.57297316
577.194	0.5742006
577.395	0.57534456
577.597	0.57652327
577.798	0.57768612
578	0.57885915
578.201	0.58002627
578.402	0.58118758
578.604	0.58212667
578.805	0.58326085
579.007	0.58435769
579.208	0.58549939
579.409	0.58657959
579.611	0.5875284
579.812	0.58869674
580.013	0.58996981
580.215	0.59098842
580.416	0.59214223
580.617	0.59323373
580.818	0.59447302
581.019	0.5956093
581.221	0.59672461
581.422	0.59773708
581.623	0.59895722
581.824	0.59984909
582.025	0.60087572
582.226	0.60186456
582.428	0.60294199
582.629	0.60384893
582.83	0.60489525
583.031	0.60580535
583.232	0.60699139
583.433	0.60814152
583.634	0.60909758
583.835	0.61011359
584.036	0.61110261
584.237	0.61200087
584.438	0.61304965
584.639	0.61387444
584.84	0.61472324
585.041	0.61555319
585.242	0.61633411
585.442	0.61723296
585.643	0.61823674
585.844	0.61904403
586.045	0.62005995
586.246	0.62078688
586.447	0.62165543
586.647	0.62249712
586.848	0.62333261
587.049	0.62411633
587.25	0.62493664
587.45	0.62569773
587.651	0.6267447
587.852	0.62774801
588.053	0.62881201
588.253	0.62962501
588.454	0.63056593
588.655	0.63144055
588.855	0.63219529
589.056	0.63294877
589.256	0.63373778
589.457	0.63443049
589.658	0.63534149
589.858	0.63610798
590.059	0.63706645
590.259	0.63804091
590.46	0.63884398
590.66	0.63960581
590.861	0.64035148
591.061	0.641032
591.262	0.6417658
591.462	0.64236529
591.662	0.64288007
591.863	0.64333693
592.063	0.64409876
592.264	0.64476707
592.464	0.64555356
592.664	0.64624777
592.865	0.6470577
593.065	0.64779118
593.265	0.64874172
593.465	0.64936964
593.666	0.65006946
593.866	0.65068351
594.066	0.6513058
594.266	0.6518111
594.467	0.65225052
594.667	0.65267419
594.867	0.65311265
595.067	0.65349681
595.267	0.65396148
595.467	0.65446897
595.668	0.65491914
595.868	0.65561614
596.068	0.65621326
596.268	0.656791
596.468	0.65748396
596.668	0.65825332
596.868	0.65879661
597.068	0.65957509
597.268	0.66020012
597.468	0.66072716
597.668	0.66128536
597.868	0.66171779
598.068	0.6620241
598.268	0.6625058
598.467	0.66281651
598.667	0.66316225
598.867	0.66359956
599.067	0.66408822
599.267	0.66451274
599.467	0.66494361
599.667	0.66523767
599.866	0.66564304
600.066	0.66604818
600.266	0.66635283
600.466	0.66659307
600.665	0.66689344
600.865	0.66714748
601.065	0.66766545
601.264	0.66797739
601.464	0.66835461
601.664	0.66881509
601.863	0.66922683
602.063	0.66963314
602.263	0.66984037
602.462	0.67016788
602.662	0.6705213
602.861	0.67066627
603.061	0.67092015
603.26	0.67126277
603.46	0.67152661
603.659	0.67198512
603.859	0.67220464
604.058	0.67240453
604.258	0.67284385
604.457	0.6732318
604.657	0.67339228
604.856	0.67348092
605.056	0.67367141
605.255	0.6736852
605.454	0.67387637
605.654	0.6739674
605.853	0.67401037
606.052	0.67404116
606.252	0.67434217
606.451	0.67458313
606.65	0.67491242
606.849	0.67490701
607.049	0.67494254
607.248	0.67493892
607.447	0.67510896
607.646	0.6752156
607.845	0.67525778
608.045	0.67520506
608.244	0.6754194
608.443	0.67550485
608.642	0.6756552
608.841	0.67565658
609.04	0.67562327
609.239	0.67567211
609.438	0.67580107
609.637	0.67587088
609.836	0.67592619
610.035	0.67585468
610.234	0.67595661
610.433	0.67595961
610.632	0.67588027
610.831	0.67582713
611.03	0.67571789
611.229	0.67576844
611.428	0.67582672
611.627	0.67577249
611.826	0.67565591
612.025	0.67572051
612.224	0.67553429
612.422	0.67534355
612.621	0.6750867
612.82	0.67489358
613.019	0.67472767
613.218	0.67470129
613.416	0.67441056
613.615	0.67444456
613.814	0.67440649
614.012	0.67434581
614.211	0.67407224
614.41	0.67391148
614.608	0.67375149
614.807	0.67356634
615.006	0.67334194
615.204	0.67305508
615.403	0.67297256
615.602	0.67294002
615.8	0.67277917
615.999	0.67232373
616.197	0.6720517
616.396	0.6717239
616.594	0.67140205
616.793	0.67102243
616.991	0.67060853
617.19	0.67023943
617.388	0.67020183
617.586	0.66993692
617.785	0.66965112
617.983	0.66953065
618.182	0.6692199
618.38	0.66890172
618.578	0.66862772
618.777	0.66828763
618.975	0.66806136
619.173	0.66767629
619.372	0.66730613
619.57	0.66680899
619.768	0.66657042
619.966	0.66604282
620.165	0.66549186
620.363	0.66506706
620.561	0.66461145
620.759	0.66408283
620.957	0.66377551
621.155	0.66327358
621.354	0.66288224
621.552	0.66255394
621.75	0.6619229
621.948	0.66167245
622.146	0.66121483
622.344	0.66066251
622.542	0.66024678
622.74	0.65970403
622.938	0.65911971
623.136	0.6587587
623.334	0.65825937
623.532	0.65770531
623.73	0.65729303
623.928	0.65683951
624.126	0.65652854
624.324	0.65618583
624.522	0.6555677
624.719	0.65478174
624.917	0.65436468
625.115	0.65374927
625.313	0.65327125
625.511	0.65276069
625.708	0.65203908
625.906	0.65142528
626.104	0.65097258
626.302	0.65040195
626.499	0.64988231
626.697	0.64912416
626.895	0.6483421
627.093	0.64778823
627.29	0.64728988
627.488	0.64657483
627.686	0.64590661
627.883	0.64508113
628.081	0.64426249
628.278	0.64372569
628.476	0.64300181
628.673	0.64235238
628.871	0.64185697
629.068	0.64116229
629.266	0.64054947
629.463	0.63997484
629.661	0.63921425
629.858	0.6384233
630.056	0.63758684
630.253	0.63681511
630.451	0.63607615
630.648	0.63524668
630.845	0.63450635
631.043	0.63382054
631.24	0.63331979
631.438	0.63262949
631.635	0.63182196
631.832	0.63100588
632.029	0.6304358
632.227	0.62957417
632.424	0.6286931
632.621	0.62765827
632.818	0.62684625
633.016	0.6260529
633.213	0.62522322
633.41	0.62433811
633.607	0.62353603
633.804	0.62277119
634.001	0.62196176
634.199	0.62104159
634.396	0.62014276
634.593	0.61924181
634.79	0.61851289
634.987	0.61764159
635.184	0.61675825
635.381	0.6160259
635.578	0.61526579
635.775	0.61438826
635.972	0.61357841
636.169	0.61249774
636.366	0.61166704
636.563	0.61073853
636.76	0.60969108
636.957	0.60876375
637.153	0.60779485
637.35	0.6070669
637.547	0.60629322
637.744	0.60530714
637.941	0.60451602
638.138	0.60362354
638.334	0.60273349
638.531	0.60195188
638.728	0.60089339
638.925	0.59998964
639.121	0.59916807
639.318	0.59808303
639.515	0.59707707
639.711	0.59612805
639.908	0.59492172
640.105	0.59386928
640.301	0.59272475
640.498	0.59161174
640.695	0.59068785
640.891	0.58970814
641.088	0.58868714
641.284	0.58774605
641.481	0.5868242
641.677	0.5858085
641.874	0.58478612
642.07	0.58376383
642.267	0.58290302
642.463	0.58185437
642.66	0.58099123
642.856	0.57987516
643.053	0.57885813
643.249	0.57792147
643.445	0.5768145
643.642	0.57565791
643.838	0.57466038
644.034	0.57353755
644.231	0.57237878
644.427	0.57129213
644.623	0.57006051
644.82	0.56900757
645.016	0.56783794
645.212	0.56661217
645.408	0.5654872
645.604	0.56465362
645.801	0.56363096
645.997	0.56253352
646.193	0.56144298
646.389	0.5605278
646.585	0.5595872
646.781	0.55861751
646.977	0.55762208
647.173	0.55652754
647.37	0.55555265
647.566	0.55446707
647.762	0.55334217
647.958	0.55234707
648.154	0.55105589
648.35	0.5497341
648.546	0.54844306
648.742	0.54730641
648.937	0.54597301
649.133	0.54472065
649.329	0.54341009
649.525	0.54223798
649.721	0.54098408
649.917	0.53986911
650.113	0.5385083
650.309	0.53746367
650.504	0.53619096
650.7	0.53487507
650.896	0.53366178
651.092	0.5324821
651.287	0.53131034
651.483	0.53028104
651.679	0.52919202
651.875	0.52818516
652.07	0.52712183
652.266	0.52608662
652.462	0.52506703
652.657	0.5239434
652.853	0.52271883
653.048	0.52146098
653.244	0.52013447
653.44	0.51896741
653.635	0.51754583
653.831	0.51628385
654.026	0.51517426
654.222	0.51390957
654.417	0.51272057
654.613	0.51146807
654.808	0.51001661
655.004	0.50877858
655.199	0.50733285
655.394	0.50596647
655.59	0.50474431
655.785	0.50329939
655.98	0.50206236
656.176	0.50081039
656.371	0.49976943
656.566	0.49867322
656.762	0.49735627
656.957	0.49608815
657.152	0.49500985
657.348	0.493845
657.543	0.49276427
657.738	0.49143941
657.933	0.49016061
658.128	0.4888571
658.324	0.48755228
658.519	0.48622475
658.714	0.4849089
658.909	0.48351346
659.104	0.48230596
659.299	0.48100875
659.494	0.47975098
659.689	0.47856222
659.884	0.47723369
660.079	0.47591652
660.274	0.474613
660.469	0.47322345
660.664	0.47200975
660.859	0.47080346
661.054	0.46953654
661.249	0.46839167
661.444	0.46715954
661.639	0.46591436
661.834	0.46468788
662.029	0.46339641
662.224	0.46207816
662.418	0.46068627
662.613	0.45935929
662.808	0.45794774
663.003	0.45666857
663.198	0.45525737
663.392	0.45382775
663.587	0.45267719
663.782	0.4513736
663.977	0.45000498
664.171	0.44881653
664.366	0.44745345
664.561	0.44616744
664.755	0.4448987
664.95	0.44359549
665.144	0.44236105
665.339	0.44123592
665.534	0.44005625
665.728	0.43894066
665.923	0.4377126
666.117	0.43645493
666.312	0.43505295
666.506	0.43376043
666.701	0.43239017
666.895	0.43100809
667.09	0.42958548
667.284	0.42841537
667.479	0.42712548
667.673	0.42587325
667.867	0.42460828
668.062	0.42327637
668.256	0.42200831
668.45	0.42088704
668.645	0.4195291
668.839	0.41827773
669.033	0.41694894
669.228	0.41562925
669.422	0.41436407
669.616	0.41300708
669.81	0.41169071
670.004	0.41048392
670.199	0.40935706
670.393	0.40826075
670.587	0.40702495
670.781	0.40575205
670.975	0.40452046
671.169	0.40308318
671.363	0.40156367
671.558	0.40013876
671.752	0.3987531
671.946	0.3975519
672.14	0.3963133
672.334	0.39492814
672.528	0.39375766
672.722	0.39244159
672.916	0.39118617
673.11	0.38978009
673.304	0.38847929
673.497	0.38702916
673.691	0.38582498
673.885	0.38445788
674.079	0.38322024
674.273	0.38181618
674.467	0.38052821
674.661	0.37908175
674.854	0.37782718
675.048	0.3765559
675.242	0.37536758
675.436	0.37420567
675.629	0.37296939
675.823	0.37168436
676.017	0.37054746
676.211	0.36929491
676.404	0.36798597
676.598	0.36669798
676.792	0.3654779
676.985	0.36426468
677.179	0.36297296
677.372	0.36152777
677.566	0.36012541
677.76	0.35871925
677.953	0.35718816
678.147	0.3558041
678.34	0.35451611
678.534	0.35326164
678.727	0.35216179
678.921	0.35112824
679.114	0.35005837
679.307	0.34905327
679.501	0.34788718
679.694	0.34673632
679.888	0.34559652
680.081	0.3444197
680.274	0.34314558
680.468	0.34196945
680.661	0.34074582
680.854	0.33957263
681.048	0.33826537
681.241	0.3369175
681.434	0.33564006
681.627	0.33434097
681.821	0.33301501
682.014	0.33182254
682.207	0.33048324
682.4	0.32921883
682.593	0.32808368
682.786	0.32685323
682.98	0.3256085
683.173	0.32438902
683.366	0.3231252
683.559	0.32192758
683.752	0.32071996
683.945	0.31950151
684.138	0.31832243
684.331	0.31712247
684.524	0.31591322
684.717	0.31461144
684.91	0.31345689
685.103	0.31229509
685.296	0.3110525
685.489	0.30981059
685.682	0.30855469
685.874	0.30737448
686.067	0.30615024
686.26	0.30489481
686.453	0.30364812
686.646	0.30238596
686.839	0.30126421
687.031	0.30015536
687.224	0.29898353
687.417	0.2981205
687.61	0.29700633
687.802	0.2959075
687.995	0.29485244
688.188	0.29375129
688.38	0.29260528
688.573	0.29154304
688.766	0.29031714
688.958	0.28911962
689.151	0.28792676
689.343	0.28683776
689.536	0.28562032
689.729	0.2844856
689.921	0.28327426
690.114	0.28196486
690.306	0.28080109
690.499	0.27969759
690.691	0.278408
690.884	0.27721665
691.076	0.27602941
691.268	0.27477569
691.461	0.27357335
691.653	0.27249139
691.846	0.27135725
692.038	0.27036242
692.23	0.26924037
692.423	0.26818415
692.615	0.26720126
692.807	0.26623159
692.999	0.26520341
693.192	0.26408491
693.384	0.26302481
693.576	0.26201003
693.768	0.26104079
693.961	0.25996437
694.153	0.25889062
694.345	0.25780791
694.537	0.25679606
694.729	0.25581444
694.921	0.25476844
695.113	0.25366307
695.305	0.25262438
695.498	0.25156993
695.69	0.25048501
695.882	0.24936274
696.074	0.24815878
696.266	0.24701334
696.458	0.24582663
696.65	0.24476774
696.842	0.24381865
697.033	0.24287399
697.225	0.24189015
697.417	0.24097665
697.609	0.23992953
697.801	0.23894219
697.993	0.23782645
698.185	0.23658514
698.376	0.23535277
698.568	0.23422359
698.76	0.23309719
698.952	0.23204522
699.144	0.23100157
699.335	0.230074
699.527	0.22916237
699.719	0.22819813
699.91	0.22722158
700.102	0.22614481
700.294	0.22519042
700.485	0.22422967
700.677	0.22315995
700.869	0.22225514
701.06	0.22137522
701.252	0.22046388
701.443	0.21960786
701.635	0.21869055
701.826	0.21774561
702.018	0.21684892
702.209	0.21597285
702.401	0.21506558
702.592	0.21421514
702.784	0.2133368
702.975	0.2124363
703.166	0.21157298
703.358	0.21058623
703.549	0.20958688
703.741	0.20858883
703.932	0.20751376
704.123	0.20655111
704.315	0.20559401
704.506	0.2046372
704.697	0.20366242
704.888	0.2026829
705.08	0.20173474
705.271	0.20092583
705.462	0.1999402
705.653	0.19896875
705.844	0.19798445
706.035	0.19707794
706.227	0.19607419
706.418	0.1950709
706.609	0.19402888
706.8	0.19313276
706.991	0.19220048
707.182	0.19141922
707.373	0.1906552
707.564	0.18994671
707.755	0.18920419
707.946	0.18845448
708.137	0.18764583
708.328	0.18681429
708.519	0.18587299
708.71	0.18489902
708.901	0.18384118
709.092	0.18293366
709.283	0.18195728
709.473	0.18103388
709.664	0.18020335
709.855	0.17929809
710.046	0.17849589
710.237	0.17768878
710.427	0.17674353
710.618	0.17589949
710.809	0.17498471
711	0.17409422
711.19	0.17319425
711.381	0.17229536
711.572	0.17137505
711.762	0.17055384
711.953	0.16972016
712.144	0.16880339
712.334	0.16790553
712.525	0.16710907
712.715	0.16628409
712.906	0.16548673
713.097	0.16468945
713.287	0.16387794
713.478	0.16315034
713.668	0.16246658
713.859	0.16183714
714.049	0.16118247
714.239	0.16059233
714.43	0.15989195
714.62	0.15917148
714.811	0.15844872
715.001	0.15768798
715.191	0.15689274
715.382	0.15610602
715.572	0.15545229
715.762	0.15484939
715.953	0.15427417
716.143	0.15373312
716.333	0.15308763
716.523	0.15245535
716.714	0.15175269
716.904	0.15087919
717.094	0.15014053
717.284	0.14932688
717.474	0.14847246
717.664	0.14774884
717.855	0.14699328
718.045	0.1463447
718.235	0.14575719
718.425	0.14515493
718.615	0.1445678
718.805	0.14396328
718.995	0.14336386
719.185	0.14274718
719.375	0.14207889
719.565	0.14138922
719.755	0.14056338
719.945	0.13982623
720.135	0.13911275
720.325	0.13831826
720.515	0.13761668
720.704	0.13692344
720.894	0.13622595
721.084	0.1355736
721.274	0.13489406
721.464	0.13421941
721.654	0.13363157
721.843	0.13291775
722.033	0.13232266
722.223	0.13172539
722.413	0.13117869
722.602	0.13061489
722.792	0.1299821
722.982	0.12935953
723.171	0.12878915
723.361	0.12813723
723.55	0.12749626
723.74	0.12680496
723.93	0.12617727
724.119	0.12559708
724.309	0.12499457
724.498	0.12440327
724.688	0.12382468
724.877	0.12320613
725.067	0.12256273
725.256	0.12192245
725.446	0.12138106
725.635	0.12082533
725.825	0.12025443
726.014	0.11968077
726.203	0.11910492
726.393	0.1184964
726.582	0.11786618
726.771	0.11722892
726.961	0.11663053
727.15	0.11606004
727.339	0.11547297
727.529	0.11493802
727.718	0.11438064
727.907	0.11379426
728.096	0.11316037
728.286	0.11249557
728.475	0.11184617
728.664	0.11113734
728.853	0.11048655
729.042	0.10990679
729.231	0.10939265
729.42	0.10885722
729.609	0.10822229
729.799	0.10750043
729.988	0.10689552
730.177	0.10623976
730.366	0.10553175
730.555	0.10480452
730.744	0.10416237
730.933	0.10362869
731.122	0.10310714
731.31	0.10257861
731.499	0.10202197
731.688	0.10151003
731.877	0.10098953
732.066	0.10048765
732.255	0.10004777
732.444	0.09961104
732.632	0.09915849
732.821	0.09875982
733.01	0.09834004
733.199	0.09798439
733.388	0.09754784
733.576	0.09701907
733.765	0.09649949
733.954	0.09589617
734.142	0.09530999
734.331	0.09471467
734.52	0.09404749
734.708	0.09341512
734.897	0.09288055
735.086	0.09233479
735.274	0.09183128
735.463	0.09137006
735.651	0.09096895
735.84	0.09061454
736.028	0.0901978
736.217	0.08972751
736.405	0.08928523
736.594	0.08888024
736.782	0.08841169
736.971	0.0879289
737.159	0.08744053
737.347	0.08696353
737.536	0.08644692
737.724	0.0859619
737.912	0.08548008
738.101	0.08502894
738.289	0.08451335
738.477	0.0840048
738.666	0.08348931
738.854	0.08300424
739.042	0.08248219
739.23	0.08202286
739.418	0.08155102
739.607	0.08113709
739.795	0.08074078
739.983	0.08044697
740.171	0.08009716
740.359	0.07980389
740.547	0.07942977
740.735	0.0790325
740.923	0.07864959
741.112	0.07823892
741.3	0.07775834
741.488	0.07741863
741.676	0.07701473
741.864	0.07664172
742.052	0.07628493
742.239	0.07585682
742.427	0.07544931
742.615	0.07493583
742.803	0.07441722
742.991	0.07397752
743.179	0.07355408
743.367	0.07310633
743.555	0.07271346
743.742	0.07231408
743.93	0.07208062
744.118	0.07177688
744.306	0.071467
744.494	0.07113642
744.681	0.07087945
744.869	0.07061447
745.057	0.07024891
745.244	0.06983967
745.432	0.06935835
745.62	0.06888317
745.807	0.06848819
745.995	0.06805685
746.182	0.06770468
746.37	0.06732932
746.558	0.06698307
746.745	0.06678563
746.933	0.06658916
747.12	0.06630971
747.308	0.06604108
747.495	0.06567574
747.683	0.06541793
747.87	0.06514017
748.057	0.06475709
748.245	0.06428449
748.432	0.06384125
748.62	0.06338865
748.807	0.06301767
748.994	0.06271462
749.182	0.06236976
749.369	0.06205916
749.556	0.06180435
749.743	0.06155571
749.931	0.06131317
750.118	0.0610577
750.305	0.0606719
750.492	0.06033002
750.68	0.06004239
750.867	0.05982081
751.054	0.05951919
751.241	0.05921624
751.428	0.05882694
751.615	0.05842727
751.802	0.0579715
751.989	0.05745907
752.176	0.05694499
752.363	0.05647595
752.55	0.05601684
752.737	0.05566681
752.924	0.05540645
753.111	0.05529297
753.298	0.05522198
753.485	0.0551352
753.672	0.05500831
753.859	0.05484032
754.046	0.05462136
754.233	0.05439948
754.42	0.05405699
754.606	0.05363212
754.793	0.05318294
754.98	0.05278713
755.167	0.05239583
755.353	0.05209446
755.54	0.05175351
755.727	0.05149399
755.914	0.05127159
756.1	0.05108195
756.287	0.05094367
756.474	0.05079967
756.66	0.05058031
756.847	0.05032193
757.033	0.05006253
757.22	0.04980839
757.407	0.04947581
757.593	0.04907893
757.78	0.04872987
757.966	0.04837402
758.153	0.04806878
758.339	0.04761937
758.526	0.04725525
758.712	0.04690441
758.898	0.04665819
759.085	0.04640722
759.271	0.04626326
759.458	0.04616497
759.644	0.04619469
759.83	0.04614118
760.017	0.04611043
760.203	0.0460596
760.389	0.04592321
760.576	0.04570503
760.762	0.04547278
760.948	0.04520283
761.134	0.04494073
761.32	0.04469174
761.507	0.04443088
761.693	0.04424933
761.879	0.0441006
762.065	0.04394566
762.251	0.04379184
762.437	0.04367087
762.623	0.0435417
762.809	0.04341796
762.995	0.04324452
763.181	0.04303442
763.367	0.04282659
763.553	0.04257346
763.739	0.04224154
763.925	0.0418903
764.111	0.04151165
764.297	0.04115084
764.483	0.04078644
764.669	0.04043791
764.855	0.04015937
765.041	0.03996531
765.227	0.03972145
765.412	0.03943027
765.598	0.03924844
765.784	0.03913338
765.97	0.03893111
766.156	0.03870914
766.341	0.03852085
766.527	0.03843622
766.713	0.03842043
766.898	0.03837916
767.084	0.03818213
767.27	0.03801297
767.455	0.0377656
767.641	0.03750239
767.827	0.03717795
768.012	0.03689476
768.198	0.03651916
768.383	0.03627061
768.569	0.0360611
768.754	0.03596405
768.94	0.03586638
769.125	0.03577203
769.311	0.03564046
769.496	0.03557956
769.682	0.03547974
769.867	0.03535729
770.052	0.0351997
770.238	0.03498646
770.423	0.03487544
770.608	0.03470944
770.794	0.03451191
770.979	0.03435228
771.164	0.03427233
771.35	0.03401971
771.535	0.03386891
771.72	0.03361562
771.905	0.0334216
772.09	0.03313923
772.276	0.03284156
772.461	0.03247312
772.646	0.03226096
772.831	0.03202877
773.016	0.0318614
773.201	0.03166753
773.386	0.03154098
773.571	0.03143993
773.756	0.03142614
773.941	0.03144821
774.126	0.03144991
774.311	0.03141867
774.496	0.03139423
774.681	0.03138277
774.866	0.03140284
775.051	0.03136089
775.236	0.0312594
775.421	0.03115687
775.606	0.03103249
775.791	0.03083424
775.976	0.03061712
776.16	0.03036197
776.345	0.0300961
776.53	0.0298964
776.715	0.02971853
776.899	0.02951364
777.084	0.02933104
777.269	0.02931421
777.454	0.02918801
777.638	0.02916365
777.823	0.02910689
778.008	0.02903072
778.192	0.02906627
778.377	0.02906757
778.561	0.0289417
778.746	0.02889618
778.931	0.02871553
779.115	0.02856124
779.3	0.02834023
779.484	0.02811614
779.669	0.02795294
779.853	0.0277645
780.037	0.02758672
780.222	0.02744384
780.406	0.02722506
780.591	0.02705609
780.775	0.02683191
780.959	0.02668958
781.144	0.02656478
781.328	0.02642996
781.512	0.0263374
781.697	0.02631164
781.881	0.02637932
782.065	0.02641212
782.249	0.02636355
782.434	0.02630455
782.618	0.02627479
782.802	0.02624487
782.986	0.02619272
783.17	0.026025
783.354	0.02587366
783.539	0.02585047
783.723	0.02579899
783.907	0.02568574
784.091	0.02552555
784.275	0.02533328
784.459	0.02518122
784.643	0.02502685
784.827	0.02485034
785.011	0.0246058
785.195	0.02438582
785.379	0.02419983
785.563	0.02408237
785.747	0.02389731
785.93	0.02366864
786.114	0.023355
786.298	0.02307283
786.482	0.0228596
786.666	0.02269366
786.85	0.02254502
787.033	0.02249748
787.217	0.02246643
787.401	0.02243198
787.585	0.02245311
787.768	0.02239872
787.952	0.02230918
788.136	0.02216391
788.319	0.02194898
788.503	0.02181893
788.687	0.02170553
788.87	0.02158703
789.054	0.02150767
789.237	0.02137433
789.421	0.02126711
789.605	0.02119926
789.788	0.02105002
789.972	0.02085405
790.155	0.02066898
790.338	0.02044565
790.522	0.0202913
790.705	0.02017971
790.889	0.02015065
791.072	0.02014056
791.256	0.02020116
791.439	0.02021904
791.622	0.02032299
791.806	0.02040089
791.989	0.02046101
792.172	0.02035572
792.355	0.02018535
792.539	0.01995524
792.722	0.01976877
792.905	0.01952938
793.088	0.0193173
793.271	0.01906645
793.455	0.01893676
793.638	0.01883344
793.821	0.01870168
794.004	0.01853139
794.187	0.01841382
794.37	0.01831569
794.553	0.01818826
794.736	0.01801993
794.919	0.01798588
795.102	0.01792443
795.285	0.01800733
795.468	0.01800893
795.651	0.01793803
795.834	0.01789352
796.017	0.01780721
796.2	0.01767682
796.383	0.01763418
796.566	0.01749661
796.749	0.0173569
796.931	0.01721485
797.114	0.01705646
797.297	0.01700198
797.48	0.01692645
797.663	0.01681093
797.845	0.01673057
798.028	0.0167521
798.211	0.01677976
798.393	0.01688232
798.576	0.01689124
798.759	0.01691606
798.941	0.01705498
799.124	0.01711049
799.307	0.01708806
799.489	0.01706673
799.672	0.01695275
799.854	0.01682433
800.037	0.0167292
800.219	0.0165839
800.402	0.01638448
800.584	0.0162079
800.767	0.01606484
800.949	0.01592102
801.132	0.01586106
801.314	0.01573606
801.496	0.01563936
801.679	0.0156401
801.861	0.01562857
802.043	0.01561039
802.226	0.01559932
802.408	0.01545707
802.59	0.01536699
802.772	0.01520339
802.955	0.01515231
803.137	0.01506341
803.319	0.01489882
803.501	0.01478487
803.684	0.01471843
803.866	0.01456945
804.048	0.01448759
804.23	0.01436223
804.412	0.01431873
804.594	0.01437204
804.776	0.01449852
804.958	0.01464675
805.14	0.01478334
805.322	0.01481495
805.504	0.01476093
805.686	0.01462605
805.868	0.01449038
806.05	0.01434927
806.232	0.01419626
806.414	0.01414604
806.596	0.0141939
806.778	0.01425561
806.96	0.01438492
807.141	0.01444975
807.323	0.01438251
807.505	0.01427968
807.687	0.01414111
807.869	0.01397561
808.05	0.01372325
808.232	0.01346476
808.414	0.01326492
808.595	0.01317792
808.777	0.0130991
808.959	0.0130908
809.14	0.01302991
809.322	0.01313288
809.504	0.01327989
809.685	0.01338601
809.867	0.01347464
810.048	0.01355214
810.23	0.01351551
810.411	0.01357304
810.593	0.01355878
810.774	0.01348043
810.956	0.01332142
811.137	0.01309532
811.319	0.01291708
811.5	0.01278893
811.681	0.01262776
811.863	0.01250925
812.044	0.01249772
812.225	0.01266182
812.407	0.01277896
812.588	0.01288208
812.769	0.01294116
812.951	0.01302741
813.132	0.01307341
813.313	0.01293529
813.494	0.01279358
813.675	0.01275396
813.857	0.01271422
814.038	0.01273053
814.219	0.01274328
814.4	0.01278029
814.581	0.01288533
814.762	0.01291949
814.943	0.01286324
815.124	0.0128171
815.305	0.01277048
815.486	0.01266124
815.667	0.01252122
815.848	0.01246962
816.029	0.01241337
816.21	0.01245735
816.391	0.01244806
816.572	0.0123873
816.753	0.01235705
816.934	0.0122977
817.115	0.0120842
817.295	0.01194238
817.476	0.01181838
817.657	0.01183485
817.838	0.01186318
818.019	0.01183473
818.199	0.01183969
818.38	0.01185664
818.561	0.01181652
818.741	0.01173578
818.922	0.01165295
819.103	0.01158957
819.283	0.01151227
819.464	0.01147801
819.645	0.01154758
819.825	0.01152025
820.006	0.01150612
820.186	0.01139835
820.367	0.01137797
820.547	0.01126338
820.728	0.01109305
820.908	0.01090405
821.089	0.01082046
821.269	0.01081478
821.45	0.01091795
821.63	0.01090004
821.81	0.01105689
821.991	0.01119356
822.171	0.01131403
822.351	0.01136147
822.532	0.01137142
822.712	0.01132025
822.892	0.01127043
823.072	0.0111669
823.253	0.0110685
823.433	0.0109671
823.613	0.0109164
823.793	0.01078071
823.973	0.01064161
824.154	0.0105682
824.334	0.01045495
824.514	0.01037295
824.694	0.01035483
824.874	0.01048511
825.054	0.01057096
825.234	0.01062128
825.414	0.0106142
825.594	0.01068063
825.774	0.0107024
825.954	0.01072674
826.134	0.01066425
826.314	0.01067045
826.494	0.01067762
826.674	0.01063363
826.854	0.01047554
827.033	0.01039962
827.213	0.01010791
827.393	0.00980478
827.573	0.00947294
827.753	0.00923337
827.932	0.00904154
828.112	0.00896101
828.292	0.00891252
828.472	0.00888101
828.651	0.00874787
828.831	0.00870182
829.011	0.00859472
829.19	0.00851892
829.37	0.00858102
829.549	0.00858099
829.729	0.008741
829.909	0.00901756
830.088	0.00924719
830.268	0.00944276
830.447	0.00961309
830.627	0.00962248
830.806	0.00961696
830.986	0.00956769
831.165	0.00950599
831.344	0.00950145
831.524	0.00947436
831.703	0.00948134
831.883	0.0095091
832.062	0.00949618
832.241	0.00947035
832.421	0.00933523
832.6	0.00922883
832.779	0.00916781
832.958	0.00913441
833.138	0.0091431
833.317	0.00919545
833.496	0.00929335
833.675	0.00936305
833.854	0.00927668
834.034	0.00918881
834.213	0.00901801
834.392	0.0087856
834.571	0.00851719
834.75	0.0082361
834.929	0.00805742
835.108	0.00787564
835.287	0.00777191
835.466	0.00765897
835.645	0.00763545
835.824	0.00770087
836.003	0.00778575
836.182	0.00774441
836.361	0.00766522
836.54	0.00758927
836.719	0.0075869
836.897	0.00746093
837.076	0.00724845
837.255	0.00699276
837.434	0.00684645
837.613	0.00680807
837.791	0.00678369
837.97	0.00684003
838.149	0.00686991
838.328	0.00697189
838.506	0.00706649
838.685	0.00714229
838.864	0.00723378
839.042	0.00725996
839.221	0.00722364
839.4	0.00728508
839.578	0.00740274
839.757	0.00749164
839.935	0.00767868
840.114	0.00779958
840.292	0.00799043
840.471	0.00810897
840.649	0.00823041
840.828	0.00822142
841.006	0.00823609
841.185	0.00815337
841.363	0.00812009
841.541	0.00800124
841.72	0.00789502
841.898	0.00764234
842.076	0.00749886
842.255	0.00737319
842.433	0.00739757
842.611	0.00741163
842.789	0.00735162
842.968	0.00728474
843.146	0.0073027
843.324	0.00725641
843.502	0.00727113
843.68	0.00709226
843.859	0.00693047
844.037	0.00684314
844.215	0.00668408
844.393	0.00660262
844.571	0.00655861
844.749	0.00641926
844.927	0.00641857
845.105	0.00633876
845.283	0.00630865
845.461	0.0063726
845.639	0.00638155
845.817	0.00642143
845.995	0.00652374
846.173	0.00657223
846.351	0.00665093
846.529	0.00668851
846.706	0.00664081
846.884	0.00652926
847.062	0.0063137
847.24	0.0061085
847.418	0.00588287
847.595	0.00572136
847.773	0.00554215
847.951	0.00543538
848.129	0.00546712
848.306	0.00553811
848.484	0.00556126
848.662	0.00565543
848.839	0.00574901
849.017	0.00595628
849.194	0.00624369
849.372	0.00642639
849.549	0.00661138
849.727	0.00675591
849.905	0.0068325
850.082	0.00689334
850.26	0.00687634
850.437	0.00679005
850.614	0.00674819
850.792	0.00671183
850.969	0.00666458
851.147	0.00670341
851.324	0.00658315
851.501	0.00643987
851.679	0.00630685
851.856	0.00623623
852.033	0.0060939
852.211	0.00599472
852.388	0.00584416
852.565	0.00590141
852.742	0.00594629
852.92	0.00596429
853.097	0.00601393
853.274	0.00605755
853.451	0.00607114
853.628	0.0060969
853.805	0.00609703
853.982	0.00603213
854.159	0.00588654
854.336	0.00569882
854.514	0.00564153
854.691	0.00558145
854.868	0.00546781
855.045	0.00542917
855.221	0.00541407
855.398	0.00549796
855.575	0.00553068
855.752	0.00548854
855.929	0.00552249
856.106	0.00560842
856.283	0.00559917
856.46	0.0055181
856.637	0.00556873
856.813	0.00559427
856.99	0.00561387
857.167	0.00559478
857.344	0.00559605
857.52	0.00557417
857.697	0.00557726
857.874	0.00543808
858.05	0.00542062
858.227	0.0054916
858.404	0.00553094
858.58	0.00559128
858.757	0.00556813
858.933	0.00563135
859.11	0.00559278
859.287	0.00541898
859.463	0.00523663
859.64	0.00510812
859.816	0.00494507
859.993	0.00492085
860.169	0.00492456
860.345	0.00497739
860.522	0.00498731
860.698	0.00487695
860.875	0.00480217
861.051	0.00463776
861.227	0.00448132
861.404	0.00441248
861.58	0.00439459
861.756	0.00443243
861.932	0.00463934
862.109	0.00469363
862.285	0.00486925
862.461	0.00506205
862.637	0.00519397
862.813	0.00526048
862.99	0.00535276
863.166	0.00519364
863.342	0.00519858
863.518	0.00514915
863.694	0.00505364
863.87	0.00487515
864.046	0.00484574
864.222	0.00490185
864.398	0.00495726
864.574	0.00500948
864.75	0.00502342
864.926	0.0049632
865.102	0.00492971
865.278	0.0047109
865.454	0.00454827
865.63	0.00450732
865.805	0.00441788
865.981	0.00438406
866.157	0.00442685
866.333	0.00453626
866.509	0.00477536
866.684	0.00491
866.86	0.0051035
867.036	0.00533282
867.212	0.00554688
867.387	0.00561435
867.563	0.00567485
867.739	0.00567781
867.914	0.00573574
868.09	0.00564994
868.265	0.00553222
868.441	0.00531793
868.617	0.00522383
868.792	0.00506465
868.968	0.00497145
869.143	0.00497839
869.319	0.00513358
869.494	0.00532131
869.67	0.00551418
869.845	0.00574148
870.02	0.00599544
870.196	0.00632202
870.371	0.00635883
870.546	0.00630975
870.722	0.00630037
870.897	0.00639056
871.072	0.00640504
871.248	0.00635928
871.423	0.00617104
871.598	0.00595415
871.773	0.00579676
871.949	0.00552331
872.124	0.00530286
872.299	0.00514279
872.474	0.00503325
872.649	0.00483485
872.824	0.00482808
872.999	0.00471275
873.174	0.00467319
873.349	0.00461817
873.524	0.00445485
873.699	0.00430491
873.874	0.0043921
874.049	0.00441101
874.224	0.004514
874.399	0.00452834
874.574	0.00449223
874.749	0.00452631
874.924	0.00455308
875.099	0.00455137
875.274	0.00448196
875.449	0.00446952
875.623	0.00440833
875.798	0.00430539
875.973	0.00422013
876.148	0.00410139
876.322	0.00385463
876.497	0.00386172
876.672	0.00373048
876.846	0.00372482
877.021	0.0036423
877.196	0.00363231
877.37	0.00371036
877.545	0.00380444
877.72	0.00378578
877.894	0.0038437
878.069	0.00377985
878.243	0.00390633
878.418	0.00389055
878.592	0.00404395
878.767	0.00420894
878.941	0.00422145
879.116	0.00433082
879.29	0.0045701
879.464	0.00480621
879.639	0.00517856
879.813	0.00530802
879.987	0.00534665
880.162	0.00534051
880.336	0.00523893
880.51	0.00505624
880.685	0.00469216
880.859	0.00431914
881.033	0.00393711
881.207	0.00377082
881.381	0.00367696
881.556	0.00364679
881.73	0.00358813
881.904	0.00364938
882.078	0.00356128
882.252	0.00363322
882.426	0.0035794
882.6	0.00361684
882.774	0.00370091
882.948	0.0038466
883.122	0.00392486
883.296	0.00414481
883.47	0.00419061
883.644	0.00425797
883.818	0.0043923
883.992	0.00432471
884.166	0.00435957
884.34	0.00441179
884.514	0.00445447
884.687	0.00452654
884.861	0.00452499
885.035	0.0044929
885.209	0.00462901
885.382	0.00460619
885.556	0.00464688
885.73	0.00472817
885.904	0.00471787
886.077	0.00475931
886.251	0.00475064
886.425	0.0047555
886.598	0.00484089
886.772	0.00489721
886.945	0.00479422
887.119	0.00488591
887.292	0.00497231
887.466	0.00506892
887.64	0.00507011
887.813	0.00503943
887.986	0.00505174
888.16	0.00516253
888.333	0.00520307
888.507	0.00525841
888.68	0.00529639
888.854	0.00532195
889.027	0.00538663
889.2	0.00541957
889.374	0.00543597
889.547	0.0054922
889.72	0.00553626
889.893	0.00555405
890.067	0.00559156
890.24	0.00557264
890.413	0.00545516
890.586	0.00539191
890.759	0.00538201
890.933	0.00537364
891.106	0.00529758
891.279	0.00523437
891.452	0.00526658
891.625	0.0053047
891.798	0.00522371
891.971	0.0050315
892.144	0.00480687
892.317	0.00463897
892.49	0.00439642
892.663	0.00418405
892.836	0.00399073
893.009	0.00379942
893.182	0.00358844
893.355	0.00347668
893.527	0.00351655
893.7	0.00354829
893.873	0.00348125
894.046	0.00346132
894.219	0.00349313
894.391	0.00350131
894.564	0.00358623
894.737	0.0034535
894.91	0.00345694
895.082	0.00335211
895.255	0.00324011
895.428	0.003166
895.6	0.00329423
895.773	0.00315913
895.945	0.00321453
896.118	0.00317444
896.291	0.00322743
896.463	0.00329564
896.636	0.00348775
896.808	0.00356123
896.981	0.00378337
897.153	0.00393673
897.326	0.00414052
897.498	0.00426883
897.67	0.00438049
897.843	0.0043424
898.015	0.00421087
898.187	0.00401454
898.36	0.00387764
898.532	0.00376585
898.704	0.00370603
898.877	0.0036502
899.049	0.00361198
899.221	0.00357217
899.393	0.00362374
899.566	0.00353638
899.738	0.00356947
899.91	0.00359581
900.082	0.00378721
900.254	0.00390979
900.426	0.00407796
900.598	0.00418271
900.77	0.00437425
900.942	0.00434627
901.114	0.00427261
901.286	0.00396008
901.458	0.00383225
901.63	0.00366673
901.802	0.00366671
901.974	0.00360304
902.146	0.00360554
902.318	0.00382406
902.49	0.0039663
902.662	0.00407068
902.834	0.00421053
903.005	0.00415544
903.177	0.00405397
903.349	0.00393009
903.521	0.00366299
903.693	0.00362366
903.864	0.00357896
904.036	0.00354673
904.208	0.00355344
904.379	0.0036953
904.551	0.00383632
904.723	0.00373929
904.894	0.00358676
905.066	0.00338181
905.237	0.00304467
905.409	0.00271037
905.58	0.0023265
905.752	0.00210826
905.923	0.00213767
906.095	0.00217807
906.266	0.00222249
906.438	0.00232483
906.609	0.00255745
906.78	0.00264187
906.952	0.00264042
907.123	0.00268145
907.295	0.00262464
907.466	0.00252629
907.637	0.00243592
907.808	0.00232557
907.98	0.00228338
908.151	0.00218629
908.322	0.00202871
908.493	0.00197025
908.665	0.00191205
908.836	0.0019488
909.007	0.00183256
909.178	0.00189552
909.349	0.00193794
909.52	0.00208871
909.691	0.00224138
909.862	0.0024227
910.033	0.00269093
910.204	0.00304208
910.375	0.0032216
910.546	0.00340693
910.717	0.0034159
910.888	0.00358477
911.059	0.00372227
911.23	0.00366379
911.401	0.00369097
911.572	0.00381682
911.742	0.00390176
911.913	0.00410906
912.084	0.00415074
912.255	0.00418163
912.426	0.0043357
912.596	0.00425438
912.767	0.00418956
912.938	0.00417864
913.108	0.00418931
913.279	0.00415079
913.45	0.00410948
913.62	0.00406315
913.791	0.00410355
913.962	0.00414494
914.132	0.00420324
914.303	0.00410801
914.473	0.00407671
914.644	0.00401308
914.814	0.00387418
914.985	0.00377429
915.155	0.00359446
915.326	0.00344619
915.496	0.00345327
915.666	0.00338743
915.837	0.00329353
916.007	0.00326843
916.177	0.0031979
916.348	0.0031692
916.518	0.00314679
916.688	0.00298135
916.858	0.00295697
917.029	0.00296834
917.199	0.00291376
917.369	0.00304262
917.539	0.00320972
917.709	0.00329156
917.88	0.00343166
918.05	0.00352135
918.22	0.00365136
918.39	0.0038386
918.56	0.00373402
918.73	0.0037026
918.9	0.00379659
919.07	0.00382966
919.24	0.00389328
919.41	0.00403464
919.58	0.00412594
919.75	0.0043554
919.92	0.00447007
920.09	0.00444461
920.26	0.00460852
920.429	0.00463314
920.599	0.00444582
920.769	0.00430343
920.939	0.00414166
921.109	0.00396387
921.278	0.00387247
921.448	0.0036951
921.618	0.00360473
921.787	0.00356958
921.957	0.00361381
922.127	0.0036899
922.296	0.00381613
922.466	0.0038721
922.636	0.0038295
922.805	0.00379214
922.975	0.00377217
923.144	0.00360911
923.314	0.00342565
923.483	0.00315558
923.653	0.00283678
923.822	0.00262886
923.992	0.0023826
924.161	0.00224305
924.331	0.00206881
924.5	0.00193533
924.669	0.00189781
924.839	0.00185547
925.008	0.00191166
925.177	0.00190434
925.347	0.00190579
925.516	0.00206944
925.685	0.00221266
925.854	0.00239226
926.023	0.00277563
926.193	0.00300436
926.362	0.00329138
926.531	0.00347026
926.7	0.0036958
926.869	0.00393433
927.038	0.00396241
927.207	0.00397168
927.376	0.00406677
927.545	0.00412723
927.715	0.00427767
927.884	0.00431219
928.052	0.00424441
928.221	0.004275
928.39	0.00421131
928.559	0.00400719
928.728	0.00395351
928.897	0.00381074
929.066	0.00360098
929.235	0.00358564
929.404	0.00360399
929.572	0.00353772
929.741	0.00348854
929.91	0.00340642
930.079	0.00322303
930.247	0.00326281
930.416	0.00311138
930.585	0.00295571
930.753	0.00299559
930.922	0.00318601
931.091	0.00327214
931.259	0.00343806
931.428	0.00362249
931.596	0.00389474
931.765	0.00428122
931.934	0.0043899
932.102	0.00447961
932.27	0.00451633
932.439	0.00471791
932.607	0.00466922
932.776	0.00458182
932.944	0.00427909
933.113	0.00420853
933.281	0.00406068
933.449	0.00410183
933.618	0.00409225
933.786	0.00413794
933.954	0.00426559
934.123	0.00434017
934.291	0.00456617
934.459	0.00489467
934.627	0.00495876
934.795	0.00503321
934.964	0.00516796
935.132	0.00539213
935.3	0.00574043
935.468	0.00576783
935.636	0.00574377
935.804	0.00583315
935.972	0.00587379
936.14	0.00583422
936.308	0.00571495
936.476	0.00569291
936.644	0.0058742
936.812	0.00594277
936.98	0.00629503
937.148	0.00660061
937.316	0.00697148
937.484	0.00738782
937.652	0.00785254
937.82	0.00822158
937.987	0.00884322
938.155	0.00921204
938.323	0.00970106
938.491	0.00993846
938.658	0.01007625
938.826	0.01044225
938.994	0.01084769
939.162	0.01088454
939.329	0.01098047
939.497	0.01143058
939.665	0.01178699
939.832	0.01246793
940	0.01228828
940.167	0.01274881
940.335	0.01304416
940.502	0.0134223
940.67	0.01349108
940.837	0.01391358
941.005	0.01412182
941.172	0.01541861
941.34	0.01552166
941.507	0.01627345
941.674	0.01633986
941.842	0.01621821
942.009	0.01684936
942.177	0.01703375
942.344	0.01689095
942.511	0.01713078
942.678	0.01778697
942.846	0.01837475
943.013	0.01952355
943.18	0.0194897
943.347	0.01998267
943.514	0.02001407
943.682	0.02048982
943.849	0.02038596
944.016	0.02058929
944.183	0.02063053
944.35	0.02085613
944.517	0.02091793
944.684	0.0211346
944.851	0.02024598
945.018	0.02007946
945.185	0.019756
945.352	0.01890109
945.519	0.01869766
945.686	0.01804886
945.853	0.01744724
946.02	0.01804208
946.187	0.0172769
946.353	0.01717024
946.52	0.01685763
946.687	0.01632814
946.854	0.01617809
947.021	0.01652372
947.187	0.01622454
947.354	0.01589439
947.521	0.01613495
947.687	0.01650039
947.854	0.01643768
948.021	0.01603992
948.187	0.01584525
948.354	0.01520171
948.52	0.01539434
948.687	0.01511482
948.854	0.01456101
949.02	0.01437905
949.187	0.01444947
949.353	0.01382412
949.52	0.01361447
949.686	0.01335274
949.852	0.01321476
950.019	0.0129975
950.185	0.01258762
950.352	0.01233821
950.518	0.011978
950.684	0.01184132
950.851	0.01142299
951.017	0.01099535
951.183	0.01088264
951.349	0.0108801
951.516	0.01039706
951.682	0.01029533
951.848	0.00996639
952.014	0.00911455
952.18	0.00882996
952.346	0.00856591
952.512	0.00777311
952.679	0.00773807
952.845	0.00738915
953.011	0.00706167
953.177	0.00719237
953.343	0.00686245
953.509	0.00618265
953.675	0.00641196
953.841	0.00656827
954.007	0.00668339
954.172	0.00675231
954.338	0.00680944
954.504	0.00641451
954.67	0.00653859
954.836	0.0063184
955.002	0.00554027
955.167	0.00511397
955.333	0.00487752
955.499	0.0045383
955.665	0.00451758
955.83	0.00397983
955.996	0.00360558
956.162	0.00326813
956.327	0.00283479
956.493	0.00236357
956.659	0.00204389
956.824	0.00190626
956.99	0.00171822
957.155	0.00180771
957.321	0.00182075
957.486	0.00165052
957.652	0.00150651
957.817	0.00163183
957.983	0.00121814
958.148	0.00128957
958.314	0.00101383
958.479	0.000962
958.644	0.00099722
958.81	0.00110468
958.975	0.00055527
959.14	0.00075566
959.306	0.00070294
959.471	0.00073513
959.636	0.00083474
959.801	0.00104775
959.967	0.00124559
960.132	0.00169857
960.297	0.00186944
960.462	0.00205083
960.627	0.00215638
960.792	0.00197387
960.957	0.00207078
961.123	0.00191131
961.288	0.00173864
961.453	0.00158459
961.618	0.00142234
961.783	0.00136649
961.948	0.00157386
962.113	0.00132532
962.277	0.00132904
962.442	0.00151947
962.607	0.00161928
962.772	0.0017399
962.937	0.00144812
963.102	0.00113614
963.267	0.00100519
963.431	0.00095815
963.596	0.00063163
963.761	0.00051491
963.926	0.00059722
964.09	0.00082068
964.255	0.00086858
964.42	0.00089453
964.584	0.0007422
964.749	0.00082708
964.914	0.00078498
965.078	0.000473
965.243	0.00032808
965.407	0.00040854
965.572	0.00061004
965.736	0.00073439
965.901	0.00087154
966.065	0.00095963
966.23	0.00122201
966.394	0.00139561
966.559	0.00135367
966.723	0.00130045
966.887	0.00145818
967.052	0.00165306
967.216	0.0015527
967.38	0.00136198
967.545	0.00161577
967.709	0.00199487
967.873	0.00212931
968.037	0.00221284
968.202	0.00217649
968.366	0.00234615
968.53	0.00232283
968.694	0.00215915
968.858	0.00207892
969.022	0.00227671
969.187	0.00218269
969.351	0.00210812
969.515	0.00206884
969.679	0.00247201
969.843	0.00275616
970.007	0.00286407
970.171	0.00269125
970.335	0.00254988
970.499	0.00267321
970.662	0.00275782
970.826	0.00277505
970.99	0.00259376
971.154	0.00273306
971.318	0.00282259
971.482	0.00297535
971.645	0.00294574
971.809	0.00275352
971.973	0.00243396
972.137	0.00219703
972.3	0.00183782
972.464	0.00175675
972.628	0.00164479
972.791	0.00174292
972.955	0.00214773
973.119	0.00215329
973.282	0.00207695
973.446	0.00203046
973.609	0.00213191
973.773	0.00200401
973.936	0.00166123
974.1	0.00131186
974.263	0.00136669
974.427	0.00155086
974.59	0.00162071
974.754	0.00129144
974.917	0.00148401
975.08	0.00151837
975.244	0.00170865
975.407	0.00173579
975.57	0.00145048
975.734	0.00124847
975.897	0.00120601
976.06	0.00108408
976.223	0.00103915
976.387	0.00071385
976.55	0.00037814
976.713	0.00031851
976.876	0.00034801
977.039	0.00025298
977.202	0.00010175
977.365	0.00033336
977.528	0.0004008
977.692	0.00054762
977.855	0.0005499
978.018	0.0005635
978.181	0.00063767
978.344	0.00051107
978.506	0.0005902
978.669	0.00080922
978.832	0.00099122
978.995	0.00112169
979.158	0.00102702
979.321	0.00121122
979.484	0.00189475
979.646	0.00190201
979.809	0.00184614
979.972	0.00204952
980.135	0.00238352
980.297	0.00276532
980.46	0.00317668
980.623	0.00294248
980.786	0.00269987
980.948	0.00263565
981.111	0.0027674
981.273	0.00281557
981.436	0.00269781
981.599	0.00233223
981.761	0.00241345
981.924	0.00267536
982.086	0.0024933
982.249	0.00229402
982.411	0.002301
982.573	0.00220946
982.736	0.00213343
982.898	0.00198381
983.061	0.00196561
983.223	0.00202604
983.385	0.00183532
983.548	0.00186314
983.71	0.00195714
983.872	0.00226153
984.034	0.00245397
984.197	0.00236952
984.359	0.00263031
984.521	0.00288732
984.683	0.00263146
984.845	0.00283702
985.008	0.00277257
985.17	0.00259333
985.332	0.00264187
985.494	0.0027018
985.656	0.00249554
985.818	0.00248628
985.98	0.00233544
986.142	0.00196703
986.304	0.00168868
986.466	0.00154667
986.628	0.00122171
986.79	0.00150102
986.952	0.00166481
987.113	0.00161746
987.275	0.0021107
987.437	0.00216117
987.599	0.0021519
987.761	0.00231776
987.922	0.00216719
988.084	0.0023518
988.246	0.00244643
988.408	0.00214749
988.569	0.00242015
988.731	0.0025432
988.893	0.00238122
989.054	0.00221141
989.216	0.00194736
989.377	0.00199324
989.539	0.00202138
989.701	0.00217996
989.862	0.00225692
990.024	0.00247723
990.185	0.00255763
990.347	0.00279047
990.508	0.0029312
990.669	0.00291245
990.831	0.00287969
990.992	0.0029258
991.154	0.00291763
991.315	0.00320892
991.476	0.00294537
991.638	0.00318301
991.799	0.00338571
991.96	0.00326456
992.121	0.00356577
992.283	0.00402272
992.444	0.00398167
992.605	0.00425081
992.766	0.00390493
992.927	0.00396795
993.088	0.0041174
993.249	0.00390549
993.41	0.00343549
993.572	0.00351519
993.733	0.00363415
993.894	0.0038788
994.055	0.00360331
994.216	0.00361892
994.376	0.00365898
994.537	0.00381507
994.698	0.00350175
994.859	0.00310921
995.02	0.00250537
995.181	0.00237451
995.342	0.00203733
995.503	0.00156816
995.663	0.00084028
995.824	0.00061179
995.985	0.00089668
996.146	0.0011719
996.306	0.00120959
996.467	0.00141726
996.628	0.00149194
996.788	0.00244393
996.949	0.00287848
997.11	0.00289242
997.27	0.00265265
997.431	0.00234458
997.591	0.00216028
997.752	0.00259504
997.912	0.00221486
998.073	0.00202552
998.233	0.00197294
998.394	0.0023047
998.554	0.00289349
998.714	0.00379858
998.875	0.00329546
999.035	0.00323901
999.196	0.00338617
999.356	0.00345394
999.516	0.00317744
999.676	0.00320325
999.837	0.00188705
999.997	0.00214122
1000.157	0.00230935
1000.317	0.00191656
1000.477	0.00169166
1000.638	0.00135592
1000.798	0.00113226
1000.958	0.00198841
1001.118	0.00207366
1001.278	0.00178945
1001.438	0.0021021
1001.598	0.00225179
1001.758	0.00297516
1001.918	0.00274598
1002.078	0.00239503
1002.238	0.00254243
1002.398	0.0029544
1002.558	0.00306792
1002.718	0.0030235
1002.878	0.0029452
1003.037	0.0032474
1003.197	0.00345245
1003.357	0.00352476
1003.517	0.00411967
1003.677	0.00402181
1003.836	0.00413618
1003.996	0.00484707
1004.156	0.00502548
1004.315	0.00501186
1004.475	0.00451442
1004.635	0.00402119
1004.794	0.00407819
1004.954	0.00448347
1005.114	0.00372936
1005.273	0.00456338
1005.433	0.00462041
1005.592	0.00451216
1005.752	0.00453341
1005.911	0.00474039
1006.071	0.00442416
1006.23	0.00481976
1006.389	0.00434958
1006.549	0.00423681
1006.708	0.00479709
1006.868	0.00453198
1007.027	0.00458619
1007.186	0.00416661
1007.345	0.00398741
1007.505	0.00352726
1007.664	0.00397922
1007.823	0.00415787
1007.982	0.00397196
1008.142	0.00378677
1008.301	0.00440287
1008.46	0.00430127
1008.619	0.00462793
1008.778	0.00470693
1008.937	0.00482663
1009.096	0.00546732
1009.255	0.00617964
1009.414	0.0060874
1009.573	0.00615961
1009.732	0.00681682
1009.891	0.00671237
1010.05	0.00708187
1010.209	0.00715526
1010.368	0.00719596
1010.527	0.00802734
1010.686	0.00810167
1010.845	0.00793025
1011.003	0.00836328
1011.162	0.00816598
1011.321	0.00862796
1011.48	0.00882972
1011.638	0.00850315
1011.797	0.00927387
1011.956	0.00939084
1012.115	0.00957568
1012.273	0.0097545
1012.432	0.0091172
1012.59	0.00879871
1012.749	0.00897151
1012.908	0.00853841
1013.066	0.0083288
1013.225	0.0083977
1013.383	0.00756939
1013.542	0.00848999
1013.7	0.00782909
1013.859	0.00757104
1014.017	0.00783843
1014.175	0.00709758
1014.334	0.00703242
1014.492	0.00756187
1014.65	0.00631863
1014.809	0.00685612
1014.967	0.00651699
1015.125	0.00685376
1015.284	0.00729174
1015.442	0.00683442
1015.6	0.00710182
1015.758	0.00749337
1015.916	0.00776895
1016.075	0.00772315
1016.233	0.00753819
1016.391	0.00748534
1016.549	0.00710581
1016.707	0.00730446
1016.865	0.0081648
1017.023	0.00862143
1017.181	0.00930173
1017.339	0.00917015
1017.497	0.00986028
1017.655	0.01072767
1017.813	0.01199859
1017.971	0.01173006
1018.129	0.01216472
1018.286	0.01190524
1018.444	0.01127136
1018.602	0.01190944
1018.76	0.01209471
1018.918	0.01154154
1019.075	0.01097628
1019.233	0.01067161
1019.391	0.01026194
1019.549	0.01213628
1019.706	0.01222304
1019.864	0.01231545
1020.022	0.01238009
1020.179	0.01341381
1020.337	0.01425459
1020.494	0.015906
1020.652	0.01471739
1020.809	0.01468282
1020.967	0.01501542
1021.124	0.01439482
1021.282	0.01434522
1021.439	0.01351403
1021.597	0.01243351
1021.754	0.01323974
1021.911	0.01322453
1022.069	0.0125258
1022.226	0.01157929
1022.384	0.01186339
1022.541	0.01096132
1022.698	0.01257986
1022.855	0.0120445
1023.013	0.01123692
1023.17	0.01124218
1023.327	0.01242766
1023.484	0.01157701
1023.641	0.01292669
1023.798	0.01229545
1023.956	0.01384999
1024.113	0.0150854
1024.27	0.01627615
1024.427	0.01682536
1024.584	0.01881532
1024.741	0.01985354
1024.898	0.01887879
1025.055	0.01757182
1025.212	0.01711479
1025.369	0.01778163
1025.525	0.01724839
1025.682	0.01762221
1025.839	0.01692889
1025.996	0.0187958
1026.153	0.0197026
1026.31	0.02103622
1026.466	0.0209866
1026.623	0.02307698
1026.78	0.02306373
1026.937	0.02350539
1027.093	0.02245232
1027.25	0.02118596
1027.407	0.02280715
1027.563	0.02410927
1027.72	0.02325585
1027.876	0.02210833
1028.033	0.02249009
1028.19	0.02255507
1028.346	0.02242281
1028.503	0.02041493
1028.659	0.01994588
1028.816	0.01918181
1028.972	0.0201104
1029.128	0.02023274
1029.285	0.01978174
1029.441	0.02159347
1029.598	0.02169409
1029.754	0.02330841
1029.91	0.02374219
1030.067	0.02478415
1030.223	0.02454063
1030.379	0.02441436
1030.535	0.02667849
1030.691	0.02565694
1030.848	0.02330783
1031.004	0.02443238
1031.16	0.02415432
1031.316	0.02417014
1031.472	0.02583147
1031.628	0.02262611
1031.784	0.02794971
1031.94	0.02940552
1032.096	0.02907094
1032.252	0.03013489
1032.408	0.02977892
1032.564	0.03090167
1032.72	0.03343187
1032.876	0.02893942
1033.032	0.02727789
1033.188	0.02779703
1033.344	0.02631193
1033.5	0.02729372
1033.655	0.02677322
1033.811	0.02584792
1033.967	0.02698648
