Data from 0_1_mm_pl_80pc_Absorbance__0__15-32-32-475.txt Node

Date: Fri Feb 24 15:32:32 CET 2023
User: Ange
Spectrometer: FLMT08341
Trigger mode: 0
Integration Time (sec): 1.000000E-2
Scans to average: 400
Electric dark correction enabled: true
Nonlinearity correction enabled: false
Boxcar width: 3
XAxis mode: Wavelengths
Number of Pixels in Spectrum: 3648
>>>>>Begin Spectral Data<<<<<
345.271	-0.01068356
345.487	-0.01702619
345.704	-0.00720264
345.921	-0.01933873
346.137	-0.01285653
346.354	-0.01337875
346.571	-0.02435825
346.787	-0.00645412
347.004	-0.05685175
347.22	0.05162322
347.437	-0.08194388
347.653	0.20723538
347.87	-0.16341154
348.086	-0.39728451
348.303	0.62971167
348.519	0.53477421
348.736	0.55044612
348.952	0.55529745
349.169	0.58795574
349.385	0.62388636
349.601	0.62104118
349.818	0.61645417
350.034	0.60799519
350.251	0.59818177
350.467	0.61071563
350.683	0.58710317
350.9	0.58488915
351.116	0.57670462
351.332	0.56980145
351.549	0.59198626
351.765	0.61361909
351.981	0.62347204
352.197	0.65449108
352.414	0.68143277
352.63	0.69899249
352.846	0.71517974
353.062	0.69305569
353.278	0.67520946
353.495	0.68605785
353.711	0.68770588
353.927	0.69030735
354.143	0.68893965
354.359	0.67868893
354.575	0.67879361
354.792	0.70365919
355.008	0.68944779
355.224	0.67958007
355.44	0.6697441
355.656	0.66769486
355.872	0.68507769
356.088	0.73230123
356.304	0.73446687
356.52	0.74307527
356.736	0.7504787
356.952	0.75549105
357.168	0.75930847
357.384	0.76847305
357.6	0.73434707
357.816	0.7481866
358.032	0.76133462
358.248	0.79057023
358.464	0.795336
358.679	0.80758027
358.895	0.80767467
359.111	0.83023471
359.327	0.80838859
359.543	0.81019804
359.759	0.81379087
359.974	0.81849604
360.19	0.81896795
360.406	0.8190167
360.622	0.80346807
360.838	0.80010418
361.053	0.81082234
361.269	0.81134567
361.485	0.8152211
361.701	0.82242207
361.916	0.80987569
362.132	0.82040528
362.348	0.83140495
362.563	0.83504008
362.779	0.82964079
362.995	0.83419424
363.21	0.84289214
363.426	0.85179732
363.641	0.84831797
363.857	0.86266189
364.073	0.84963507
364.288	0.83869491
364.504	0.85827627
364.719	0.85685204
364.935	0.85537057
365.15	0.86529077
365.366	0.86346961
365.581	0.88233479
365.797	0.89306645
366.012	0.87513141
366.228	0.86397042
366.443	0.89036217
366.658	0.89176576
366.874	0.87942921
367.089	0.89104951
367.305	0.89738425
367.52	0.9013332
367.735	0.9046191
367.951	0.88873309
368.166	0.89471179
368.381	0.92371337
368.597	0.90840629
368.812	0.91723194
369.027	0.93028534
369.243	0.94285101
369.458	0.9781788
369.673	0.98316533
369.888	0.97949945
370.104	0.97801674
370.319	0.98573139
370.534	0.97679377
370.749	0.97983878
370.964	0.97915196
371.179	0.98062188
371.395	0.9731875
371.61	0.98845981
371.825	0.97162299
372.04	0.9836539
372.255	0.97294198
372.47	0.96242575
372.685	0.94912699
372.9	0.95123041
373.115	0.93883805
373.33	0.94939705
373.545	0.94641533
373.76	0.96113802
373.975	0.951972
374.19	0.95525682
374.405	0.95730617
374.62	0.975949
374.835	0.99490332
375.05	1.00030724
375.265	1.00113396
375.48	1.01502307
375.695	1.04456026
375.91	1.04328082
376.125	1.0240735
376.339	0.99873768
376.554	1.00087416
376.769	1.00219524
376.984	1.00022872
377.199	1.00207207
377.414	0.99806127
377.628	1.015837
377.843	1.03231829
378.058	1.03740623
378.273	1.05220208
378.487	1.05776055
378.702	1.06096463
378.917	1.07280362
379.131	1.06738727
379.346	1.04944514
379.561	1.03983153
379.775	1.02813229
379.99	1.01312295
380.205	0.99635753
380.419	0.98288163
380.634	0.97104067
380.848	0.99147324
381.063	0.99346094
381.278	1.00704533
381.492	1.00114437
381.707	1.01493853
381.921	1.01956889
382.136	1.03858238
382.35	1.0231197
382.565	1.01706603
382.779	1.01765344
382.994	1.03102901
383.208	1.01607708
383.422	1.03278616
383.637	1.02756527
383.851	1.04724317
384.066	1.05995184
384.28	1.06276215
384.494	1.06590344
384.709	1.08138438
384.923	1.07687363
385.137	1.06642527
385.352	1.05818349
385.566	1.06235115
385.78	1.05559955
385.995	1.04810232
386.209	1.04095396
386.423	1.04737318
386.637	1.05911462
386.852	1.04686691
387.066	1.04199122
387.28	1.03456052
387.494	1.04755788
387.708	1.05048797
387.923	1.04294546
388.137	1.05055177
388.351	1.05885774
388.565	1.06814634
388.779	1.07840069
388.993	1.09255327
389.207	1.0947996
389.421	1.10029566
389.635	1.08865178
389.85	1.08737047
390.064	1.08343822
390.278	1.08115111
390.492	1.0737444
390.706	1.07542593
390.92	1.07211342
391.134	1.08155147
391.348	1.09932838
391.561	1.08922969
391.775	1.08175677
391.989	1.06879883
392.203	1.07104769
392.417	1.07639762
392.631	1.08208792
392.845	1.06759067
393.059	1.08177879
393.273	1.07972668
393.486	1.07329583
393.7	1.05927445
393.914	1.06118143
394.128	1.05354602
394.342	1.04964311
394.555	1.03145941
394.769	1.03153501
394.983	1.03773833
395.197	1.04487271
395.41	1.04223109
395.624	1.04331187
395.838	1.04164059
396.051	1.0631898
396.265	1.05710848
396.479	1.05567712
396.692	1.05386505
396.906	1.04407049
397.12	1.03668718
397.333	1.04401321
397.547	1.03036437
397.76	1.03817034
397.974	1.03959805
398.187	1.04069691
398.401	1.04791826
398.614	1.04702194
398.828	1.04044064
399.041	1.04024063
399.255	1.03444262
399.468	1.03007912
399.682	1.02561565
399.895	1.02330771
400.109	1.02067934
400.322	1.01647509
400.536	1.00528137
400.749	1.0116508
400.962	1.01146978
401.176	1.00533789
401.389	0.99859415
401.602	0.98669906
401.816	0.98701165
402.029	0.99433411
402.242	0.98402563
402.456	0.9787916
402.669	0.97247421
402.882	0.96121672
403.095	0.97014724
403.309	0.96603323
403.522	0.96279519
403.735	0.95762586
403.948	0.95542065
404.161	0.96622333
404.375	0.96999868
404.588	0.96599907
404.801	0.96288076
405.014	0.95504189
405.227	0.95905067
405.44	0.95904336
405.653	0.95518389
405.866	0.94801203
406.079	0.94275943
406.293	0.93849098
406.506	0.93657151
406.719	0.93115029
406.932	0.92580267
407.145	0.91600859
407.358	0.92232068
407.571	0.91638175
407.784	0.91622714
407.996	0.91533436
408.209	0.90881399
408.422	0.90300851
408.635	0.90335672
408.848	0.8982903
409.061	0.89244178
409.274	0.88686369
409.487	0.88165121
409.7	0.87991955
409.912	0.87987289
410.125	0.87596891
410.338	0.87242344
410.551	0.87143017
410.764	0.86963732
410.976	0.8670105
411.189	0.86404552
411.402	0.85822111
411.615	0.85643137
411.827	0.85313155
412.04	0.85148665
412.253	0.8468183
412.465	0.8425924
412.678	0.83860215
412.891	0.8389598
413.103	0.83061386
413.316	0.82591459
413.529	0.82491046
413.741	0.82417423
413.954	0.82363613
414.166	0.82176518
414.379	0.81726811
414.591	0.81804289
414.804	0.8136635
415.016	0.80989164
415.229	0.80535529
415.441	0.79954579
415.654	0.79835863
415.866	0.79614759
416.079	0.79454873
416.291	0.79209003
416.504	0.79125889
416.716	0.78949204
416.928	0.78855778
417.141	0.78431726
417.353	0.7822772
417.566	0.77567668
417.778	0.77411072
417.99	0.76709099
418.203	0.76227518
418.415	0.75888436
418.627	0.75743152
418.839	0.75459184
419.052	0.75643954
419.264	0.75297307
419.476	0.75259886
419.688	0.75123746
419.901	0.7486397
420.113	0.74466685
420.325	0.74098892
420.537	0.73528236
420.749	0.73464009
420.961	0.73254623
421.174	0.72910317
421.386	0.72597483
421.598	0.72328516
421.81	0.72031475
422.022	0.71783826
422.234	0.71442598
422.446	0.71024157
422.658	0.70727619
422.87	0.70545883
423.082	0.70347096
423.294	0.70067711
423.506	0.69938888
423.718	0.69652628
423.93	0.69354072
424.142	0.69060222
424.354	0.68740905
424.566	0.68422965
424.778	0.68255277
424.99	0.67940162
425.202	0.67590697
425.414	0.67433937
425.625	0.67386852
425.837	0.67035506
426.049	0.66907256
426.261	0.66611623
426.473	0.66244995
426.684	0.66085892
426.896	0.65931875
427.108	0.65579303
427.32	0.65481796
427.531	0.65103522
427.743	0.64910043
427.955	0.6490791
428.167	0.64630977
428.378	0.64364886
428.59	0.64172953
428.802	0.63907967
429.013	0.63677556
429.225	0.6343997
429.436	0.63118142
429.648	0.62973433
429.86	0.62769863
430.071	0.62558307
430.283	0.62380444
430.494	0.62170908
430.706	0.61947105
430.917	0.61679375
431.129	0.61460436
431.34	0.61224075
431.552	0.61041198
431.763	0.607878
431.975	0.60683679
432.186	0.60403184
432.398	0.60206483
432.609	0.59852744
432.821	0.59633998
433.032	0.59435853
433.243	0.59202932
433.455	0.58976706
433.666	0.5885622
433.877	0.58755139
434.089	0.58578662
434.3	0.58336904
434.511	0.58035833
434.723	0.5786322
434.934	0.57586918
435.145	0.57286464
435.356	0.56991999
435.568	0.56821581
435.779	0.56638454
435.99	0.5639505
436.201	0.56183263
436.412	0.56023137
436.624	0.55954843
436.835	0.55852077
437.046	0.55738416
437.257	0.55532837
437.468	0.55514002
437.679	0.55367452
437.89	0.55164518
438.101	0.54982542
438.312	0.54774627
438.523	0.54559712
438.734	0.54430059
438.945	0.54201974
439.156	0.53992598
439.367	0.53860828
439.578	0.53715311
439.789	0.53473798
440	0.53316913
440.211	0.53097487
440.422	0.52948025
440.633	0.52833451
440.844	0.52599971
441.055	0.5236956
441.266	0.52277901
441.477	0.52046211
441.687	0.51905012
441.898	0.51710964
442.109	0.5148726
442.32	0.51360694
442.531	0.51127527
442.741	0.50864704
442.952	0.50743966
443.163	0.50590937
443.374	0.5040837
443.584	0.50206709
443.795	0.50057733
444.006	0.49957862
444.216	0.49832124
444.427	0.49593547
444.638	0.4939637
444.848	0.49245979
445.059	0.49101773
445.27	0.48890543
445.48	0.48680224
445.691	0.48522079
445.901	0.48421016
446.112	0.48281803
446.323	0.48087212
446.533	0.4791557
446.744	0.47757113
446.954	0.47604939
447.165	0.47473505
447.375	0.47356381
447.586	0.47234422
447.796	0.47134891
448.006	0.47008869
448.217	0.46916195
448.427	0.46788193
448.638	0.46596953
448.848	0.46381103
449.058	0.46212547
449.269	0.46059716
449.479	0.45928343
449.689	0.45751762
449.9	0.45596265
450.11	0.45465471
450.32	0.4538768
450.531	0.45223244
450.741	0.45050459
450.951	0.44916981
451.161	0.44768632
451.372	0.44646106
451.582	0.44599584
451.792	0.44426614
452.002	0.44299369
452.212	0.44138343
452.422	0.44003706
452.633	0.43850532
452.843	0.43742695
453.053	0.43497002
453.263	0.43377623
453.473	0.43215788
453.683	0.43124798
453.893	0.42951095
454.103	0.42859015
454.313	0.42697379
454.523	0.42584005
454.733	0.42448634
454.943	0.42365463
455.153	0.4224808
455.363	0.42138692
455.573	0.42012062
455.783	0.41929101
455.993	0.41783669
456.203	0.4169612
456.413	0.41530471
456.623	0.41356891
456.833	0.41276477
457.042	0.41129766
457.252	0.40975135
457.462	0.40873498
457.672	0.40748547
457.882	0.40656343
458.091	0.40563153
458.301	0.40390302
458.511	0.40268671
458.721	0.40164482
458.931	0.40058397
459.14	0.3994644
459.35	0.39850176
459.56	0.39754821
459.769	0.39685693
459.979	0.3957981
460.189	0.39464166
460.398	0.39347418
460.608	0.39234511
460.817	0.39117833
461.027	0.39008665
461.237	0.38885824
461.446	0.38780041
461.656	0.3869708
461.865	0.38579135
462.075	0.38472864
462.284	0.38368462
462.494	0.38268853
462.703	0.38151922
462.913	0.38065924
463.122	0.37927625
463.332	0.37841274
463.541	0.37752055
463.751	0.37645907
463.96	0.37557643
464.169	0.3745976
464.379	0.3738588
464.588	0.37327441
464.797	0.37240762
465.007	0.37129934
465.216	0.37047732
465.425	0.36929267
465.635	0.36844692
465.844	0.36726007
466.053	0.36619741
466.263	0.36511526
466.472	0.36409073
466.681	0.3631855
466.89	0.36228066
467.099	0.36140639
467.309	0.36036388
467.518	0.35948078
467.727	0.35871219
467.936	0.35787538
468.145	0.35687659
468.354	0.35609125
468.563	0.35508799
468.772	0.35430475
468.982	0.35334498
469.191	0.35261246
469.4	0.35174168
469.609	0.35110602
469.818	0.35065283
470.027	0.35002265
470.236	0.34922613
470.445	0.34857018
470.654	0.34745223
470.863	0.34653766
471.072	0.34560621
471.28	0.34441047
471.489	0.34376314
471.698	0.34311875
471.907	0.34240333
472.116	0.34200846
472.325	0.34138109
472.534	0.3409012
472.743	0.34017979
472.951	0.3396172
473.16	0.338974
473.369	0.33821069
473.578	0.33742053
473.786	0.33694791
473.995	0.33619217
474.204	0.33568649
474.413	0.33484355
474.621	0.33419077
474.83	0.33373533
475.039	0.33310397
475.247	0.33257756
475.456	0.33204193
475.665	0.33149503
475.873	0.33089372
476.082	0.33003978
476.291	0.32934359
476.499	0.3288983
476.708	0.32812095
476.916	0.3276526
477.125	0.32713148
477.333	0.32667841
477.542	0.32642115
477.75	0.32590601
477.959	0.32532459
478.167	0.32500145
478.376	0.32438059
478.584	0.32386063
478.793	0.32333083
479.001	0.32277357
479.209	0.32230831
479.418	0.32193047
479.626	0.32135583
479.834	0.320932
480.043	0.32047785
480.251	0.31996583
480.459	0.31953172
480.668	0.31915445
480.876	0.31864328
481.084	0.31820391
481.293	0.31777732
481.501	0.31732158
481.709	0.3169699
481.917	0.31648617
482.125	0.31588337
482.334	0.31552318
482.542	0.31510822
482.75	0.31462991
482.958	0.31423802
483.166	0.31381091
483.374	0.31350161
483.583	0.31318508
483.791	0.31277998
483.999	0.31232291
484.207	0.31204936
484.415	0.31174268
484.623	0.3114035
484.831	0.31096683
485.039	0.31074969
485.247	0.31036498
485.455	0.31013483
485.663	0.30983126
485.871	0.30954965
486.079	0.30913684
486.287	0.30886143
486.495	0.30851602
486.702	0.30827459
486.91	0.3079761
487.118	0.30765167
487.326	0.30733173
487.534	0.30708149
487.742	0.30690494
487.95	0.30669783
488.157	0.30651699
488.365	0.30638917
488.573	0.30620642
488.781	0.30602596
488.988	0.30598879
489.196	0.30591537
489.404	0.30577392
489.612	0.30552928
489.819	0.30531977
490.027	0.30510507
490.235	0.3049311
490.442	0.30476058
490.65	0.30445507
490.857	0.30430869
491.065	0.30413117
491.273	0.30395596
491.48	0.30384294
491.688	0.30359163
491.895	0.30352718
492.103	0.30344305
492.31	0.30328066
492.518	0.30315802
492.725	0.30310549
492.933	0.30302666
493.14	0.30295074
493.348	0.3027325
493.555	0.30261215
493.763	0.30247788
493.97	0.30236468
494.177	0.3022575
494.385	0.30214584
494.592	0.30211258
494.8	0.30194187
495.007	0.30182265
495.214	0.30178422
495.422	0.30179711
495.629	0.3017204
495.836	0.30165079
496.043	0.30166391
496.251	0.30175975
496.458	0.30169026
496.665	0.30171967
496.872	0.30166704
497.08	0.30165293
497.287	0.30156056
497.494	0.30142772
497.701	0.30143728
497.908	0.30150752
498.115	0.30144504
498.322	0.30139301
498.53	0.30136802
498.737	0.30143661
498.944	0.30150014
499.151	0.30151332
499.358	0.30154283
499.565	0.3015682
499.772	0.30169146
499.979	0.30174685
500.186	0.30183206
500.393	0.30193522
500.6	0.30193071
500.807	0.30197631
501.014	0.30202314
501.221	0.30208954
501.427	0.30217647
501.634	0.3022768
501.841	0.30239151
502.048	0.30251392
502.255	0.30259362
502.462	0.3027842
502.669	0.3029149
502.875	0.30301935
503.082	0.30312786
503.289	0.30312528
503.496	0.30322123
503.702	0.30334708
503.909	0.30341176
504.116	0.30348295
504.323	0.30358547
504.529	0.30376856
504.736	0.30397857
504.943	0.30409477
505.149	0.30437589
505.356	0.3046083
505.563	0.30479718
505.769	0.3049879
505.976	0.3051208
506.182	0.30539191
506.389	0.30559322
506.595	0.30569763
506.802	0.30583544
507.008	0.3059938
507.215	0.30616887
507.421	0.30635895
507.628	0.30642865
507.834	0.30664805
508.041	0.30682611
508.247	0.30700471
508.454	0.30731539
508.66	0.30755077
508.866	0.30770918
509.073	0.30802164
509.279	0.30832344
509.486	0.3085724
509.692	0.30883916
509.898	0.30900708
510.105	0.30937077
510.311	0.30970792
510.517	0.31001222
510.723	0.3102396
510.93	0.31047625
511.136	0.31079191
511.342	0.31105887
511.548	0.31118886
511.754	0.31142324
511.961	0.31155478
512.167	0.31178857
512.373	0.31212848
512.579	0.31236909
512.785	0.31268875
512.991	0.313056
513.197	0.31339302
513.404	0.31373553
513.61	0.31402418
513.816	0.31429586
514.022	0.3146184
514.228	0.31490853
514.434	0.31514331
514.64	0.31534375
514.846	0.31566521
515.052	0.31597968
515.258	0.31634101
515.464	0.31660709
515.669	0.31686884
515.875	0.31721602
516.081	0.31764709
516.287	0.31804766
516.493	0.31848406
516.699	0.31881788
516.905	0.31927953
517.111	0.31966425
517.316	0.3200323
517.522	0.32043665
517.728	0.32078646
517.934	0.32104564
518.139	0.32140384
518.345	0.32164843
518.551	0.32202763
518.757	0.32241552
518.962	0.32276304
519.168	0.32305842
519.374	0.32341965
519.579	0.32372293
519.785	0.32416391
519.991	0.32458035
520.196	0.32497175
520.402	0.32531824
520.607	0.32574049
520.813	0.32624012
521.018	0.32670933
521.224	0.32702381
521.429	0.3274274
521.635	0.327874
521.84	0.32830551
522.046	0.32869528
522.251	0.32896529
522.457	0.32932472
522.662	0.32985595
522.868	0.33027699
523.073	0.33062751
523.279	0.33097065
523.484	0.33137749
523.689	0.3318684
523.895	0.33231526
524.1	0.33272226
524.305	0.33312356
524.511	0.33355925
524.716	0.33397791
524.921	0.33438913
525.126	0.33481138
525.332	0.3352904
525.537	0.335697
525.742	0.3361628
525.947	0.33659944
526.153	0.33702099
526.358	0.33751859
526.563	0.33798252
526.768	0.33836931
526.973	0.33881969
527.178	0.33923999
527.383	0.33970924
527.588	0.34025723
527.794	0.34068787
527.999	0.34114535
528.204	0.34160827
528.409	0.34204044
528.614	0.34252805
528.819	0.34295423
529.024	0.34334934
529.229	0.34378387
529.434	0.34425631
529.639	0.34470476
529.843	0.34520567
530.048	0.3456542
530.253	0.34614024
530.458	0.34667676
530.663	0.34719783
530.868	0.34768115
531.073	0.34818361
531.278	0.34861245
531.482	0.34907753
531.687	0.34952984
531.892	0.34993984
532.097	0.35031826
532.302	0.35080383
532.506	0.3513189
532.711	0.35183968
532.916	0.35233198
533.12	0.35281697
533.325	0.35328263
533.53	0.35389443
533.734	0.35437153
533.939	0.35481553
534.144	0.35531355
534.348	0.35581741
534.553	0.35635449
534.757	0.35684497
534.962	0.35726868
535.167	0.35781965
535.371	0.35828663
535.576	0.35878781
535.78	0.35932387
535.985	0.35983276
536.189	0.36037278
536.394	0.36090783
536.598	0.36128838
536.803	0.3618225
537.007	0.36228675
537.211	0.36275693
537.416	0.36318273
537.62	0.36369348
537.825	0.36415332
538.029	0.36474217
538.233	0.3651676
538.438	0.36567043
538.642	0.36608631
538.846	0.36660331
539.05	0.36706555
539.255	0.36760446
539.459	0.36796851
539.663	0.36848006
539.867	0.36894405
540.072	0.36949501
540.276	0.36999778
540.48	0.37054564
540.684	0.3709688
540.888	0.37159957
541.092	0.37211115
541.297	0.3726074
541.501	0.37309356
541.705	0.37351056
541.909	0.37395969
542.113	0.37447819
542.317	0.37496743
542.521	0.37551427
542.725	0.37607241
542.929	0.37658148
543.133	0.37712422
543.337	0.37762817
543.541	0.37813907
543.745	0.37851296
543.949	0.378989
544.153	0.37942197
544.357	0.37982919
544.56	0.38034216
544.764	0.38071452
544.968	0.38111389
545.172	0.38153643
545.376	0.38194368
545.58	0.38237996
545.783	0.38291045
545.987	0.38330471
546.191	0.38380141
546.395	0.38436068
546.598	0.38495169
546.802	0.38543601
547.006	0.38591594
547.21	0.38628689
547.413	0.3867509
547.617	0.3872628
547.821	0.38770086
548.024	0.3881123
548.228	0.38846037
548.431	0.38886836
548.635	0.38930848
548.839	0.38973647
549.042	0.3902301
549.246	0.39057169
549.449	0.39102008
549.653	0.39155227
549.856	0.39198896
550.06	0.39238853
550.263	0.39287112
550.467	0.39327372
550.67	0.39378119
550.874	0.39409603
551.077	0.39452271
551.28	0.39499691
551.484	0.39548537
551.687	0.39584858
551.891	0.39623308
552.094	0.39656257
552.297	0.3969952
552.501	0.39739452
552.704	0.39774312
552.907	0.39808695
553.11	0.39849787
553.314	0.39890664
553.517	0.39922323
553.72	0.39962727
553.923	0.40000413
554.127	0.40034956
554.33	0.40068218
554.533	0.40111663
554.736	0.40138783
554.939	0.40183724
555.142	0.40229097
555.345	0.40269408
555.549	0.40314422
555.752	0.4035933
555.955	0.40389072
556.158	0.40442239
556.361	0.40486299
556.564	0.40519962
556.767	0.40555351
556.97	0.40595099
557.173	0.40628871
557.376	0.40666758
557.579	0.40689649
557.782	0.40723771
557.984	0.40758547
558.187	0.40798036
558.39	0.40825394
558.593	0.4086372
558.796	0.40896575
558.999	0.40930441
559.202	0.40959242
559.404	0.40984113
559.607	0.41005953
559.81	0.4103455
560.013	0.41061937
560.216	0.41088319
560.418	0.41122607
560.621	0.41153692
560.824	0.41190728
561.026	0.41225486
561.229	0.41250464
561.432	0.41284379
561.634	0.41315387
561.837	0.41343476
562.04	0.41369992
562.242	0.41402264
562.445	0.41423591
562.647	0.41450481
562.85	0.4146665
563.053	0.41489794
563.255	0.41509272
563.458	0.41535688
563.66	0.4155468
563.863	0.41588986
564.065	0.41614986
564.268	0.41640626
564.47	0.41670782
564.672	0.41694093
564.875	0.41721243
565.077	0.41738155
565.28	0.41757453
565.482	0.41783041
565.684	0.41806205
565.887	0.41821929
566.089	0.41850172
566.291	0.41865208
566.494	0.41889876
566.696	0.41899889
566.898	0.41913563
567.1	0.41925405
567.303	0.41945764
567.505	0.41956349
567.707	0.41967602
567.909	0.41981279
568.111	0.41998947
568.314	0.42015303
568.516	0.42036048
568.718	0.42049831
568.92	0.42070812
569.122	0.42086028
569.324	0.42101997
569.526	0.42113541
569.728	0.42135709
569.93	0.4214767
570.132	0.42158129
570.334	0.42169022
570.536	0.42187071
570.738	0.42199817
570.94	0.42212396
571.142	0.42221639
571.344	0.4223018
571.546	0.4223348
571.748	0.42241948
571.95	0.42242862
572.152	0.42251984
572.354	0.42264606
572.555	0.42276996
572.757	0.4229215
572.959	0.42303436
573.161	0.42303236
573.363	0.4231501
573.564	0.42327304
573.766	0.42332903
573.968	0.42339685
574.17	0.42339168
574.371	0.42346851
574.573	0.42354327
574.775	0.42352576
574.976	0.42348105
575.178	0.42354817
575.38	0.42344042
575.581	0.42346451
575.783	0.42351566
575.985	0.42361045
576.186	0.42371979
576.388	0.42379128
576.589	0.4237756
576.791	0.42390007
576.992	0.42393318
577.194	0.4239448
577.395	0.42390184
577.597	0.42392706
577.798	0.42384268
578	0.42387152
578.201	0.42385608
578.402	0.42385763
578.604	0.42379788
578.805	0.42384611
579.007	0.42379411
579.208	0.42386857
579.409	0.4237578
579.611	0.42365341
579.812	0.42366895
580.013	0.42374237
580.215	0.42354613
580.416	0.42349562
580.617	0.42337571
580.818	0.42338764
581.019	0.42331261
581.221	0.42322518
581.422	0.42305993
581.623	0.42312903
581.824	0.42289344
582.025	0.42284124
582.226	0.42270425
582.428	0.42271382
582.629	0.42257636
582.83	0.42252253
583.031	0.42233932
583.232	0.42246048
583.433	0.42238752
583.634	0.42233338
583.835	0.42218751
584.036	0.42207211
584.237	0.42191611
584.438	0.42184106
584.639	0.42158832
584.84	0.42148619
585.041	0.42133334
585.242	0.42117885
585.442	0.42110269
585.643	0.42107914
585.844	0.42093608
586.045	0.42088343
586.246	0.42066737
586.447	0.42048347
586.647	0.42042585
586.848	0.42028512
587.049	0.42007534
587.25	0.41992718
587.45	0.41970659
587.651	0.41958662
587.852	0.41951301
588.053	0.41938467
588.253	0.41922818
588.454	0.41909259
588.655	0.41893351
588.855	0.41881273
589.056	0.4186606
589.256	0.41847801
589.457	0.4182808
589.658	0.41810772
589.858	0.41788411
590.059	0.4177181
590.259	0.4176026
590.46	0.41750454
590.66	0.41730379
590.861	0.41717639
591.061	0.41701887
591.262	0.41702969
591.462	0.41699095
591.662	0.41687318
591.863	0.41664213
592.063	0.41654575
592.264	0.41639203
592.464	0.4162315
592.664	0.41598012
592.865	0.41586537
593.065	0.4155662
593.265	0.41552121
593.465	0.41531894
593.666	0.41514241
593.866	0.41493268
594.066	0.41480345
594.266	0.41446686
594.467	0.4142995
594.667	0.41403237
594.867	0.41394176
595.067	0.41369955
595.267	0.41356575
595.467	0.41333035
595.668	0.4131469
595.868	0.41298876
596.068	0.41281287
596.268	0.41254129
596.468	0.41248303
596.668	0.41229124
596.868	0.41212319
597.068	0.4119441
597.268	0.41177512
597.468	0.41154342
597.668	0.41137101
597.868	0.41107874
598.068	0.41093614
598.268	0.41077519
598.467	0.41071257
598.667	0.41044779
598.867	0.4101987
599.067	0.41003451
599.267	0.40986675
599.467	0.40962622
599.667	0.40933383
599.866	0.40909052
600.066	0.40903551
600.266	0.40885316
600.466	0.40862382
600.665	0.40842047
600.865	0.4082137
601.065	0.40808123
601.264	0.40786161
601.464	0.4075554
601.664	0.40754444
601.863	0.40738175
602.063	0.40726898
602.263	0.40701318
602.462	0.40693675
602.662	0.40679074
602.861	0.40672354
603.061	0.40648004
603.26	0.40635811
603.46	0.40612967
603.659	0.40605969
603.859	0.40575362
604.058	0.4055145
604.258	0.40539735
604.457	0.40535319
604.657	0.40501888
604.856	0.40478447
605.056	0.40466643
605.255	0.40452287
605.454	0.40442384
605.654	0.40405849
605.853	0.40372426
606.052	0.40366164
606.252	0.40355168
606.451	0.40333335
606.65	0.40316724
606.849	0.40286012
607.049	0.40278087
607.248	0.40262239
607.447	0.40244348
607.646	0.40230943
607.845	0.40215908
608.045	0.40196164
608.244	0.40200827
608.443	0.40191666
608.642	0.40193458
608.841	0.40179204
609.04	0.40163535
609.239	0.40152662
609.438	0.40137024
609.637	0.40124159
609.836	0.40112319
610.035	0.40084777
610.234	0.40079296
610.433	0.40072236
610.632	0.40060502
610.831	0.40062696
611.03	0.40042691
611.229	0.40045884
611.428	0.40044581
611.627	0.40035772
611.826	0.40032425
612.025	0.4003937
612.224	0.40026802
612.422	0.40021782
612.621	0.40003177
612.82	0.39995462
613.019	0.39986115
613.218	0.39974468
613.416	0.39948005
613.615	0.39953458
613.814	0.39953292
614.012	0.39951375
614.211	0.39937492
614.41	0.39934537
614.608	0.39926831
614.807	0.39924036
615.006	0.39911613
615.204	0.39897044
615.403	0.39891441
615.602	0.39901377
615.8	0.39906
615.999	0.39897101
616.197	0.39888849
616.396	0.39891674
616.594	0.39883709
616.793	0.39886977
616.991	0.3987293
617.19	0.39848742
617.388	0.39860451
617.586	0.39866233
617.785	0.39856771
617.983	0.39861097
618.182	0.39839242
618.38	0.39830326
618.578	0.3982994
618.777	0.39818236
618.975	0.39817238
619.173	0.39815459
619.372	0.39812912
619.57	0.39814804
619.768	0.39825348
619.966	0.39836701
620.165	0.39834128
620.363	0.39835974
620.561	0.39820987
620.759	0.39829374
620.957	0.39840926
621.155	0.39848269
621.354	0.39840686
621.552	0.39861446
621.75	0.39857286
621.948	0.39878778
622.146	0.39876721
622.344	0.39871237
622.542	0.39863441
622.74	0.39872432
622.938	0.39859885
623.136	0.39877184
623.334	0.39891214
623.532	0.3988158
623.73	0.3988944
623.928	0.39902469
624.126	0.39909132
624.324	0.39926033
624.522	0.39913745
624.719	0.39903769
624.917	0.39927937
625.115	0.39922536
625.313	0.39926196
625.511	0.3993978
625.708	0.39919907
625.906	0.39925906
626.104	0.39925036
626.302	0.39936206
626.499	0.3996023
626.697	0.39969243
626.895	0.39964909
627.093	0.39994164
627.29	0.40011964
627.488	0.40028571
627.686	0.40037022
627.883	0.40031733
628.081	0.40023122
628.278	0.40052479
628.476	0.40058637
628.673	0.4007029
628.871	0.40081481
629.068	0.40087964
629.266	0.40109959
629.463	0.40123425
629.661	0.40121756
629.858	0.401244
630.056	0.40131803
630.253	0.40138633
630.451	0.40151957
630.648	0.40160973
630.845	0.40176937
631.043	0.4018268
631.24	0.40204968
631.438	0.40220406
631.635	0.402341
631.832	0.40232221
632.029	0.40246593
632.227	0.40263266
632.424	0.40287787
632.621	0.40292826
632.818	0.40296958
633.016	0.40317032
633.213	0.40329762
633.41	0.40348419
633.607	0.4036074
633.804	0.40364189
634.001	0.40371645
634.199	0.40398925
634.396	0.4041101
634.593	0.40428819
634.79	0.40440351
634.987	0.40462024
635.184	0.40477382
635.381	0.40507182
635.578	0.40524881
635.775	0.40534063
635.972	0.40548288
636.169	0.4056103
636.366	0.40559325
636.563	0.40572161
636.76	0.40573703
636.957	0.40578118
637.153	0.40584569
637.35	0.40615303
637.547	0.40631451
637.744	0.40663275
637.941	0.40682792
638.138	0.40701742
638.334	0.40713883
638.531	0.40741658
638.728	0.40748829
638.925	0.40777651
639.121	0.40789724
639.318	0.40800293
639.515	0.40805091
639.711	0.40827722
639.908	0.40833854
640.105	0.40847565
640.301	0.40851419
640.498	0.40861908
640.695	0.40892989
640.891	0.40922946
641.088	0.40933216
641.284	0.40957713
641.481	0.40973812
641.677	0.40985299
641.874	0.40999981
642.07	0.41013543
642.267	0.41047662
642.463	0.41072056
642.66	0.41100058
642.856	0.41113518
643.053	0.41124068
643.249	0.41148621
643.445	0.41158894
643.642	0.41164745
643.838	0.41182258
644.034	0.41189241
644.231	0.4120542
644.427	0.41229797
644.623	0.41242324
644.82	0.41263752
645.016	0.41271741
645.212	0.41275105
645.408	0.41292576
645.604	0.41325077
645.801	0.41346775
645.997	0.41369735
646.193	0.41376746
646.389	0.41409829
646.585	0.41435642
646.781	0.41455755
646.977	0.41467095
647.173	0.41477631
647.37	0.41485717
647.566	0.41512117
647.762	0.41519398
647.958	0.41546095
648.154	0.41554293
648.35	0.41567208
648.546	0.41583338
648.742	0.41618679
648.937	0.4161873
649.133	0.41641919
649.329	0.41658381
649.525	0.41682419
649.721	0.41704712
649.917	0.41739144
650.113	0.41741745
650.309	0.41777957
650.504	0.41780738
650.7	0.41788045
650.896	0.41811282
651.092	0.41821965
651.287	0.41824292
651.483	0.41849478
651.679	0.41858411
651.875	0.41889033
652.07	0.41909958
652.266	0.41923387
652.462	0.41944667
652.657	0.41965597
652.853	0.41972098
653.048	0.41991235
653.244	0.41996574
653.44	0.42011413
653.635	0.42014528
653.831	0.42037381
654.026	0.42060331
654.222	0.42078617
654.417	0.42097636
654.613	0.42112134
654.808	0.42117485
655.004	0.42137191
655.199	0.42132913
655.394	0.42136433
655.59	0.42153392
655.785	0.42159419
655.98	0.42189787
656.176	0.42208384
656.371	0.42236203
656.566	0.42262609
656.762	0.42268348
656.957	0.42285759
657.152	0.42302478
657.348	0.4230724
657.543	0.42323753
657.738	0.42332046
657.933	0.42344313
658.128	0.42366563
658.324	0.42374368
658.519	0.42397411
658.714	0.42416003
658.909	0.42427449
659.104	0.42444158
659.299	0.42459382
659.494	0.42474017
659.689	0.42488383
659.884	0.42493018
660.079	0.42491617
660.274	0.42503952
660.469	0.42514209
660.664	0.4252968
660.859	0.42538255
661.054	0.42551557
661.249	0.42561899
661.444	0.42582497
661.639	0.42591008
661.834	0.42590697
662.029	0.42597489
662.224	0.42607146
662.418	0.42623106
662.613	0.4263829
662.808	0.42646147
663.003	0.42662077
663.198	0.42681042
663.392	0.42681181
663.587	0.42698406
663.782	0.42691585
663.977	0.42693688
664.171	0.42707271
664.366	0.42721406
664.561	0.42734833
664.755	0.42751566
664.95	0.42754295
665.144	0.42770601
665.339	0.42783946
665.534	0.42791295
665.728	0.42803507
665.923	0.42815817
666.117	0.42828941
666.312	0.42844241
666.506	0.42869407
666.701	0.42878293
666.895	0.42890094
667.09	0.42898273
667.284	0.42905901
667.479	0.42916372
667.673	0.42925167
667.867	0.42928906
668.062	0.42945404
668.256	0.42957684
668.45	0.42972658
668.645	0.42975748
668.839	0.42987832
669.033	0.42997862
669.228	0.4300377
669.422	0.43009026
669.616	0.43005835
669.81	0.43016852
670.004	0.43020527
670.199	0.43027131
670.393	0.43030491
670.587	0.43037715
670.781	0.43045813
670.975	0.43057487
671.169	0.4304279
671.363	0.43049455
671.558	0.43045708
671.752	0.43051858
671.946	0.43062307
672.14	0.43069677
672.334	0.43071428
672.528	0.43094268
672.722	0.43090346
672.916	0.43100458
673.11	0.43095258
673.304	0.43102509
673.497	0.43091309
673.691	0.43102205
673.885	0.4309266
674.079	0.43106394
674.273	0.43102886
674.467	0.43121942
674.661	0.43115294
674.854	0.43128605
675.048	0.4313403
675.242	0.43144374
675.436	0.43146115
675.629	0.43152795
675.823	0.4314575
676.017	0.43150727
676.211	0.43143622
676.404	0.4314184
676.598	0.43143097
676.792	0.43148848
676.985	0.43152774
677.179	0.43160647
677.372	0.43160699
677.566	0.43179508
677.76	0.43181328
677.953	0.43180676
678.147	0.43188527
678.34	0.43200437
678.534	0.43199674
678.727	0.43212811
678.921	0.43220009
679.114	0.43215987
679.307	0.43218871
679.501	0.43220768
679.694	0.43217799
679.888	0.4321626
680.081	0.43205671
680.274	0.4318312
680.468	0.43190317
680.661	0.43185241
680.854	0.43194003
681.048	0.43200314
681.241	0.43202823
681.434	0.4320728
681.627	0.43222197
681.821	0.43221521
682.014	0.43237906
682.207	0.43221763
682.4	0.43213224
682.593	0.4321558
682.786	0.43206373
682.98	0.43200119
683.173	0.43201696
683.366	0.4319041
683.559	0.43188306
683.752	0.4319361
683.945	0.4319236
684.138	0.43203224
684.331	0.43197495
684.524	0.43199533
684.717	0.43188708
684.91	0.43197752
685.103	0.43191363
685.296	0.43193782
685.489	0.43196414
685.682	0.43196231
685.874	0.43205395
686.067	0.43216689
686.26	0.43209073
686.453	0.43202644
686.646	0.43186568
686.839	0.43177918
687.031	0.43176078
687.224	0.43144759
687.417	0.4314254
687.61	0.43129681
687.802	0.43122527
687.995	0.4312756
688.188	0.43121116
688.38	0.43117989
688.573	0.43125166
688.766	0.4311369
688.958	0.43106786
689.151	0.43099675
689.343	0.43095052
689.536	0.43088635
689.729	0.43077003
689.921	0.43073227
690.114	0.43060152
690.306	0.43061415
690.499	0.43063123
690.691	0.43060465
690.884	0.43059902
691.076	0.43062435
691.268	0.43051417
691.461	0.43043898
691.653	0.43044569
691.846	0.43045738
692.038	0.43036236
692.23	0.43014074
692.423	0.43007698
692.615	0.43003423
692.807	0.43008808
692.999	0.43002275
693.192	0.42985669
693.384	0.42981205
693.576	0.42975511
693.768	0.42971356
693.961	0.42955803
694.153	0.42940638
694.345	0.42917497
694.537	0.42910714
694.729	0.42900614
694.921	0.42899919
695.113	0.4290045
695.305	0.42905251
695.498	0.42899786
695.69	0.42906429
695.882	0.42899709
696.074	0.42892294
696.266	0.42877041
696.458	0.42852203
696.65	0.42844494
696.842	0.42836484
697.033	0.42831429
697.225	0.42821968
697.417	0.42821647
697.609	0.42826069
697.801	0.42827899
697.993	0.42822395
698.185	0.42817317
698.376	0.42810563
698.568	0.42801425
698.76	0.42794964
698.952	0.42785777
699.144	0.42776353
699.335	0.42769962
699.527	0.42758474
699.719	0.42751274
699.91	0.4275612
700.102	0.4274219
700.294	0.42732548
700.485	0.42722454
700.677	0.42705256
700.869	0.42706605
701.06	0.42703933
701.252	0.4269185
701.443	0.42687202
701.635	0.42683324
701.826	0.42680808
702.018	0.42688062
702.209	0.42676138
702.401	0.42657328
702.592	0.4264935
702.784	0.42640547
702.975	0.42629168
703.166	0.42610319
703.358	0.4258554
703.549	0.42583337
703.741	0.4257771
703.932	0.42568799
704.123	0.42561002
704.315	0.42550624
704.506	0.42561113
704.697	0.4256087
704.888	0.42558554
705.08	0.42550217
705.271	0.42543192
705.462	0.42525019
705.653	0.42512739
705.844	0.42492199
706.035	0.42473956
706.227	0.4245191
706.418	0.42441116
706.609	0.42434337
706.8	0.42442406
706.991	0.42446577
707.182	0.42454792
707.373	0.4245282
707.564	0.42452606
707.755	0.42443091
707.946	0.4242568
708.137	0.42401418
708.328	0.42385098
708.519	0.42368163
708.71	0.42366157
708.901	0.4235287
709.092	0.42352002
709.283	0.42351394
709.473	0.42349779
709.664	0.42342855
709.855	0.42324403
710.046	0.4231524
710.237	0.42303936
710.427	0.42287551
710.618	0.42277046
710.809	0.42266028
711	0.42265669
711.19	0.4226132
711.381	0.4226633
711.572	0.42263494
711.762	0.42265895
711.953	0.42257118
712.144	0.4225143
712.334	0.42236044
712.525	0.42234469
712.715	0.4221452
712.906	0.42202599
713.097	0.42185241
713.287	0.42176475
713.478	0.42176124
713.668	0.42181511
713.859	0.42176804
714.049	0.42165466
714.239	0.42162623
714.43	0.42164341
714.62	0.42154109
714.811	0.42144112
715.001	0.42128397
715.191	0.42116612
715.382	0.421086
715.572	0.42108558
715.762	0.42096599
715.953	0.421016
716.143	0.4209903
716.333	0.42092005
716.523	0.4208375
716.714	0.42086724
716.904	0.42075225
717.094	0.42070048
717.284	0.42049597
717.474	0.42035968
717.664	0.42037029
717.855	0.42031075
718.045	0.42016583
718.235	0.42010804
718.425	0.42015729
718.615	0.42031598
718.805	0.42040575
718.995	0.42042412
719.185	0.42051582
719.375	0.42057413
719.565	0.4205581
719.755	0.42041433
719.945	0.42035617
720.135	0.42031421
720.325	0.42019941
720.515	0.42011221
720.704	0.42009252
720.894	0.42016931
721.084	0.42015343
721.274	0.42009902
721.464	0.42009257
721.654	0.42014908
721.843	0.42016144
722.033	0.42012036
722.223	0.42000218
722.413	0.4200918
722.602	0.42012614
722.792	0.42002515
722.982	0.41997087
723.171	0.42003047
723.361	0.42006059
723.55	0.42018982
723.74	0.42015545
723.93	0.42012774
724.119	0.42018761
724.309	0.42019591
724.498	0.42004946
724.688	0.4200448
724.877	0.41991599
725.067	0.41987387
725.256	0.41976722
725.446	0.41964014
725.635	0.41946285
725.825	0.41940567
726.014	0.41936886
726.203	0.41933391
726.393	0.41920593
726.582	0.41912904
726.771	0.41911498
726.961	0.41910219
727.15	0.41901983
727.339	0.4188808
727.529	0.4188921
727.718	0.4189219
727.907	0.41885971
728.096	0.41876747
728.286	0.41876664
728.475	0.41873582
728.664	0.41872738
728.853	0.41853061
729.042	0.41837301
729.231	0.41837019
729.42	0.41830885
729.609	0.41820587
729.799	0.41808045
729.988	0.41798819
730.177	0.41790414
730.366	0.41790248
730.555	0.41780229
730.744	0.41772517
730.933	0.41770262
731.122	0.41780736
731.31	0.41780385
731.499	0.41788428
731.688	0.41785089
731.877	0.41780038
732.066	0.41777666
732.255	0.41765526
732.444	0.41754235
732.632	0.41742493
732.821	0.41730114
733.01	0.41724671
733.199	0.41710069
733.388	0.41706697
733.576	0.41710034
733.765	0.41704445
733.954	0.41705675
734.142	0.41701408
734.331	0.41695868
734.52	0.4170711
734.708	0.41703618
734.897	0.41699314
735.086	0.41693098
735.274	0.4167924
735.463	0.41678375
735.651	0.41683939
735.84	0.41682672
736.028	0.41685094
736.217	0.41688531
736.405	0.41698445
736.594	0.41710159
736.782	0.41710387
736.971	0.41706024
737.159	0.41697443
737.347	0.41691185
737.536	0.4168007
737.724	0.41672626
737.912	0.4165874
738.101	0.41656413
738.289	0.41653789
738.477	0.41655014
738.666	0.41653839
738.854	0.41662986
739.042	0.41672159
739.23	0.41671175
739.418	0.41670658
739.607	0.41664995
739.795	0.41663814
739.983	0.41670763
740.171	0.4166719
740.359	0.41657335
740.547	0.41660763
740.735	0.4166104
740.923	0.41668454
741.112	0.416672
741.3	0.41661858
741.488	0.41656419
741.676	0.41663672
741.864	0.41663626
742.052	0.4167373
742.239	0.41660312
742.427	0.41663996
742.615	0.41659572
742.803	0.41658872
742.991	0.41645828
743.179	0.41651715
743.367	0.41642019
743.555	0.41657731
743.742	0.41660266
743.93	0.41678814
744.118	0.41694184
744.306	0.41703572
744.494	0.41702791
744.681	0.4170735
744.869	0.41702228
745.057	0.41701866
745.244	0.41692149
745.432	0.41692232
745.62	0.41694519
745.807	0.41701342
745.995	0.41702319
746.182	0.41705721
746.37	0.41712916
746.558	0.41717709
746.745	0.41711476
746.933	0.41711687
747.12	0.41712279
747.308	0.4172111
747.495	0.41720979
747.683	0.4171451
747.87	0.41706946
748.057	0.41712304
748.245	0.41721244
748.432	0.41725829
748.62	0.41723375
748.807	0.41733155
748.994	0.41743688
749.182	0.41757915
749.369	0.41757987
749.556	0.4176405
749.743	0.41768616
749.931	0.41775464
750.118	0.41783491
750.305	0.417896
750.492	0.41783528
750.68	0.41796505
750.867	0.41794091
751.054	0.41791695
751.241	0.41793602
751.428	0.41794921
751.615	0.41794884
751.802	0.41806933
751.989	0.41802529
752.176	0.4181364
752.363	0.41826222
752.55	0.41828178
752.737	0.41831909
752.924	0.4182709
753.111	0.41827346
753.298	0.41825938
753.485	0.41817327
753.672	0.41814681
753.859	0.41819036
754.046	0.4182286
754.233	0.41829667
754.42	0.41843865
754.606	0.41854997
754.793	0.41865858
754.98	0.41878359
755.167	0.41879257
755.353	0.41885596
755.54	0.41900453
755.727	0.41906296
755.914	0.41907349
756.1	0.41906655
756.287	0.41893756
756.474	0.41895767
756.66	0.41899762
756.847	0.41905866
757.033	0.41901752
757.22	0.41906719
757.407	0.41920166
757.593	0.41941162
757.78	0.41949621
757.966	0.41955022
758.153	0.41952921
758.339	0.41952128
758.526	0.41964187
758.712	0.41961414
758.898	0.41972414
759.085	0.41973225
759.271	0.41979517
759.458	0.41983571
759.644	0.41999137
759.83	0.42004208
760.017	0.42018313
760.203	0.42021968
760.389	0.42039338
760.576	0.42047832
760.762	0.42066685
760.948	0.42066978
761.134	0.42074132
761.32	0.42072249
761.507	0.4206538
761.693	0.42078878
761.879	0.42086657
762.065	0.42091619
762.251	0.42103593
762.437	0.42110777
762.623	0.42120992
762.809	0.42130455
762.995	0.42132102
763.181	0.42127259
763.367	0.42133689
763.553	0.42141118
763.739	0.42151194
763.925	0.42155798
764.111	0.42174376
764.297	0.42182093
764.483	0.4218593
764.669	0.42179653
764.855	0.42176992
765.041	0.4218515
765.227	0.42200805
765.412	0.42209469
765.598	0.42216461
765.784	0.42234571
765.97	0.42248908
766.156	0.42271477
766.341	0.42281221
766.527	0.42279202
766.713	0.42277371
766.898	0.42280026
767.084	0.42280422
767.27	0.42278056
767.455	0.422649
767.641	0.42259723
767.827	0.42260122
768.012	0.42264576
768.198	0.42275192
768.383	0.42279557
768.569	0.42298662
768.754	0.42315145
768.94	0.42328796
769.125	0.42347017
769.311	0.42352849
769.496	0.42349065
769.682	0.42356097
769.867	0.42360957
770.052	0.42373001
770.238	0.42368655
770.423	0.42365302
770.608	0.42368813
770.794	0.42383587
770.979	0.42391158
771.164	0.42403474
771.35	0.42412154
771.535	0.42427001
771.72	0.42435533
771.905	0.42455823
772.09	0.42458949
772.276	0.42482076
772.461	0.42480852
772.646	0.42481046
772.831	0.42489891
773.016	0.42513543
773.201	0.42518433
773.386	0.42536524
773.571	0.42538034
773.756	0.42553346
773.941	0.42562394
774.126	0.42576355
774.311	0.42571611
774.496	0.42577943
774.681	0.42577808
774.866	0.42580856
775.051	0.42577725
775.236	0.42577898
775.421	0.42561467
775.606	0.42556559
775.791	0.42551328
775.976	0.42547595
776.16	0.42545763
776.345	0.42558016
776.53	0.42568797
776.715	0.42587629
776.899	0.42603358
777.084	0.4261374
777.269	0.4262327
777.454	0.42632762
777.638	0.42627935
777.823	0.42625904
778.008	0.4262454
778.192	0.42629143
778.377	0.42636603
778.561	0.42642238
778.746	0.42650264
778.931	0.42663497
779.115	0.42682334
779.3	0.42692887
779.484	0.42706791
779.669	0.42705026
779.853	0.42713807
780.037	0.42721206
780.222	0.4271961
780.406	0.42721148
780.591	0.42733112
780.775	0.42734582
780.959	0.42746133
781.144	0.42759882
781.328	0.42756464
781.512	0.42763171
781.697	0.42765866
781.881	0.42768489
782.065	0.42772512
782.249	0.42777439
782.434	0.42781596
782.618	0.42800312
782.802	0.42822804
782.986	0.42840844
783.17	0.42860064
783.354	0.42868464
783.539	0.42879426
783.723	0.42868106
783.907	0.42866314
784.091	0.42865402
784.275	0.42866792
784.459	0.42857035
784.643	0.42870907
784.827	0.42871128
785.011	0.42891252
785.195	0.42907454
785.379	0.42915604
785.563	0.42923855
785.747	0.4293608
785.93	0.42945055
786.114	0.42951886
786.298	0.42944963
786.482	0.42935873
786.666	0.42931661
786.85	0.42924049
787.033	0.42925899
787.217	0.42924902
787.401	0.42929694
787.585	0.42940856
787.768	0.42956828
787.952	0.42958383
788.136	0.42962077
788.319	0.42968249
788.503	0.42960458
788.687	0.42958935
788.87	0.42962203
789.054	0.4296872
789.237	0.42980592
789.421	0.42988929
789.605	0.42978238
789.788	0.42979366
789.972	0.42985936
790.155	0.42979619
790.338	0.4296931
790.522	0.42969696
790.705	0.42967278
790.889	0.42977161
791.072	0.4299637
791.256	0.43007531
791.439	0.4301913
791.622	0.43027787
791.806	0.4304214
791.989	0.43046343
792.172	0.43053017
792.355	0.43045097
792.539	0.43042684
792.722	0.43040625
792.905	0.43030709
793.088	0.43012184
793.271	0.43016216
793.455	0.43018681
793.638	0.43021917
793.821	0.43020173
794.004	0.43024468
794.187	0.43045058
794.37	0.43067274
794.553	0.43085237
794.736	0.4309241
794.919	0.43094776
795.102	0.43100871
795.285	0.43107637
795.468	0.43099994
795.651	0.43092279
795.834	0.43089786
796.017	0.4308634
796.2	0.43083494
796.383	0.43077681
796.566	0.43087285
796.749	0.43101139
796.931	0.43121926
797.114	0.43121828
797.297	0.43134903
797.48	0.43148544
797.663	0.43166546
797.845	0.43173689
798.028	0.43186502
798.211	0.4318533
798.393	0.43179012
798.576	0.43171297
798.759	0.4315698
798.941	0.43149396
799.124	0.43148258
799.307	0.43143187
799.489	0.43135614
799.672	0.43145884
799.854	0.43153978
800.037	0.43171866
800.219	0.43195518
800.402	0.43206815
800.584	0.43210137
800.767	0.43220358
800.949	0.43228321
801.132	0.43237452
801.314	0.43241854
801.496	0.43237004
801.679	0.43229294
801.861	0.43225739
802.043	0.43207736
802.226	0.43198441
802.408	0.43191273
802.59	0.43187889
802.772	0.4318891
802.955	0.43193578
803.137	0.4319475
803.319	0.43211538
803.501	0.43223233
803.684	0.43236329
803.866	0.43232924
804.048	0.43229461
804.23	0.43220469
804.412	0.43219535
804.594	0.43208544
804.776	0.43216417
804.958	0.43200827
805.14	0.4320898
805.322	0.43205855
805.504	0.43218186
805.686	0.43215647
805.868	0.43229396
806.05	0.4322149
806.232	0.43228591
806.414	0.43240989
806.596	0.43240799
806.778	0.43236218
806.96	0.43248932
807.141	0.43244167
807.323	0.4324711
807.505	0.43245315
807.687	0.43235665
807.869	0.43232705
808.05	0.43226104
808.232	0.43211947
808.414	0.4320939
808.595	0.43200767
808.777	0.43197026
808.959	0.43196431
809.14	0.43199373
809.322	0.43200789
809.504	0.43208372
809.685	0.43226217
809.867	0.43222771
810.048	0.43225537
810.23	0.43224483
810.411	0.4322254
810.593	0.43224236
810.774	0.43217982
810.956	0.43195136
811.137	0.43197933
811.319	0.43191459
811.5	0.43184535
811.681	0.43186997
811.863	0.43179297
812.044	0.4318062
812.225	0.43189565
812.407	0.43192798
812.588	0.43193974
812.769	0.4319227
812.951	0.43192213
813.132	0.43198949
813.313	0.43208988
813.494	0.43202234
813.675	0.43201263
813.857	0.43206644
814.038	0.432137
814.219	0.4320457
814.4	0.43191418
814.581	0.43186054
814.762	0.43176015
814.943	0.43172455
815.124	0.43163194
815.305	0.43165562
815.486	0.4317998
815.667	0.43197475
815.848	0.43189726
816.029	0.4320061
816.21	0.4320193
816.391	0.4320743
816.572	0.43191282
816.753	0.4318526
816.934	0.43171993
817.115	0.43162867
817.295	0.43151402
817.476	0.43129503
817.657	0.43116817
817.838	0.43127427
818.019	0.43113141
818.199	0.43104199
818.38	0.43102516
818.561	0.43097632
818.741	0.43095269
818.922	0.43087437
819.103	0.43076497
819.283	0.43081508
819.464	0.43087634
819.645	0.43093757
819.825	0.43105771
820.006	0.43114952
820.186	0.43117014
820.367	0.43109084
820.547	0.430801
820.728	0.43058901
820.908	0.4303183
821.089	0.43016848
821.269	0.43009693
821.45	0.43013783
821.63	0.43009144
821.81	0.43030832
821.991	0.43049859
822.171	0.43059211
822.351	0.43065653
822.532	0.43062225
822.712	0.43047127
822.892	0.43033173
823.072	0.4301417
823.253	0.42996548
823.433	0.42979917
823.613	0.4295149
823.793	0.42933904
823.973	0.42929069
824.154	0.42927115
824.334	0.42920556
824.514	0.42902778
824.694	0.42904682
824.874	0.42894103
825.054	0.42894088
825.234	0.42885066
825.414	0.42885107
825.594	0.42886946
825.774	0.42888863
825.954	0.42877779
826.134	0.42879159
826.314	0.4287777
826.494	0.4288309
826.674	0.42863541
826.854	0.42842138
827.033	0.42823035
827.213	0.42830423
827.393	0.4282254
827.573	0.42823394
827.753	0.42801143
827.932	0.4280476
828.112	0.42808093
828.292	0.42821641
828.472	0.42804198
828.651	0.42814809
828.831	0.4279631
829.011	0.42793817
829.19	0.42784196
829.37	0.42788167
829.549	0.42780092
829.729	0.42779255
829.909	0.42764607
830.088	0.42750451
830.268	0.42735966
830.447	0.42733325
830.627	0.42725166
830.806	0.42716455
830.986	0.4269406
831.165	0.42695073
831.344	0.42697388
831.524	0.42699885
831.703	0.42688971
831.883	0.42663535
832.062	0.42644438
832.241	0.42638271
832.421	0.42616976
832.6	0.42608259
832.779	0.42595003
832.958	0.42581561
833.138	0.42569729
833.317	0.42578747
833.496	0.42573097
833.675	0.42562713
833.854	0.42573039
834.034	0.42568554
834.213	0.42561368
834.392	0.42558778
834.571	0.42521521
834.75	0.42503064
834.929	0.42482352
835.108	0.42439244
835.287	0.42437656
835.466	0.42439418
835.645	0.42437904
835.824	0.42441725
836.003	0.42448744
836.182	0.42459493
836.361	0.42457008
836.54	0.42434397
836.719	0.42411689
836.897	0.4239658
837.076	0.4238714
837.255	0.42371917
837.434	0.42359586
837.613	0.42353015
837.791	0.42346429
837.97	0.42338274
838.149	0.42323115
838.328	0.42311757
838.506	0.42291016
838.685	0.42281733
838.864	0.42283023
839.042	0.42270343
839.221	0.42266097
839.4	0.42265922
839.578	0.42264511
839.757	0.42252018
839.935	0.42221778
840.114	0.42197053
840.292	0.42190709
840.471	0.42186241
840.649	0.42169522
840.828	0.42143541
841.006	0.42141479
841.185	0.4213439
841.363	0.42136196
841.541	0.42116541
841.72	0.42107182
841.898	0.42102916
842.076	0.42109518
842.255	0.42108676
842.433	0.42111315
842.611	0.4208013
842.789	0.42061965
842.968	0.420519
843.146	0.42027858
843.324	0.419993
843.502	0.41972833
843.68	0.41961143
843.859	0.41960434
844.037	0.41949625
844.215	0.41913756
844.393	0.41909278
844.571	0.41905352
844.749	0.41908941
844.927	0.41888537
845.105	0.41868072
845.283	0.41854301
845.461	0.41848361
845.639	0.41830677
845.817	0.41804633
845.995	0.41783351
846.173	0.41774075
846.351	0.41752464
846.529	0.41733316
846.706	0.41712108
846.884	0.41700094
847.062	0.41678343
847.24	0.41657931
847.418	0.41621728
847.595	0.41605515
847.773	0.4159598
847.951	0.41586241
848.129	0.41573653
848.306	0.41594531
848.484	0.41595074
848.662	0.41615764
848.839	0.4163012
849.017	0.41628316
849.194	0.41608723
849.372	0.41592869
849.549	0.41557739
849.727	0.4153738
849.905	0.41491217
850.082	0.41460767
850.26	0.41443682
850.437	0.41433669
850.614	0.41421098
850.792	0.41409948
850.969	0.41408538
851.147	0.4142785
851.324	0.41431154
851.501	0.41430548
851.679	0.41428203
851.856	0.41420393
852.033	0.41423032
852.211	0.41400862
852.388	0.41372711
852.565	0.41369349
852.742	0.4135548
852.92	0.41346249
853.097	0.41333564
853.274	0.41316148
853.451	0.41282984
853.628	0.41266329
853.805	0.41220325
853.982	0.41184604
854.159	0.41156354
854.336	0.41130475
854.514	0.4110279
854.691	0.41109012
854.868	0.41093454
855.045	0.41088309
855.221	0.41095323
855.398	0.41083363
855.575	0.41069268
855.752	0.41055406
855.929	0.41052612
856.106	0.41037966
856.283	0.41023421
856.46	0.41007354
856.637	0.41002882
856.813	0.40986113
856.99	0.4097182
857.167	0.40932753
857.344	0.40911043
857.52	0.40888287
857.697	0.408404
857.874	0.40804996
858.05	0.40784706
858.227	0.40755121
858.404	0.4074118
858.58	0.4074351
858.757	0.40729376
858.933	0.40742991
859.11	0.40745113
859.287	0.40734613
859.463	0.40732221
859.64	0.40736056
859.816	0.40711732
859.993	0.40702366
860.169	0.40686764
860.345	0.40672773
860.522	0.40664079
860.698	0.40645583
860.875	0.40616643
861.051	0.40610567
861.227	0.40580796
861.404	0.40559896
861.58	0.40533226
861.756	0.40521892
861.932	0.40514517
862.109	0.40482223
862.285	0.40453579
862.461	0.40468135
862.637	0.40451133
862.813	0.40432696
862.99	0.40394648
863.166	0.40360161
863.342	0.4036761
863.518	0.403411
863.694	0.40313431
863.87	0.40283056
864.046	0.40255415
864.222	0.40258838
864.398	0.40251052
864.574	0.40215033
864.75	0.40204709
864.926	0.40189155
865.102	0.40195554
865.278	0.40182374
865.454	0.40166304
865.63	0.40158421
865.805	0.401468
865.981	0.40148078
866.157	0.40125993
866.333	0.40095605
866.509	0.40101192
866.684	0.40075065
866.86	0.40068725
867.036	0.40055577
867.212	0.40007516
867.387	0.39980471
867.563	0.39958591
867.739	0.399256
867.914	0.39903189
868.09	0.39859006
868.265	0.39830174
868.441	0.39821146
868.617	0.39816375
868.792	0.39824378
868.968	0.39811615
869.143	0.39827011
869.319	0.39841018
869.494	0.39841276
869.67	0.39831874
869.845	0.39826247
870.02	0.39806033
870.196	0.39792804
870.371	0.39754696
870.546	0.39719195
870.722	0.39698441
870.897	0.39679997
871.072	0.39645163
871.248	0.39613934
871.423	0.39585589
871.598	0.39559451
871.773	0.39521656
871.949	0.39487475
872.124	0.39479855
872.299	0.39462656
872.474	0.39444518
872.649	0.39438225
872.824	0.39425758
872.999	0.39427694
873.174	0.39434057
873.349	0.39418256
873.524	0.39414905
873.699	0.39410704
873.874	0.39392442
874.049	0.39374468
874.224	0.3935747
874.399	0.39317092
874.574	0.3930433
874.749	0.3927105
874.924	0.39240953
875.099	0.39208555
875.274	0.391846
875.449	0.39167484
875.623	0.39148163
875.798	0.39102215
875.973	0.39077643
876.148	0.39036954
876.322	0.39020607
876.497	0.39000692
876.672	0.3897283
876.846	0.38964523
877.021	0.38973092
877.196	0.3893071
877.37	0.38936747
877.545	0.38950617
877.72	0.38951672
877.894	0.38934323
878.069	0.38899588
878.243	0.38849965
878.418	0.38856776
878.592	0.38820483
878.767	0.38766404
878.941	0.38745632
879.116	0.38726221
879.29	0.38714732
879.464	0.38696718
879.639	0.3867397
879.813	0.38670121
879.987	0.38661157
880.162	0.3862941
880.336	0.38613797
880.51	0.38620261
880.685	0.38624774
880.859	0.3861021
881.033	0.3859885
881.207	0.38557862
881.381	0.38532243
881.556	0.384977
881.73	0.38432932
881.904	0.38411819
882.078	0.38392491
882.252	0.38363149
882.426	0.38353205
882.6	0.38328679
882.774	0.38324562
882.948	0.38320105
883.122	0.38279291
883.296	0.38244158
883.47	0.38234077
883.644	0.38229916
883.818	0.38202272
883.992	0.381837
884.166	0.38203726
884.34	0.38213393
884.514	0.38233044
884.687	0.38211322
884.861	0.38181663
885.035	0.38192987
885.209	0.38181792
885.382	0.38144975
885.556	0.38114039
885.73	0.38095391
885.904	0.38084388
886.077	0.38059968
886.251	0.380478
886.425	0.38038158
886.598	0.38016773
886.772	0.37990033
886.945	0.37938382
887.119	0.37889744
887.292	0.37887922
887.466	0.37861447
887.64	0.37820838
887.813	0.37802603
887.986	0.37799518
888.16	0.37820521
888.333	0.37813646
888.507	0.37780367
888.68	0.37750533
888.854	0.37729965
889.027	0.37693351
889.2	0.37689975
889.374	0.37653456
889.547	0.37635854
889.72	0.3764537
889.893	0.37624172
890.067	0.37591105
890.24	0.37577557
890.413	0.37518961
890.586	0.37463164
890.759	0.37465469
890.933	0.37428041
891.106	0.37405485
891.279	0.37413576
891.452	0.37409604
891.625	0.37394699
891.798	0.37400102
891.971	0.37362308
892.144	0.37344602
892.317	0.37343852
892.49	0.37308531
892.663	0.37294144
892.836	0.37311144
893.009	0.37312919
893.182	0.37283174
893.355	0.37278637
893.527	0.37261314
893.7	0.37295788
893.873	0.37281419
894.046	0.37243058
894.219	0.37229276
894.391	0.37241244
894.564	0.37235424
894.737	0.37211712
894.91	0.37156444
895.082	0.3713262
895.255	0.37112502
895.428	0.37093633
895.6	0.37050371
895.773	0.36994866
895.945	0.3696347
896.118	0.36945087
896.291	0.36914554
896.463	0.36908603
896.636	0.36862854
896.808	0.36847561
896.981	0.36852466
897.153	0.36840701
897.326	0.3683134
897.498	0.36801219
897.67	0.36754297
897.843	0.36735977
898.015	0.36732595
898.187	0.36715513
898.36	0.36678647
898.532	0.36617929
898.704	0.36627609
898.877	0.36629285
899.049	0.36627516
899.221	0.36630031
899.393	0.3660938
899.566	0.3661808
899.738	0.36659268
899.91	0.36653995
900.082	0.36645105
900.254	0.36628164
900.426	0.36594835
900.598	0.3657518
900.77	0.36541567
900.942	0.36497127
901.114	0.36446087
901.286	0.3641446
901.458	0.36386567
901.63	0.3634861
901.802	0.36337938
901.974	0.3634092
902.146	0.36335503
902.318	0.36330762
902.49	0.36303835
902.662	0.36270183
902.834	0.36251959
903.005	0.3625682
903.177	0.36241863
903.349	0.36229916
903.521	0.36208576
903.693	0.36212009
903.864	0.36212489
904.036	0.3620725
904.208	0.3613394
904.379	0.36110308
904.551	0.36099724
904.723	0.36093858
904.894	0.36063392
905.066	0.36048294
905.237	0.3603815
905.409	0.36045184
905.58	0.36048086
905.752	0.3601181
905.923	0.35986823
906.095	0.35969465
906.266	0.35946262
906.438	0.35932913
906.609	0.35920642
906.78	0.35880629
906.952	0.35866904
907.123	0.35822829
907.295	0.3582546
907.466	0.35816715
907.637	0.35791472
907.808	0.35761758
907.98	0.35727032
908.151	0.35696481
908.322	0.35714607
908.493	0.35665842
908.665	0.3563906
908.836	0.35606002
909.007	0.35597006
909.178	0.35558938
909.349	0.35526332
909.52	0.35515159
909.691	0.35489693
909.862	0.35487947
910.033	0.35474306
910.204	0.35467045
910.375	0.35489832
910.546	0.35503952
910.717	0.35468982
910.888	0.35483497
911.059	0.35462834
911.23	0.35453318
911.401	0.35416959
911.572	0.3538961
911.742	0.35347711
911.913	0.35329399
912.084	0.35289304
912.255	0.35271319
912.426	0.35240083
912.596	0.35220938
912.767	0.35209706
912.938	0.35212933
913.108	0.35218946
913.279	0.35213687
913.45	0.35198738
913.62	0.35212649
913.791	0.3521558
913.962	0.35206133
914.132	0.35180817
914.303	0.35150413
914.473	0.35146695
914.644	0.35122893
914.814	0.35082731
914.985	0.35057212
915.155	0.35043368
915.326	0.35017261
915.496	0.34988534
915.666	0.34953227
915.837	0.34963139
916.007	0.34923395
916.177	0.34883263
916.348	0.34876092
916.518	0.34883318
916.688	0.34876851
916.858	0.34863875
917.029	0.34802516
917.199	0.34825703
917.369	0.34859532
917.539	0.34850529
917.709	0.34829545
917.88	0.34796165
918.05	0.34764795
918.22	0.34771001
918.39	0.34734639
918.56	0.3470252
918.73	0.34663278
918.9	0.34643168
919.07	0.34626899
919.24	0.34635146
919.41	0.34624576
919.58	0.34591172
919.75	0.34563237
919.92	0.34507404
920.09	0.34493698
920.26	0.34474963
920.429	0.34448115
920.599	0.34409578
920.769	0.34392172
920.939	0.3434733
921.109	0.34343775
921.278	0.34288731
921.448	0.34270313
921.618	0.34274227
921.787	0.3427251
921.957	0.3425997
922.127	0.34228412
922.296	0.34247127
922.466	0.34261375
922.636	0.34275427
922.805	0.34253241
922.975	0.34228965
923.144	0.34223258
923.314	0.34229477
923.483	0.34191309
923.653	0.34171086
923.822	0.34138352
923.992	0.34119577
924.161	0.34084134
924.331	0.34064631
924.5	0.34057812
924.669	0.34022687
924.839	0.34009297
925.008	0.33978291
925.177	0.33909114
925.347	0.33915465
925.516	0.33904804
925.685	0.3387877
925.854	0.33900801
926.023	0.33874226
926.193	0.33878402
926.362	0.33890581
926.531	0.33864469
926.7	0.33841641
926.869	0.33857735
927.038	0.33786594
927.207	0.33765983
927.376	0.3370878
927.545	0.33691632
927.715	0.33661647
927.884	0.33643157
928.052	0.3362733
928.221	0.3360304
928.39	0.33564954
928.559	0.33567322
928.728	0.33570639
928.897	0.33592766
929.066	0.33594807
929.235	0.33512276
929.404	0.33531817
929.572	0.33538895
929.741	0.33538958
929.91	0.33514033
930.079	0.33453302
930.247	0.33417325
930.416	0.33441649
930.585	0.33415971
930.753	0.33403531
930.922	0.33378018
931.091	0.33375428
931.259	0.33390842
931.428	0.33409888
931.596	0.33408393
931.765	0.33437942
931.934	0.33452449
932.102	0.33391588
932.27	0.33356537
932.439	0.33309748
932.607	0.33246391
932.776	0.33247608
932.944	0.33202222
933.113	0.33188378
933.281	0.33188921
933.449	0.33146506
933.618	0.331351
933.786	0.33158387
933.954	0.33090854
934.123	0.33071111
934.291	0.33032681
934.459	0.33024985
934.627	0.33043055
934.795	0.33061052
934.964	0.33026181
935.132	0.3297679
935.3	0.32927595
935.468	0.32873624
935.636	0.32916131
935.804	0.32854239
935.972	0.32805935
936.14	0.32764962
936.308	0.32794161
936.476	0.32856065
936.644	0.32887944
936.812	0.32824585
936.98	0.32828842
937.148	0.32774334
937.316	0.32690737
937.484	0.32748959
937.652	0.3259838
937.82	0.32623908
937.987	0.32591786
938.155	0.32615434
938.323	0.32653909
938.491	0.32645241
938.658	0.32642854
938.826	0.32661195
938.994	0.32568092
939.162	0.32591171
939.329	0.32641214
939.497	0.32750287
939.665	0.32813568
939.832	0.32822129
940	0.32937577
940.167	0.33006921
940.335	0.32851144
940.502	0.32731292
940.67	0.32597279
940.837	0.3273746
941.005	0.32645825
941.172	0.32550645
941.34	0.32560082
941.507	0.33007268
941.674	0.33211385
941.842	0.33303166
942.009	0.3341617
942.177	0.33116372
942.344	0.33379019
942.511	0.33227385
942.678	0.33019462
942.846	0.32793199
943.013	0.32727539
943.18	0.32550454
943.347	0.32947543
943.514	0.32775553
943.682	0.33120565
943.849	0.32882245
944.016	0.32654805
944.183	0.32635309
944.35	0.32686864
944.517	0.32738514
944.684	0.32874662
944.851	0.32117785
945.018	0.32152054
945.185	0.32407839
945.352	0.3236108
945.519	0.32211205
945.686	0.3205034
945.853	0.32202953
946.02	0.32360417
946.187	0.32306253
946.353	0.32485857
946.52	0.32536982
946.687	0.32504669
946.854	0.3259127
947.021	0.32268614
947.187	0.32320389
947.354	0.32249027
947.521	0.32035644
947.687	0.31897108
947.854	0.32023213
948.021	0.31780095
948.187	0.31746254
948.354	0.31801862
948.52	0.31857165
948.687	0.31924796
948.854	0.32102244
949.02	0.31785034
949.187	0.31841069
949.353	0.31813282
949.52	0.31600527
949.686	0.31639941
949.852	0.31638327
950.019	0.31662166
950.185	0.31906666
950.352	0.31866344
950.518	0.31719448
950.684	0.31978235
950.851	0.31962432
951.017	0.31743865
951.183	0.31552345
951.349	0.31402555
951.516	0.31188033
951.682	0.31288365
951.848	0.31154911
952.014	0.31045847
952.18	0.3114364
952.346	0.3112934
952.512	0.3115573
952.679	0.31411317
952.845	0.313019
953.011	0.31275546
953.177	0.31338963
953.343	0.31203155
953.509	0.31278725
953.675	0.31250627
953.841	0.31108802
954.007	0.31286275
954.172	0.31487843
954.338	0.31390693
954.504	0.31314141
954.67	0.31151129
954.836	0.31192995
955.002	0.31274256
955.167	0.31183222
955.333	0.30832975
955.499	0.30830865
955.665	0.30781064
955.83	0.30854881
955.996	0.3078932
956.162	0.3068306
956.327	0.30621935
956.493	0.30699175
956.659	0.30802783
956.824	0.30891026
956.99	0.30775209
957.155	0.30853626
957.321	0.30911199
957.486	0.30926354
957.652	0.30960279
957.817	0.30956306
957.983	0.30889984
958.148	0.30919922
958.314	0.30803395
958.479	0.30603191
958.644	0.30561359
958.81	0.30552317
958.975	0.30455804
959.14	0.3053066
959.306	0.30483767
959.471	0.30381097
959.636	0.30444572
959.801	0.30553178
959.967	0.30511476
960.132	0.30501605
960.297	0.30405926
960.462	0.30493
960.627	0.30566488
960.792	0.30496889
960.957	0.30365417
961.123	0.30411087
961.288	0.30381232
961.453	0.30439077
961.618	0.30376624
961.783	0.30370944
961.948	0.30340452
962.113	0.30225721
962.277	0.30086787
962.442	0.30048506
962.607	0.30004678
962.772	0.30009976
962.937	0.29847486
963.102	0.29877756
963.267	0.29952885
963.431	0.29991577
963.596	0.29969786
963.761	0.29874007
963.926	0.29746107
964.09	0.29856113
964.255	0.29882886
964.42	0.29896229
964.584	0.29977243
964.749	0.29954307
964.914	0.2990523
965.078	0.29869736
965.243	0.29776439
965.407	0.29656288
965.572	0.29583834
965.736	0.29494478
965.901	0.29593332
966.065	0.29781272
966.23	0.29815058
966.394	0.29963171
966.559	0.30038892
966.723	0.30030999
966.887	0.29969573
967.052	0.2979089
967.216	0.29604776
967.38	0.29452164
967.545	0.29301393
967.709	0.29306867
967.873	0.29361634
968.037	0.29341321
968.202	0.29329559
968.366	0.29397004
968.53	0.29559709
968.694	0.29519488
968.858	0.29422477
969.022	0.29238826
969.187	0.29148007
969.351	0.29171609
969.515	0.29143146
969.679	0.29038537
969.843	0.29011991
970.007	0.29009805
970.171	0.29151524
970.335	0.29256109
970.499	0.29260876
970.662	0.29270796
970.826	0.29331331
970.99	0.29401382
971.154	0.2945408
971.318	0.29391824
971.482	0.29246175
971.645	0.29271662
971.809	0.29317363
971.973	0.29305199
972.137	0.29268654
972.3	0.2924773
972.464	0.29260917
972.628	0.29459939
972.791	0.2945864
972.955	0.29404854
973.119	0.29362573
973.282	0.29297767
973.446	0.29277872
973.609	0.2924933
973.773	0.29142414
973.936	0.29076758
974.1	0.29028608
974.263	0.28975462
974.427	0.29009488
974.59	0.28956574
974.754	0.28929645
974.917	0.28874319
975.08	0.2885842
975.244	0.28789267
975.407	0.28846541
975.57	0.28767266
975.734	0.28714753
975.897	0.28727641
976.06	0.28771095
976.223	0.28761895
976.387	0.28863307
976.55	0.28776816
976.713	0.28825615
976.876	0.28873887
977.039	0.28753457
977.202	0.28741841
977.365	0.2865634
977.528	0.28624142
977.692	0.28698859
977.855	0.28538375
978.018	0.28426557
978.181	0.28514263
978.344	0.28449804
978.506	0.28508207
978.669	0.28424858
978.832	0.28314313
978.995	0.28425832
979.158	0.28580131
979.321	0.28474057
979.484	0.28411624
979.646	0.28363837
979.809	0.28416173
979.972	0.28351273
980.135	0.28360169
980.297	0.28228812
980.46	0.2821569
980.623	0.28360845
980.786	0.28374333
980.948	0.28317509
981.111	0.28315083
981.273	0.28274867
981.436	0.28232677
981.599	0.28302602
981.761	0.28165768
981.924	0.28236983
982.086	0.28199044
982.249	0.28327195
982.411	0.28309688
982.573	0.28362123
982.736	0.28476078
982.898	0.28415742
983.061	0.28296349
983.223	0.28266034
983.385	0.28102803
983.548	0.28219395
983.71	0.28213234
983.872	0.28101054
984.034	0.28137105
984.197	0.28072276
984.359	0.28137433
984.521	0.28345786
984.683	0.28335627
984.845	0.28372686
985.008	0.28221297
985.17	0.28340757
985.332	0.28544441
985.494	0.28397766
985.656	0.28331532
985.818	0.28110033
985.98	0.28083203
986.142	0.28018333
986.304	0.27898243
986.466	0.27663654
986.628	0.27698289
986.79	0.27653223
986.952	0.276586
987.113	0.27553804
987.275	0.27624633
987.437	0.27623368
987.599	0.27746552
987.761	0.27771957
987.922	0.27687153
988.084	0.27769542
988.246	0.27834698
988.408	0.27868999
988.569	0.27808484
988.731	0.27827643
988.893	0.27810171
989.054	0.280346
989.216	0.28043534
989.377	0.27910156
989.539	0.2783827
989.701	0.27762819
989.862	0.27577817
990.024	0.2746689
990.185	0.27198981
990.347	0.27172013
990.508	0.27154577
990.669	0.27268102
990.831	0.27352009
990.992	0.27581998
991.154	0.2754801
991.315	0.27832858
991.476	0.2790081
991.638	0.27949995
991.799	0.27852268
991.96	0.27872701
992.121	0.27886251
992.283	0.27993204
992.444	0.27724289
992.605	0.27476853
992.766	0.27517867
992.927	0.27446071
993.088	0.27448599
993.249	0.27295018
993.41	0.2718184
993.572	0.27199841
993.733	0.27350086
993.894	0.27234687
994.055	0.27049356
994.216	0.2694935
994.376	0.26763752
994.537	0.26895275
994.698	0.26829452
994.859	0.26721229
995.02	0.26812857
995.181	0.26687536
995.342	0.26744497
995.503	0.26807174
995.663	0.2675319
995.824	0.26740184
995.985	0.27096183
996.146	0.27135706
996.306	0.27390237
996.467	0.27433157
996.628	0.27621328
996.788	0.27547801
996.949	0.27810415
997.11	0.27416755
997.27	0.27221241
997.431	0.272624
997.591	0.26979055
997.752	0.26597983
997.912	0.26611379
998.073	0.26314532
998.233	0.26426566
998.394	0.2646694
998.554	0.26584803
998.714	0.26664272
998.875	0.26701384
999.035	0.2660433
999.196	0.26651797
999.356	0.2658694
999.516	0.26770417
999.676	0.26852255
999.837	0.27027229
999.997	0.26974466
1000.157	0.27039818
1000.317	0.26825297
1000.477	0.26673504
1000.638	0.26405636
1000.798	0.26299502
1000.958	0.26285467
1001.118	0.26506585
1001.278	0.26430724
1001.438	0.26589685
1001.598	0.26638817
1001.758	0.26883032
1001.918	0.26745627
1002.078	0.26392404
1002.238	0.26399841
1002.398	0.26628598
1002.558	0.26508118
1002.718	0.26501932
1002.878	0.26368662
1003.037	0.25971406
1003.197	0.26156393
1003.357	0.25804699
1003.517	0.25983019
1003.677	0.25703047
1003.836	0.25738957
1003.996	0.25637792
1004.156	0.2592952
1004.315	0.26090117
1004.475	0.26491272
1004.635	0.26484433
1004.794	0.26969734
1004.954	0.26910159
1005.114	0.26800747
1005.273	0.26899012
1005.433	0.26482999
1005.592	0.26457419
1005.752	0.26109506
1005.911	0.25947791
1006.071	0.26164682
1006.23	0.26021047
1006.389	0.25905093
1006.549	0.26000669
1006.708	0.25724398
1006.868	0.25555109
1007.027	0.25622208
1007.186	0.25620426
1007.345	0.2615472
1007.505	0.2626404
1007.664	0.26609435
1007.823	0.26865371
1007.982	0.27082626
1008.142	0.27113058
1008.301	0.26994467
1008.46	0.26647144
1008.619	0.26439184
1008.778	0.26231975
1008.937	0.25904951
1009.096	0.25913583
1009.255	0.26015016
1009.414	0.25565848
1009.573	0.25707626
1009.732	0.26199333
1009.891	0.26183511
1010.05	0.2649066
1010.209	0.26244502
1010.368	0.26183408
1010.527	0.26564384
1010.686	0.26688178
1010.845	0.26015067
1011.003	0.26107376
1011.162	0.26053584
1011.321	0.25781053
1011.48	0.25946461
1011.638	0.259364
1011.797	0.258069
1011.956	0.26196064
1012.115	0.26270474
1012.273	0.26069136
1012.432	0.26289384
1012.59	0.2574542
1012.749	0.25716195
1012.908	0.25516339
1013.066	0.25611646
1013.225	0.25211555
1013.383	0.25545038
1013.542	0.2547581
1013.7	0.25874732
1013.859	0.26030174
1014.017	0.26538519
1014.175	0.2611508
1014.334	0.26640266
1014.492	0.26889589
1014.65	0.2733809
1014.809	0.27396126
1014.967	0.2713713
1015.125	0.26862277
1015.284	0.27442435
1015.442	0.27141959
1015.6	0.26426977
1015.758	0.26150121
1015.916	0.25708462
1016.075	0.25742049
1016.233	0.25536297
1016.391	0.25478574
1016.549	0.25706664
1016.707	0.25868417
1016.865	0.26029742
1017.023	0.2561463
1017.181	0.25721523
1017.339	0.25688815
1017.497	0.25445896
1017.655	0.25220936
1017.813	0.25386534
1017.971	0.25580019
1018.129	0.26320436
1018.286	0.26342625
1018.444	0.25770146
1018.602	0.25940839
1018.76	0.25601792
1018.918	0.25413656
1019.075	0.25119112
1019.233	0.24949408
1019.391	0.24975276
1019.549	0.25921063
1019.706	0.25742862
1019.864	0.26044556
1020.022	0.26550932
1020.179	0.2705582
1020.337	0.27145827
1020.494	0.26785159
1020.652	0.26055734
1020.809	0.26134083
1020.967	0.25925253
1021.124	0.25507837
1021.282	0.25398133
1021.439	0.25203736
1021.597	0.25523103
1021.754	0.2597892
1021.911	0.26588745
1022.069	0.26384949
1022.226	0.26356016
1022.384	0.2538168
1022.541	0.25189103
1022.698	0.24687346
1022.855	0.24882627
1023.013	0.24721257
1023.17	0.24457433
1023.327	0.24322785
1023.484	0.25113379
1023.641	0.252185
1023.798	0.26641046
1023.956	0.26963443
1024.113	0.25653054
1024.27	0.25905111
1024.427	0.26278741
1024.584	0.2641229
1024.741	0.26402266
1024.898	0.25483378
1025.055	0.24459031
1025.212	0.24699279
1025.369	0.24194133
1025.525	0.2385643
1025.682	0.24029285
1025.839	0.24136662
1025.996	0.2412456
1026.153	0.25096305
1026.31	0.25758539
1026.466	0.27226231
1026.623	0.28097404
1026.78	0.27894465
1026.937	0.28320704
1027.093	0.28074093
1027.25	0.29044145
1027.407	0.28686842
1027.563	0.28376778
1027.72	0.27435815
1027.876	0.26063001
1028.033	0.26575626
1028.19	0.26611691
1028.346	0.24324364
1028.503	0.24486307
1028.659	0.25061649
1028.816	0.2612187
1028.972	0.27764097
1029.128	0.27783253
1029.285	0.27912397
1029.441	0.29083694
1029.598	0.28439276
1029.754	0.286271
1029.91	0.27143306
1030.067	0.26394451
1030.223	0.26237803
1030.379	0.25914484
1030.535	0.26505199
1030.691	0.26675154
1030.848	0.2720811
1031.004	0.28011319
1031.16	0.28747162
1031.316	0.30077991
1031.472	0.32245478
1031.628	0.30938068
1031.784	0.31027283
1031.94	0.30196205
1032.096	0.30995672
1032.252	0.3122075
1032.408	0.30518156
1032.564	0.28866479
1032.72	0.30913313
1032.876	0.30612282
1033.032	0.30226432
1033.188	0.29307564
1033.344	0.29410034
1033.5	0.29195531
1033.655	0.29680574
1033.811	0.2863281
1033.967	0.30514746
