Data from 0_1_mm_pl_40pc_Absorbance__0__15-26-25-762.txt Node

Date: Fri Feb 24 15:26:25 CET 2023
User: Ange
Spectrometer: FLMT08341
Trigger mode: 0
Integration Time (sec): 1.000000E-2
Scans to average: 400
Electric dark correction enabled: true
Nonlinearity correction enabled: false
Boxcar width: 3
XAxis mode: Wavelengths
Number of Pixels in Spectrum: 3648
>>>>>Begin Spectral Data<<<<<
345.271	0.02720273
345.487	0.01236698
345.704	0.00513932
345.921	-0.00009623
346.137	-0.00956598
346.354	-0.01565617
346.571	-0.05421258
346.787	-0.14158111
347.004	-0.04974425
347.22	-0.06078103
347.437	-0.20499612
347.653	-0.20700807
347.87	0.00874628
348.086	0.32684307
348.303	-0.1303466
348.519	0.706133
348.736	0.65589562
348.952	0.66400091
349.169	0.70122609
349.385	0.75141249
349.601	0.74603121
349.818	0.73447949
350.034	0.71685899
350.251	0.70706192
350.467	0.71864016
350.683	0.68714948
350.9	0.67936599
351.116	0.6660824
351.332	0.65173401
351.549	0.67204809
351.765	0.69777728
351.981	0.70373127
352.197	0.74183429
352.414	0.77499506
352.63	0.79900345
352.846	0.82588425
353.062	0.80340266
353.278	0.77319051
353.495	0.7929157
353.711	0.79269476
353.927	0.79699348
354.143	0.78291879
354.359	0.77019818
354.575	0.76879721
354.792	0.80710302
355.008	0.78419887
355.224	0.77076354
355.44	0.76018954
355.656	0.76485217
355.872	0.7824348
356.088	0.83681525
356.304	0.82846182
356.52	0.83181777
356.736	0.83718656
356.952	0.84142348
357.168	0.83866035
357.384	0.84692318
357.6	0.81073753
357.816	0.82750413
358.032	0.84405127
358.248	0.87850579
358.464	0.88000434
358.679	0.89905282
358.895	0.89363908
359.111	0.91201152
359.327	0.88178551
359.543	0.88781595
359.759	0.89566802
359.974	0.89539137
360.19	0.88337434
360.406	0.88812958
360.622	0.87748844
360.838	0.87338878
361.053	0.87858618
361.269	0.87172736
361.485	0.87554054
361.701	0.88382991
361.916	0.86345115
362.132	0.8627175
362.348	0.8724971
362.563	0.87731945
362.779	0.86407741
362.995	0.86779482
363.21	0.87740642
363.426	0.8810675
363.641	0.87839079
363.857	0.8883821
364.073	0.87353005
364.288	0.86714069
364.504	0.88568879
364.719	0.88070639
364.935	0.88115127
365.15	0.88788503
365.366	0.88273773
365.581	0.89562671
365.797	0.90154928
366.012	0.87972555
366.228	0.86708139
366.443	0.88969706
366.658	0.89297695
366.874	0.8822916
367.089	0.88872274
367.305	0.89382978
367.52	0.89480551
367.735	0.89593331
367.951	0.87503426
368.166	0.8732291
368.381	0.89137534
368.597	0.87840266
368.812	0.8822195
369.027	0.88925947
369.243	0.89482268
369.458	0.92187173
369.673	0.92304424
369.888	0.92087147
370.104	0.91221293
370.319	0.91398178
370.534	0.90426454
370.749	0.90480491
370.964	0.89936268
371.179	0.89589445
371.395	0.88905089
371.61	0.90142149
371.825	0.88289919
372.04	0.88487929
372.255	0.87478502
372.47	0.86337554
372.685	0.85385334
372.9	0.84662854
373.115	0.83549176
373.33	0.841364
373.545	0.83792205
373.76	0.83888771
373.975	0.83010084
374.19	0.82516089
374.405	0.8234348
374.62	0.83317176
374.835	0.84366711
375.05	0.84284937
375.265	0.84469013
375.48	0.84821583
375.695	0.86686185
375.91	0.85963717
376.125	0.84132958
376.339	0.81839965
376.554	0.81827244
376.769	0.81419225
376.984	0.81101955
377.199	0.80676627
377.414	0.80615168
377.628	0.81617334
377.843	0.82481147
378.058	0.82352029
378.273	0.82578056
378.487	0.82747453
378.702	0.82616992
378.917	0.82267165
379.131	0.81141864
379.346	0.80028935
379.561	0.78990829
379.775	0.78160126
379.99	0.76841914
380.205	0.75364751
380.419	0.74506905
380.634	0.73315183
380.848	0.73513024
381.063	0.73320367
381.278	0.7362386
381.492	0.7307862
381.707	0.73661676
381.921	0.7317623
382.136	0.74010582
382.35	0.73340433
382.565	0.72729051
382.779	0.72303447
382.994	0.72335693
383.208	0.71150068
383.422	0.71759706
383.637	0.7111697
383.851	0.71284421
384.066	0.71459666
384.28	0.71215035
384.494	0.70976639
384.709	0.71086906
384.923	0.70583063
385.137	0.69757332
385.352	0.69128535
385.566	0.68882394
385.78	0.68406825
385.995	0.67738181
386.209	0.67186684
386.423	0.67227982
386.637	0.6742643
386.852	0.66767368
387.066	0.6624183
387.28	0.65558463
387.494	0.65871222
387.708	0.65665651
387.923	0.65008309
388.137	0.64909254
388.351	0.6488991
388.565	0.64792289
388.779	0.64788801
388.993	0.6477979
389.207	0.64576994
389.421	0.64419787
389.635	0.63663135
389.85	0.633167
390.064	0.62894753
390.278	0.62602959
390.492	0.62253682
390.706	0.61880289
390.92	0.6150888
391.134	0.61736036
391.348	0.6204351
391.561	0.61697913
391.775	0.61311669
391.989	0.60575492
392.203	0.60363569
392.417	0.60322539
392.631	0.60114609
392.845	0.59326209
393.059	0.59316252
393.273	0.58876127
393.486	0.58470365
393.7	0.58066433
393.914	0.57859518
394.128	0.57382204
394.342	0.57038612
394.555	0.56379347
394.769	0.56193751
394.983	0.56242745
395.197	0.56183183
395.41	0.55841943
395.624	0.55715835
395.838	0.55441272
396.051	0.55728684
396.265	0.55390685
396.479	0.55084457
396.692	0.54822945
396.906	0.54370565
397.12	0.5394686
397.333	0.53897213
397.547	0.53446138
397.76	0.53447016
397.974	0.53273759
398.187	0.53107779
398.401	0.53122849
398.614	0.53024954
398.828	0.52750019
399.041	0.52466303
399.255	0.52157219
399.468	0.51938901
399.682	0.51652929
399.895	0.51438769
400.109	0.51184577
400.322	0.50982961
400.536	0.50579194
400.749	0.50576784
400.962	0.50387796
401.176	0.50069399
401.389	0.49774062
401.602	0.49296625
401.816	0.49157625
402.029	0.49173864
402.242	0.48782045
402.456	0.48537644
402.669	0.48284181
402.882	0.4784001
403.095	0.47848502
403.309	0.47562932
403.522	0.47379729
403.735	0.47107426
403.948	0.46913686
404.161	0.46988418
404.375	0.46962143
404.588	0.46884265
404.801	0.46717467
405.014	0.46468332
405.227	0.46534533
405.44	0.46447598
405.653	0.46312329
405.866	0.46037198
406.079	0.45776078
406.293	0.45582612
406.506	0.45367191
406.719	0.45096073
406.932	0.44858532
407.145	0.44543151
407.358	0.44610364
407.571	0.4437354
407.784	0.44279874
407.996	0.44233044
408.209	0.4400228
408.422	0.4383707
408.635	0.43722775
408.848	0.43562535
409.061	0.43346662
409.274	0.43173675
409.487	0.42974314
409.7	0.42858989
409.912	0.42739048
410.125	0.42599367
410.338	0.42416639
410.551	0.42319583
410.764	0.421894
410.976	0.42089385
411.189	0.41936011
411.402	0.41766126
411.615	0.4169395
411.827	0.4160867
412.04	0.41513103
412.253	0.41317064
412.465	0.41098967
412.678	0.40998361
412.891	0.40955846
413.103	0.40674088
413.316	0.4050246
413.529	0.40494405
413.741	0.40515992
413.954	0.40467246
414.166	0.40337726
414.379	0.40158868
414.591	0.40166234
414.804	0.39999306
415.016	0.3983616
415.229	0.39644418
415.441	0.39505581
415.654	0.39451875
415.866	0.39373037
416.079	0.39301523
416.291	0.39216033
416.504	0.39192763
416.716	0.39104703
416.928	0.39019814
417.141	0.38852936
417.353	0.38759082
417.566	0.38540657
417.778	0.38480784
417.99	0.38235516
418.203	0.38071116
418.415	0.37985265
418.627	0.37963253
418.839	0.37877735
419.052	0.37930377
419.264	0.37825539
419.476	0.3782093
419.688	0.37801954
419.901	0.37716349
420.113	0.3761339
420.325	0.37505649
420.537	0.37333984
420.749	0.37295841
420.961	0.37217737
421.174	0.37132108
421.386	0.37008825
421.598	0.36917489
421.81	0.36844359
422.022	0.36761969
422.234	0.36644934
422.446	0.36527784
422.658	0.36442823
422.87	0.36400779
423.082	0.363322
423.294	0.36245349
423.506	0.36227395
423.718	0.3615675
423.93	0.36046118
424.142	0.35967621
424.354	0.35892085
424.566	0.35806135
424.778	0.35776267
424.99	0.35676065
425.202	0.35586148
425.414	0.35570416
425.625	0.35554632
425.837	0.35462071
426.049	0.35440713
426.261	0.35348762
426.473	0.35243516
426.684	0.35208503
426.896	0.35139466
427.108	0.35014859
427.32	0.35005405
427.531	0.34912413
427.743	0.3486481
427.955	0.34874392
428.167	0.34793622
428.378	0.34713518
428.59	0.34676438
428.802	0.34598923
429.013	0.34498901
429.225	0.34412577
429.436	0.34336663
429.648	0.34336082
429.86	0.34348619
430.071	0.34302765
430.283	0.3425394
430.494	0.34251712
430.706	0.34245712
430.917	0.34181112
431.129	0.34121372
431.34	0.3404545
431.552	0.34022732
431.763	0.33968412
431.975	0.33970932
432.186	0.33880749
432.398	0.33845364
432.609	0.33738847
432.821	0.33711735
433.032	0.33652847
433.243	0.33613542
433.455	0.33537993
433.666	0.33521893
433.877	0.33530974
434.089	0.33517357
434.3	0.33430331
434.511	0.33357561
434.723	0.33295791
434.934	0.33217014
435.145	0.33151426
435.356	0.33052624
435.568	0.3300352
435.779	0.32996218
435.99	0.32934514
436.201	0.3291265
436.412	0.32873653
436.624	0.328616
436.835	0.32855435
437.046	0.32865693
437.257	0.32824201
437.468	0.32843444
437.679	0.32825212
437.89	0.32804396
438.101	0.32779767
438.312	0.32739948
438.523	0.32687375
438.734	0.3265831
438.945	0.32625985
439.156	0.32569369
439.367	0.32538265
439.578	0.32558017
439.789	0.32487456
440	0.32474596
440.211	0.32423899
440.422	0.32399511
440.633	0.32426262
440.844	0.32389894
441.055	0.32297277
441.266	0.32320907
441.477	0.32257635
441.687	0.32251154
441.898	0.32222602
442.109	0.32155738
442.32	0.32136207
442.531	0.32089759
442.741	0.32017373
442.952	0.31993773
443.163	0.31972152
443.374	0.31928262
443.584	0.31896301
443.795	0.31886933
444.006	0.31894075
444.216	0.31886198
444.427	0.31843003
444.638	0.31810818
444.848	0.31783353
445.059	0.31759407
445.27	0.31736864
445.48	0.31700058
445.691	0.31679289
445.901	0.31675472
446.112	0.31658298
446.323	0.31630383
446.533	0.31607828
446.744	0.31575433
446.954	0.3155026
447.165	0.31539314
447.375	0.31549503
447.586	0.31540582
447.796	0.31544636
448.006	0.31536459
448.217	0.31530604
448.427	0.31518582
448.638	0.3148159
448.848	0.31428642
449.058	0.31409293
449.269	0.31393024
449.479	0.3137237
449.689	0.31360062
449.9	0.31344215
450.11	0.31340149
450.32	0.31353427
450.531	0.31339225
450.741	0.31318484
450.951	0.31302635
451.161	0.31275916
451.372	0.31272124
451.582	0.31313369
451.792	0.3126732
452.002	0.31249171
452.212	0.31209486
452.422	0.31205977
452.633	0.31169834
452.843	0.31170872
453.053	0.31078588
453.263	0.31099857
453.473	0.31057301
453.683	0.31069473
453.893	0.31041399
454.103	0.31072405
454.313	0.3104381
454.523	0.31059778
454.733	0.31027752
454.943	0.31070239
455.153	0.310798
455.363	0.31073716
455.573	0.31070618
455.783	0.31080179
455.993	0.31072234
456.203	0.31100095
456.413	0.3105987
456.623	0.31022083
456.833	0.3105022
457.042	0.31025267
457.252	0.31015674
457.462	0.310252
457.672	0.31012556
457.882	0.31023862
458.091	0.31033089
458.301	0.3099877
458.511	0.30992628
458.721	0.30992146
458.931	0.30973698
459.14	0.30973438
459.35	0.30988578
459.56	0.30995193
459.769	0.31025802
459.979	0.31023251
460.189	0.31014999
460.398	0.31010116
460.608	0.31010418
460.817	0.30983137
461.027	0.30978112
461.237	0.30953704
461.446	0.30961683
461.656	0.30972654
461.865	0.30965323
462.075	0.30953542
462.284	0.30960151
462.494	0.3097309
462.703	0.30964142
462.913	0.30952379
463.122	0.30919429
463.332	0.30916647
463.541	0.30924657
463.751	0.30916531
463.96	0.30910663
464.169	0.3091865
464.379	0.3095521
464.588	0.30984737
464.797	0.31010003
465.007	0.31010263
465.216	0.31032231
465.425	0.31034902
465.635	0.31044094
465.844	0.31034617
466.053	0.31039358
466.263	0.31055511
466.472	0.31058955
466.681	0.31067475
466.89	0.31065596
467.099	0.3107814
467.309	0.31079629
467.518	0.31098922
467.727	0.31101359
467.936	0.31104575
468.145	0.31121949
468.354	0.3115265
468.563	0.31159943
468.772	0.31178444
468.982	0.31183543
469.191	0.31212346
469.4	0.31235197
469.609	0.31256488
469.818	0.31294293
470.027	0.31323309
470.236	0.31343837
470.445	0.31363568
470.654	0.31353435
470.863	0.31360435
471.072	0.31365907
471.28	0.31346053
471.489	0.31368214
471.698	0.31381577
471.907	0.31399455
472.116	0.31435128
472.325	0.31460625
472.534	0.31479867
472.743	0.31501247
472.951	0.31543332
473.16	0.31566034
473.369	0.31594505
473.578	0.31612266
473.786	0.31649631
473.995	0.31664357
474.204	0.31694822
474.413	0.3170044
474.621	0.31730585
474.83	0.31754231
475.039	0.3177008
475.247	0.31796774
475.456	0.31833697
475.665	0.31864476
475.873	0.31879733
476.082	0.31884973
476.291	0.31915593
476.499	0.3195547
476.708	0.31955959
476.916	0.31978218
477.125	0.32010352
477.333	0.32055098
477.542	0.32099776
477.75	0.32115868
477.959	0.32148722
478.167	0.32209492
478.376	0.32239905
478.584	0.32266942
478.793	0.32281388
479.001	0.323021
479.209	0.32330116
479.418	0.32363517
479.626	0.32375271
479.834	0.32416906
480.043	0.32444967
480.251	0.32470564
480.459	0.32510272
480.668	0.32549822
480.876	0.32579459
481.084	0.32620314
481.293	0.32646538
481.501	0.32677135
481.709	0.32720012
481.917	0.32755584
482.125	0.32781345
482.334	0.32816007
482.542	0.32852438
482.75	0.32880546
482.958	0.32921094
483.166	0.32959651
483.374	0.32995973
483.583	0.33041399
483.791	0.33073551
483.999	0.3309428
484.207	0.33137255
484.415	0.33174968
484.623	0.33203602
484.831	0.33237422
485.039	0.3327688
485.247	0.3331456
485.455	0.33369671
485.663	0.33417727
485.871	0.33460733
486.079	0.33498379
486.287	0.33541034
486.495	0.33574541
486.702	0.33606272
486.91	0.33650567
487.118	0.33689202
487.326	0.3372456
487.534	0.33772368
487.742	0.33817799
487.95	0.33861418
488.157	0.3391813
488.365	0.33962255
488.573	0.34016127
488.781	0.34072636
488.988	0.341337
489.196	0.34190892
489.404	0.3424225
489.612	0.34294714
489.819	0.34344145
490.027	0.34385603
490.235	0.34430164
490.442	0.34474314
490.65	0.3451946
490.857	0.34578963
491.065	0.34626559
491.273	0.34668049
491.48	0.34716612
491.688	0.3476339
491.895	0.34823906
492.103	0.34874364
492.31	0.34924189
492.518	0.34983923
492.725	0.35049548
492.933	0.35104755
493.14	0.35161399
493.348	0.35196836
493.555	0.35246624
493.763	0.3529767
493.97	0.3535311
494.177	0.35409324
494.385	0.35474944
494.592	0.35533113
494.8	0.35592013
495.007	0.35657402
495.214	0.35713468
495.422	0.35765463
495.629	0.35814339
495.836	0.35862731
496.043	0.35919782
496.251	0.35992037
496.458	0.3604098
496.665	0.36104073
496.872	0.36164598
497.08	0.362268
497.287	0.36286925
497.494	0.36352253
497.701	0.36409347
497.908	0.3647777
498.115	0.36536961
498.322	0.36590997
498.53	0.36643532
498.737	0.36706845
498.944	0.36752163
499.151	0.36809721
499.358	0.36867885
499.565	0.36913884
499.772	0.36980328
499.979	0.37050005
500.186	0.37109926
500.393	0.37186682
500.6	0.3723936
500.807	0.37303978
501.014	0.37379483
501.221	0.37439358
501.427	0.37493266
501.634	0.37553441
501.841	0.37617838
502.048	0.37692289
502.255	0.3774988
502.462	0.37816615
502.669	0.3788732
502.875	0.37962246
503.082	0.3803054
503.289	0.38090054
503.496	0.38159025
503.702	0.38229705
503.909	0.38298365
504.116	0.38362803
504.323	0.38437993
504.529	0.3851711
504.736	0.38590783
504.943	0.38651233
505.149	0.38734159
505.356	0.38807952
505.563	0.38879661
505.769	0.3895475
505.976	0.39014363
506.182	0.3909333
506.389	0.39174779
506.595	0.39244178
506.802	0.39308797
507.008	0.39382658
507.215	0.39451234
507.421	0.39530848
507.628	0.39589233
507.834	0.39661161
508.041	0.39727378
508.247	0.39801325
508.454	0.39873393
508.66	0.39933552
508.866	0.40006277
509.073	0.40094094
509.279	0.40169031
509.486	0.40252662
509.692	0.40325441
509.898	0.40409126
510.105	0.40495688
510.311	0.40568546
510.517	0.40640828
510.723	0.40717319
510.93	0.40790722
511.136	0.40885569
511.342	0.40952467
511.548	0.41026138
511.754	0.41110347
511.961	0.41188662
512.167	0.41253059
512.373	0.41328985
512.579	0.41392718
512.785	0.41479228
512.991	0.41564351
513.197	0.41639922
513.404	0.41723096
513.61	0.41816405
513.816	0.41895764
514.022	0.41979743
514.228	0.42052574
514.434	0.42124274
514.64	0.42202654
514.846	0.42282611
515.052	0.42362246
515.258	0.42442429
515.464	0.42515735
515.669	0.42601416
515.875	0.42686853
516.081	0.42767494
516.287	0.42851075
516.493	0.42937715
516.699	0.43016358
516.905	0.43109033
517.111	0.43189974
517.316	0.4327234
517.522	0.43359366
517.728	0.43438538
517.934	0.43517242
518.139	0.43606091
518.345	0.43683564
518.551	0.43771116
518.757	0.43859528
518.962	0.43938988
519.168	0.44025805
519.374	0.44104335
519.579	0.44181682
519.785	0.44268765
519.991	0.4436324
520.196	0.44446234
520.402	0.44535811
520.607	0.44624265
520.813	0.44727363
521.018	0.44816714
521.224	0.44897384
521.429	0.4498176
521.635	0.45071541
521.84	0.45156428
522.046	0.45240916
522.251	0.45309853
522.457	0.45392306
522.662	0.45495071
522.868	0.45579729
523.073	0.45660101
523.279	0.45747781
523.484	0.45830204
523.689	0.45928846
523.895	0.46026708
524.1	0.46107389
524.305	0.46197467
524.511	0.46285206
524.716	0.46373283
524.921	0.46465181
525.126	0.46553856
525.332	0.46640417
525.537	0.46718597
525.742	0.46806427
525.947	0.46898579
526.153	0.46980476
526.358	0.4707663
526.563	0.47157068
526.768	0.47243783
526.973	0.47344623
527.178	0.4742853
527.383	0.47521378
527.588	0.47616311
527.794	0.47691425
527.999	0.47785932
528.204	0.47877316
528.409	0.47961118
528.614	0.48050993
528.819	0.48134607
529.024	0.48223378
529.229	0.48313803
529.434	0.48413428
529.639	0.48500631
529.843	0.48591879
530.048	0.48685874
530.253	0.48773792
530.458	0.48872733
530.663	0.48966787
530.868	0.49050513
531.073	0.49137818
531.278	0.49227443
531.482	0.49312251
531.687	0.49407919
531.892	0.49490198
532.097	0.49573386
532.302	0.49663613
532.506	0.49753231
532.711	0.49839654
532.916	0.49928485
533.12	0.50020763
533.325	0.50111328
533.53	0.50217213
533.734	0.50303158
533.939	0.50395626
534.144	0.50493234
534.348	0.50584629
534.553	0.50665869
534.757	0.50746433
534.962	0.50827246
535.167	0.50925394
535.371	0.5101164
535.576	0.51101123
535.78	0.51193021
535.985	0.5129042
536.189	0.5138545
536.394	0.51479314
536.598	0.51558725
536.803	0.51657971
537.007	0.5174082
537.211	0.51833532
537.416	0.51913669
537.62	0.52003388
537.825	0.52091195
538.029	0.52196974
538.233	0.52276905
538.438	0.52371436
538.642	0.52442353
538.846	0.52540178
539.05	0.52625385
539.255	0.52709195
539.459	0.52782173
539.663	0.52866958
539.867	0.52948694
540.072	0.53041549
540.276	0.53120581
540.48	0.53214463
540.684	0.53299533
540.888	0.5339487
541.092	0.53489307
541.297	0.5357263
541.501	0.53662007
541.705	0.53754902
541.909	0.53828588
542.113	0.53911206
542.317	0.53992133
542.521	0.5407037
542.725	0.54163763
542.929	0.54253228
543.133	0.54333049
543.337	0.54431992
543.541	0.54523598
543.745	0.5460419
543.949	0.54689957
544.153	0.54765188
544.357	0.54840296
544.56	0.54921608
544.764	0.55003164
544.968	0.5508187
545.172	0.5515431
545.376	0.55236979
545.58	0.55317053
545.783	0.55408728
545.987	0.55484476
546.191	0.55558612
546.395	0.55643827
546.598	0.55735264
546.802	0.55819729
547.006	0.55903611
547.21	0.55965499
547.413	0.56047871
547.617	0.56126245
547.821	0.56200741
548.024	0.56279528
548.228	0.56339894
548.431	0.56417175
548.635	0.56499837
548.839	0.56573104
549.042	0.56656646
549.246	0.5672031
549.449	0.56791166
549.653	0.56874463
549.856	0.56938624
550.06	0.57007833
550.263	0.57086196
550.467	0.57151335
550.67	0.57239217
550.874	0.57302061
551.077	0.57377911
551.28	0.57466561
551.484	0.57548046
551.687	0.57614255
551.891	0.57693874
552.094	0.57751046
552.297	0.5782961
552.501	0.57908017
552.704	0.57973214
552.907	0.5803159
553.11	0.58097083
553.314	0.58155917
553.517	0.58221464
553.72	0.58287793
553.923	0.58347095
554.127	0.58411323
554.33	0.5847106
554.533	0.58546345
554.736	0.58605922
554.939	0.58677272
555.142	0.58748763
555.345	0.58818943
555.549	0.58890939
555.752	0.58964957
555.955	0.59030017
556.158	0.59115001
556.361	0.59181929
556.564	0.59239609
556.767	0.59299681
556.97	0.59362529
557.173	0.59430894
557.376	0.59491973
557.579	0.59538545
557.782	0.59598585
557.984	0.59666403
558.187	0.5973066
558.39	0.59775447
558.593	0.59834505
558.796	0.59887938
558.999	0.5994186
559.202	0.60001275
559.404	0.60045577
559.607	0.60095266
559.81	0.60148498
560.013	0.60197355
560.216	0.60246486
560.418	0.6031009
560.621	0.60357809
560.824	0.60418143
561.026	0.60476487
561.229	0.6052741
561.432	0.60581047
561.634	0.60634172
561.837	0.60674838
562.04	0.60726339
562.242	0.60780244
562.445	0.60822924
562.647	0.60874996
562.85	0.60913523
563.053	0.60962054
563.255	0.61010417
563.458	0.61059815
563.66	0.61100716
563.863	0.61151422
564.065	0.61203131
564.268	0.61254655
564.47	0.61301624
564.672	0.61340271
564.875	0.61386884
565.077	0.61415634
565.28	0.61447361
565.482	0.61485873
565.684	0.61517888
565.887	0.61554158
566.089	0.61605025
566.291	0.61640782
566.494	0.61687447
566.696	0.61719003
566.898	0.61751356
567.1	0.6179067
567.303	0.61826136
567.505	0.61857446
567.707	0.61878531
567.909	0.61901437
568.111	0.61938668
568.314	0.61976449
568.516	0.62011069
568.718	0.62041943
568.92	0.62063756
569.122	0.62093821
569.324	0.62137013
569.526	0.62156363
569.728	0.62188149
569.93	0.62211413
570.132	0.62236461
570.334	0.62268854
570.536	0.62296668
570.738	0.62312761
570.94	0.62339067
571.142	0.62366037
571.344	0.6238708
571.546	0.62408878
571.748	0.62437806
571.95	0.62458866
572.152	0.62479752
572.354	0.62509215
572.555	0.62526457
572.757	0.62559484
572.959	0.62578211
573.161	0.62581771
573.363	0.62599538
573.564	0.62632497
573.766	0.62651447
573.968	0.62670988
574.17	0.62675025
574.371	0.62700227
574.573	0.62728659
574.775	0.62739828
574.976	0.62741686
575.178	0.6275166
575.38	0.62749174
575.581	0.62759059
575.783	0.62768196
575.985	0.62776585
576.186	0.62802272
576.388	0.62819483
576.589	0.62830905
576.791	0.62853978
576.992	0.6286451
577.194	0.6287058
577.395	0.62872569
577.597	0.62881957
577.798	0.62887643
578	0.62892525
578.201	0.62901906
578.402	0.62914738
578.604	0.62921122
578.805	0.6293658
579.007	0.62937436
579.208	0.62945815
579.409	0.62947666
579.611	0.62945879
579.812	0.62955151
580.013	0.62957876
580.215	0.62945523
580.416	0.62941606
580.617	0.62930968
580.818	0.62936477
581.019	0.62933621
581.221	0.62927124
581.422	0.62927432
581.623	0.6294225
581.824	0.62928361
582.025	0.62937096
582.226	0.62932157
582.428	0.62938409
582.629	0.62928246
582.83	0.62920887
583.031	0.62904819
583.232	0.62920639
583.433	0.62913575
583.634	0.62905549
583.835	0.62894283
584.036	0.628966
584.237	0.62891638
584.438	0.62892766
584.639	0.62870618
584.84	0.62868343
585.041	0.62853387
585.242	0.62845753
585.442	0.62834407
585.643	0.62843769
585.844	0.62832669
586.045	0.6284201
586.246	0.62818171
586.447	0.62816706
586.647	0.62806859
586.848	0.62797847
587.049	0.62772814
587.25	0.62762044
587.45	0.62734375
587.651	0.62740092
587.852	0.62729566
588.053	0.62728106
588.253	0.62710203
588.454	0.6270212
588.655	0.62682759
588.855	0.62673207
589.056	0.62657223
589.256	0.62647771
589.457	0.62623306
589.658	0.62617629
589.858	0.62598573
590.059	0.6259413
590.259	0.62589761
590.46	0.625698
590.66	0.62551615
590.861	0.6254006
591.061	0.62525658
591.262	0.6252523
591.462	0.62517772
591.662	0.62503255
591.863	0.62485405
592.063	0.6248428
592.264	0.62477901
592.464	0.62469056
592.664	0.62451426
592.865	0.62444225
593.065	0.62410333
593.265	0.62415856
593.465	0.6239178
593.666	0.62380413
593.866	0.62358144
594.066	0.62345708
594.266	0.62316012
594.467	0.62300183
594.667	0.62269639
594.867	0.62258667
595.067	0.62224791
595.267	0.62213749
595.467	0.6219456
595.668	0.62177139
595.868	0.62169279
596.068	0.62155372
596.268	0.62131347
596.468	0.62124124
596.668	0.62110094
596.868	0.62089825
597.068	0.62072806
597.268	0.6206279
597.468	0.6204363
597.668	0.62027635
597.868	0.62008993
598.068	0.61989961
598.268	0.61975797
598.467	0.61968583
598.667	0.61952605
598.867	0.61933599
599.067	0.61926109
599.267	0.61917817
599.467	0.61897815
599.667	0.61867632
599.866	0.61854215
600.066	0.61840137
600.266	0.61824162
600.466	0.61814029
600.665	0.61791841
600.865	0.61781124
601.065	0.61782362
601.264	0.61759849
601.464	0.61737306
601.664	0.61737998
601.863	0.61720639
602.063	0.61715954
602.263	0.61677495
602.462	0.61668956
602.662	0.61659687
602.861	0.61653803
603.061	0.6163762
603.26	0.61625607
603.46	0.61598794
603.659	0.6160399
603.859	0.6157821
604.058	0.61560765
604.258	0.61551884
604.457	0.61554511
604.657	0.61520911
604.856	0.61505049
605.056	0.61500188
605.255	0.61491114
605.454	0.61480532
605.654	0.61463304
605.853	0.61432992
606.052	0.61434848
606.252	0.6143464
606.451	0.61431155
606.65	0.614289
606.849	0.61413553
607.049	0.61405414
607.248	0.61391156
607.447	0.61384769
607.646	0.61382162
607.845	0.61366682
608.045	0.61348257
608.244	0.61358109
608.443	0.61348224
608.642	0.61356298
608.841	0.61346015
609.04	0.61335345
609.239	0.61338761
609.438	0.61328689
609.637	0.61323786
609.836	0.61324092
610.035	0.61312588
610.234	0.6132136
610.433	0.61326338
610.632	0.61318259
610.831	0.6133335
611.03	0.61316134
611.229	0.61332957
611.428	0.61336102
611.627	0.61335488
611.826	0.61336949
612.025	0.61349871
612.224	0.61341954
612.422	0.61348145
612.621	0.61335935
612.82	0.61343051
613.019	0.61338847
613.218	0.61337685
613.416	0.61321004
613.615	0.61335375
613.814	0.61337819
614.012	0.61342622
614.211	0.61331265
614.41	0.61342799
614.608	0.61351483
614.807	0.61362654
615.006	0.61367619
615.204	0.61368472
615.403	0.61379743
615.602	0.61402147
615.8	0.61404293
615.999	0.61390828
616.197	0.61390013
616.396	0.61400802
616.594	0.61411527
616.793	0.61426834
616.991	0.61429213
617.19	0.61433602
617.388	0.61470018
617.586	0.61485813
617.785	0.61479673
617.983	0.61493299
618.182	0.6148389
618.38	0.6147856
618.578	0.61487831
618.777	0.61487452
618.975	0.61502756
619.173	0.6152536
619.372	0.61541668
619.57	0.61558287
619.768	0.61586952
619.966	0.61604509
620.165	0.61603198
620.363	0.61626905
620.561	0.61626583
620.759	0.61644399
620.957	0.61661554
621.155	0.61673102
621.354	0.616838
621.552	0.61729108
621.75	0.61729922
621.948	0.61764929
622.146	0.61778661
622.344	0.61795589
622.542	0.61816732
622.74	0.61834613
622.938	0.6183126
623.136	0.61861529
623.334	0.61877769
623.532	0.61881278
623.73	0.6189836
623.928	0.61924222
624.126	0.61952282
624.324	0.61988533
624.522	0.61991324
624.719	0.62002807
624.917	0.62039137
625.115	0.62057225
625.313	0.62074661
625.511	0.62104316
625.708	0.62097946
625.906	0.62121173
626.104	0.62136801
626.302	0.62161472
626.499	0.6218653
626.697	0.62213788
626.895	0.62222706
627.093	0.62269015
627.29	0.62311043
627.488	0.62341922
627.686	0.62369682
627.883	0.62394152
628.081	0.62405609
628.278	0.6245392
628.476	0.6246911
628.673	0.62486895
628.871	0.6251337
629.068	0.62539167
629.266	0.62571995
629.463	0.62594679
629.661	0.6259737
629.858	0.6262577
630.056	0.62645643
630.253	0.62671143
630.451	0.62694284
630.648	0.62713615
630.845	0.62742478
631.043	0.62777744
631.24	0.62816153
631.438	0.6285173
631.635	0.6288574
631.832	0.6289598
632.029	0.62931661
632.227	0.62967226
632.424	0.6299843
632.621	0.63008796
632.818	0.63029394
633.016	0.63054091
633.213	0.63088042
633.41	0.63122265
633.607	0.63146735
633.804	0.63169511
634.001	0.63203473
634.199	0.63244761
634.396	0.632845
634.593	0.63319649
634.79	0.6334971
634.987	0.63392077
635.184	0.63428193
635.381	0.63465923
635.578	0.63499161
635.775	0.63529093
635.972	0.63564253
636.169	0.63595362
636.366	0.63618953
636.563	0.6364782
636.76	0.63674546
636.957	0.63704812
637.153	0.6372055
637.35	0.63764304
637.547	0.63790729
637.744	0.63825176
637.941	0.63863343
638.138	0.63893406
638.334	0.63916905
638.531	0.63964487
638.728	0.63980094
638.925	0.64026506
639.121	0.64061625
639.318	0.64084495
639.515	0.64114843
639.711	0.64165884
639.908	0.64182775
640.105	0.64224823
640.301	0.64243673
640.498	0.64264434
640.695	0.6431102
640.891	0.64350901
641.088	0.64365921
641.284	0.64409541
641.481	0.64435941
641.677	0.64468457
641.874	0.64500029
642.07	0.64526238
642.267	0.64576809
642.463	0.64609664
642.66	0.64659011
642.856	0.64690551
643.053	0.64710874
643.249	0.64754937
643.445	0.6478337
643.642	0.64800737
643.838	0.64845188
644.034	0.64863542
644.231	0.6490853
644.427	0.64956727
644.623	0.64986522
644.82	0.65027016
645.016	0.65062803
645.212	0.65086557
645.408	0.65118487
645.604	0.65162838
645.801	0.65197089
645.997	0.65233029
646.193	0.65250721
646.389	0.65289953
646.585	0.65326516
646.781	0.65362885
646.977	0.65387212
647.173	0.65417578
647.37	0.65444213
647.566	0.65484932
647.762	0.65510163
647.958	0.65554679
648.154	0.65582469
648.35	0.65608219
648.546	0.65631194
648.742	0.65681463
648.937	0.65708164
649.133	0.65748267
649.329	0.65774413
649.525	0.65807713
649.721	0.65844576
649.917	0.65899988
650.113	0.65917459
650.309	0.65960828
650.504	0.65978566
650.7	0.65999664
650.896	0.6603573
651.092	0.66062315
651.287	0.66071723
651.483	0.66108808
651.679	0.66130803
651.875	0.66178312
652.07	0.66211364
652.266	0.66241952
652.462	0.66280784
652.657	0.66314663
652.853	0.66337378
653.048	0.66365477
653.244	0.66376727
653.44	0.66411289
653.635	0.66428817
653.831	0.66455523
654.026	0.66505158
654.222	0.66541084
654.417	0.66592367
654.613	0.66634933
654.808	0.66653354
655.004	0.66700746
655.199	0.66722178
655.394	0.66735078
655.59	0.66772116
655.785	0.66786396
655.98	0.66811399
656.176	0.66844077
656.371	0.66882774
656.566	0.66927427
656.762	0.66948741
656.957	0.66975038
657.152	0.67005583
657.348	0.67034952
657.543	0.67069604
657.738	0.67084164
657.933	0.67094924
658.128	0.67129279
658.324	0.67140534
658.519	0.67170016
658.714	0.67197365
658.909	0.67211208
659.104	0.6723999
659.299	0.67265643
659.494	0.67282008
659.689	0.67317969
659.884	0.67328371
660.079	0.67342841
660.274	0.67370056
660.469	0.6739473
660.664	0.67433318
660.859	0.67455695
661.054	0.67477431
661.249	0.67506608
661.444	0.67538539
661.639	0.67558344
661.834	0.67570498
662.029	0.67582845
662.224	0.67613404
662.418	0.67640594
662.613	0.67670686
662.808	0.67685678
663.003	0.67714315
663.198	0.67743954
663.392	0.67756181
663.587	0.67792436
663.782	0.67800376
663.977	0.6781386
664.171	0.67846131
664.366	0.67870794
664.561	0.6788574
664.755	0.67911378
664.95	0.67910211
665.144	0.67935329
665.339	0.67961247
665.534	0.67969336
665.728	0.67990419
665.923	0.68011412
666.117	0.68032898
666.312	0.68066936
666.506	0.68093016
666.701	0.68100897
666.895	0.68124908
667.09	0.68136738
667.284	0.68164493
667.479	0.68185274
667.673	0.68196234
667.867	0.68224502
668.062	0.68258955
668.256	0.68284643
668.45	0.68318203
668.645	0.68330293
668.839	0.68350059
669.033	0.6837217
669.228	0.68370259
669.422	0.6838022
669.616	0.68383411
669.81	0.68400792
670.004	0.68405897
670.199	0.6842588
670.393	0.68440356
670.587	0.68461165
670.781	0.6848226
670.975	0.68510651
671.169	0.68508966
671.363	0.68527876
671.558	0.68525083
671.752	0.68531953
671.946	0.68549025
672.14	0.68556454
672.334	0.68560708
672.528	0.68591152
672.722	0.68600124
672.916	0.686252
673.11	0.68633107
673.304	0.68663777
673.497	0.68663143
673.691	0.68688434
673.885	0.68678589
674.079	0.68698226
674.273	0.6870688
674.467	0.68732334
674.661	0.68721926
674.854	0.68750862
675.048	0.68750608
675.242	0.6877782
675.436	0.68787483
675.629	0.68788898
675.823	0.68780013
676.017	0.68788763
676.211	0.68778593
676.404	0.68780388
676.598	0.68780547
676.792	0.68787644
676.985	0.68807016
677.179	0.68829882
677.372	0.68843372
677.566	0.6887898
677.76	0.68899355
677.953	0.68906634
678.147	0.68920185
678.34	0.68930227
678.534	0.68936537
678.727	0.68944768
678.921	0.68945328
679.114	0.68932364
679.307	0.68939309
679.501	0.6894274
679.694	0.68947124
679.888	0.68951612
680.081	0.68959029
680.274	0.68943322
680.468	0.68967082
680.661	0.68975357
680.854	0.68988448
681.048	0.6900518
681.241	0.69012137
681.434	0.69020995
681.627	0.69050652
681.821	0.6905383
682.014	0.69061423
682.207	0.69056462
682.4	0.69046698
682.593	0.69051134
682.786	0.69038692
682.98	0.69027971
683.173	0.6903443
683.366	0.69041093
683.559	0.69049628
683.752	0.69064265
683.945	0.6905345
684.138	0.6906817
684.331	0.69067112
684.524	0.69075106
684.717	0.6906383
684.91	0.69073389
685.103	0.69076467
685.296	0.69095411
685.489	0.69100759
685.682	0.69103074
685.874	0.69130004
686.067	0.69151662
686.26	0.69147652
686.453	0.69136139
686.646	0.69128867
686.839	0.69136467
687.031	0.69146119
687.224	0.69105422
687.417	0.69100593
687.61	0.69097301
687.802	0.69099315
687.995	0.69110157
688.188	0.69102567
688.38	0.69102942
688.573	0.69118409
688.766	0.69116221
688.958	0.69112438
689.151	0.69110335
689.343	0.69108678
689.536	0.69103614
689.729	0.69097115
689.921	0.69099574
690.114	0.69084528
690.306	0.69087273
690.499	0.69092875
690.691	0.69092394
690.884	0.69100498
691.076	0.69107044
691.268	0.69101318
691.461	0.69094703
691.653	0.6909686
691.846	0.69102315
692.038	0.69093205
692.23	0.69064212
692.423	0.69059821
692.615	0.69045122
692.807	0.69052744
692.999	0.69046478
693.192	0.69030878
693.384	0.69039252
693.576	0.69042648
693.768	0.69037094
693.961	0.69024263
694.153	0.69017811
694.345	0.69001782
694.537	0.68991956
694.729	0.68976007
694.921	0.68973148
695.113	0.68979105
695.305	0.68991122
695.498	0.68983255
695.69	0.68985652
695.882	0.68981703
696.074	0.68992901
696.266	0.68989988
696.458	0.68964789
696.65	0.6895975
696.842	0.68960966
697.033	0.68961501
697.225	0.68948598
697.417	0.689365
697.609	0.68941351
697.801	0.68947108
697.993	0.68958644
698.185	0.68959402
698.376	0.68958521
698.568	0.6896192
698.76	0.68967859
698.952	0.68961099
699.144	0.68957719
699.335	0.68946376
699.527	0.68934701
699.719	0.6892004
699.91	0.68924987
700.102	0.68912326
700.294	0.68904451
700.485	0.68892422
700.677	0.68869468
700.869	0.68874862
701.06	0.68879319
701.252	0.68873013
701.443	0.68860972
701.635	0.68864267
701.826	0.68872196
702.018	0.68888134
702.209	0.68880863
702.401	0.6888177
702.592	0.68884811
702.784	0.68887798
702.975	0.68891387
703.166	0.68870489
703.358	0.68841751
703.549	0.68839344
703.741	0.68829997
703.932	0.68816937
704.123	0.68811201
704.315	0.68792852
704.506	0.68814208
704.697	0.68818454
704.888	0.68829368
705.08	0.68821918
705.271	0.68828818
705.462	0.68804249
705.653	0.68791261
705.844	0.68770823
706.035	0.68767556
706.227	0.68740457
706.418	0.68729033
706.609	0.68717055
706.8	0.6874363
706.991	0.68753103
707.182	0.68760067
707.373	0.68750531
707.564	0.68754151
707.755	0.68746911
707.946	0.68727831
708.137	0.68698636
708.328	0.68687325
708.519	0.68681445
708.71	0.6868596
708.901	0.68679176
709.092	0.68686162
709.283	0.68696637
709.473	0.68698734
709.664	0.68698867
709.855	0.6868727
710.046	0.68697293
710.237	0.68689238
710.427	0.68675159
710.618	0.68669946
710.809	0.68668107
711	0.68672079
711.19	0.6865803
711.381	0.68658964
711.572	0.68663438
711.762	0.68682657
711.953	0.68679863
712.144	0.68678146
712.334	0.68654272
712.525	0.68675449
712.715	0.68660377
712.906	0.6864791
713.097	0.68618721
713.287	0.68611387
713.478	0.68610149
713.668	0.68631549
713.859	0.68624316
714.049	0.68617256
714.239	0.68628041
714.43	0.68643244
714.62	0.6863876
714.811	0.68631294
715.001	0.68618739
715.191	0.68606393
715.382	0.68600682
715.572	0.68602683
715.762	0.68595182
715.953	0.68604616
716.143	0.68616927
716.333	0.68607481
716.523	0.68616089
716.714	0.68629614
716.904	0.68623948
717.094	0.68631559
717.284	0.68613652
717.474	0.68601963
717.664	0.68616644
717.855	0.68600561
718.045	0.6857433
718.235	0.68565181
718.425	0.68573118
718.615	0.68593512
718.805	0.68602404
718.995	0.68610128
719.185	0.686353
719.375	0.6865286
719.565	0.68664904
719.755	0.68645405
719.945	0.68637288
720.135	0.68643956
720.325	0.68650897
720.515	0.68653471
720.704	0.68661029
720.894	0.68666729
721.084	0.6866848
721.274	0.68668803
721.464	0.68660833
721.654	0.68638432
721.843	0.68625378
722.033	0.68625542
722.223	0.68609892
722.413	0.68627558
722.602	0.68639842
722.792	0.6863334
722.982	0.68642994
723.171	0.68647702
723.361	0.68649449
723.55	0.6868347
723.74	0.68680611
723.93	0.68680371
724.119	0.6870116
724.309	0.68706027
724.498	0.68707442
724.688	0.68711276
724.877	0.68701435
725.067	0.6869433
725.256	0.68700683
725.446	0.68696584
725.635	0.6869081
725.825	0.68696534
726.014	0.68695891
726.203	0.68685559
726.393	0.68678784
726.582	0.68657227
726.771	0.68659799
726.961	0.68672305
727.15	0.68653104
727.339	0.68649153
727.529	0.68654238
727.718	0.68662589
727.907	0.68663015
728.096	0.68652243
728.286	0.68641205
728.475	0.68664622
728.664	0.68661163
728.853	0.68648087
729.042	0.68636523
729.231	0.68646346
729.42	0.68648784
729.609	0.68639527
729.799	0.68616489
729.988	0.68618898
730.177	0.6860819
730.366	0.68622824
730.555	0.68615147
730.744	0.68603549
730.933	0.68618847
731.122	0.68627892
731.31	0.68631002
731.499	0.68651643
731.688	0.68665903
731.877	0.68673068
732.066	0.68695482
732.255	0.68689709
732.444	0.6869679
732.632	0.68702097
732.821	0.6870722
733.01	0.68706427
733.199	0.68690959
733.388	0.68681081
733.576	0.68681236
733.765	0.68678703
733.954	0.68666924
734.142	0.68655816
734.331	0.68651948
734.52	0.6867068
734.708	0.68674902
734.897	0.68689546
735.086	0.68684669
735.274	0.68688566
735.463	0.68699585
735.651	0.68705218
735.84	0.68715681
736.028	0.68729242
736.217	0.68735268
736.405	0.68744686
736.594	0.68762316
736.782	0.68778301
736.971	0.68781791
737.159	0.68785826
737.347	0.68783726
737.536	0.68778164
737.724	0.687892
737.912	0.68783598
738.101	0.68767891
738.289	0.68779012
738.477	0.68788436
738.666	0.68789543
738.854	0.68798538
739.042	0.6880982
739.23	0.68818623
739.418	0.68837036
739.607	0.6882145
739.795	0.68815545
739.983	0.68835374
740.171	0.68835211
740.359	0.68830495
740.547	0.68823066
740.735	0.68824334
740.923	0.6884085
741.112	0.68841391
741.3	0.68836236
741.488	0.68833679
741.676	0.68860201
741.864	0.68875222
742.052	0.68884985
742.239	0.6887657
742.427	0.68895756
742.615	0.68900765
742.803	0.68920023
742.991	0.68902883
743.179	0.68911584
743.367	0.68921407
743.555	0.68955266
743.742	0.68954226
743.93	0.68973844
744.118	0.68982161
744.306	0.68995704
744.494	0.68996736
744.681	0.69002871
744.869	0.68996338
745.057	0.69012359
745.244	0.69011395
745.432	0.69023898
745.62	0.69036399
745.807	0.69060769
745.995	0.69065303
746.182	0.69058953
746.37	0.6906503
746.558	0.69072262
746.745	0.69057588
746.933	0.69052332
747.12	0.69053039
747.308	0.69076661
747.495	0.69086219
747.683	0.69089389
747.87	0.69087694
748.057	0.69113656
748.245	0.6913349
748.432	0.69141465
748.62	0.69118982
748.807	0.69140786
748.994	0.69153408
749.182	0.69172077
749.369	0.69170552
749.556	0.69181435
749.743	0.69184808
749.931	0.69201248
750.118	0.69210556
750.305	0.69212968
750.492	0.69204912
750.68	0.69225495
750.867	0.69227883
751.054	0.69249923
751.241	0.69260338
751.428	0.69262524
751.615	0.6927506
751.802	0.69299182
751.989	0.6928817
752.176	0.69306698
752.363	0.6932029
752.55	0.69325173
752.737	0.69347356
752.924	0.69352835
753.111	0.69372013
753.298	0.69400779
753.485	0.69408505
753.672	0.69402292
753.859	0.69431573
754.046	0.69434159
754.233	0.69431247
754.42	0.69448914
754.606	0.69448042
754.793	0.69443628
754.98	0.69465486
755.167	0.69449611
755.353	0.6946727
755.54	0.69495956
755.727	0.69496701
755.914	0.69505487
756.1	0.69520419
756.287	0.69511052
756.474	0.69529973
756.66	0.69540093
756.847	0.69551355
757.033	0.69537001
757.22	0.69543323
757.407	0.69571517
757.593	0.69598606
757.78	0.69595248
757.966	0.696007
758.153	0.69598937
758.339	0.69612683
758.526	0.69619581
758.712	0.6959119
758.898	0.69597633
759.085	0.69597895
759.271	0.69580747
759.458	0.69580977
759.644	0.69598332
759.83	0.69606436
760.017	0.69640834
760.203	0.6964742
760.389	0.69671565
760.576	0.69705588
760.762	0.69731283
760.948	0.6972583
761.134	0.69740959
761.32	0.69734878
761.507	0.69722816
761.693	0.69751273
761.879	0.69751255
762.065	0.69766896
762.251	0.69792639
762.437	0.69823294
762.623	0.6983583
762.809	0.6985947
762.995	0.69860556
763.181	0.698591
763.367	0.6986189
763.553	0.6986802
763.739	0.69874556
763.925	0.69891648
764.111	0.69911491
764.297	0.69936911
764.483	0.69958381
764.669	0.69947737
764.855	0.69950615
765.041	0.69942318
765.227	0.69935383
765.412	0.69944625
765.598	0.69927812
765.784	0.69934587
765.97	0.6996338
766.156	0.69989308
766.341	0.70013407
766.527	0.70029267
766.713	0.70023112
766.898	0.70043223
767.084	0.70049117
767.27	0.70046717
767.455	0.70030057
767.641	0.70028661
767.827	0.70038255
768.012	0.70045421
768.198	0.70045373
768.383	0.70056406
768.569	0.70074875
768.754	0.7009761
768.94	0.70100689
769.125	0.70100033
769.311	0.70102305
769.496	0.70106004
769.682	0.70115995
769.867	0.70123121
770.052	0.70131202
770.238	0.7013609
770.423	0.70144976
770.608	0.70162839
770.794	0.70167157
770.979	0.70164277
771.164	0.70171527
771.35	0.70177843
771.535	0.7019607
771.72	0.70203454
771.905	0.70230966
772.09	0.70238413
772.276	0.70261614
772.461	0.70255768
772.646	0.70246465
772.831	0.70253973
773.016	0.70279962
773.201	0.70267429
773.386	0.70293362
773.571	0.70283589
773.756	0.70280148
773.941	0.70283855
774.126	0.70299175
774.311	0.7028271
774.496	0.70291216
774.681	0.70291522
774.866	0.70312653
775.051	0.7033352
775.236	0.70354984
775.421	0.70327965
775.606	0.70324384
775.791	0.70305435
775.976	0.7029184
776.16	0.7028161
776.345	0.70286789
776.53	0.70304652
776.715	0.70322
776.899	0.70335934
777.084	0.70364358
777.269	0.70391078
777.454	0.70394339
777.638	0.70399704
777.823	0.70382711
778.008	0.70374704
778.192	0.70392696
778.377	0.70384032
778.561	0.70374722
778.746	0.703788
778.931	0.70385348
779.115	0.70416354
779.3	0.70438649
779.484	0.70432716
779.669	0.70430542
779.853	0.70441512
780.037	0.70452782
780.222	0.7043484
780.406	0.70402642
780.591	0.70401524
780.775	0.70402457
780.959	0.70414461
781.144	0.70405611
781.328	0.70394576
781.512	0.70398775
781.697	0.70403561
781.881	0.70396507
782.065	0.70403843
782.249	0.70393819
782.434	0.70407024
782.618	0.70413747
782.802	0.70427477
782.986	0.70444362
783.17	0.7045623
783.354	0.70456964
783.539	0.70463733
783.723	0.704382
783.907	0.70438346
784.091	0.70440688
784.275	0.70437917
784.459	0.70432885
784.643	0.70436196
784.827	0.70428348
785.011	0.70442238
785.195	0.70452858
785.379	0.70461253
785.563	0.70457772
785.747	0.7045746
785.93	0.7048605
786.114	0.70484148
786.298	0.70476186
786.482	0.70462373
786.666	0.70457487
786.85	0.70452963
787.033	0.7045963
787.217	0.70438837
787.401	0.70446465
787.585	0.70445133
787.768	0.70466599
787.952	0.70452026
788.136	0.70444949
788.319	0.7044237
788.503	0.70411531
788.687	0.70408364
788.87	0.70402866
789.054	0.70379057
789.237	0.70383876
789.421	0.70393996
789.605	0.70374596
789.788	0.7038245
789.972	0.70379339
790.155	0.7036483
790.338	0.70349236
790.522	0.70338156
790.705	0.70315869
790.889	0.70303464
791.072	0.70307187
791.256	0.70314384
791.439	0.7032994
791.622	0.7033907
791.806	0.70363564
791.989	0.70361851
792.172	0.70371819
792.355	0.70371329
792.539	0.70370825
792.722	0.70376304
792.905	0.70360133
793.088	0.70331959
793.271	0.70336901
793.455	0.70336339
793.638	0.70328074
793.821	0.70304491
794.004	0.7029676
794.187	0.70329057
794.37	0.7034234
794.553	0.70344674
794.736	0.70337794
794.919	0.70318146
795.102	0.70324515
795.285	0.70323543
795.468	0.70285814
795.651	0.70255598
795.834	0.70256407
796.017	0.70261564
796.2	0.70258067
796.383	0.70239465
796.566	0.70233457
796.749	0.70245396
796.931	0.70242175
797.114	0.70224941
797.297	0.70210945
797.48	0.70204846
797.663	0.70214882
797.845	0.70214421
798.028	0.70215506
798.211	0.70208194
798.393	0.70179873
798.576	0.7017347
798.759	0.70146772
798.941	0.70119442
799.124	0.700872
799.307	0.70063311
799.489	0.70066177
799.672	0.700684
799.854	0.70045077
800.037	0.70054941
800.219	0.70066868
800.402	0.70081802
800.584	0.7005783
800.767	0.70043954
800.949	0.70045936
801.132	0.70069602
801.314	0.70063964
801.496	0.70057353
801.679	0.70033034
801.861	0.7004375
802.043	0.70008075
802.226	0.69995029
802.408	0.69953709
802.59	0.69947955
802.772	0.69935796
802.955	0.69918748
803.137	0.69897749
803.319	0.6990215
803.501	0.69883317
803.684	0.69879613
803.866	0.69844714
804.048	0.69834746
804.23	0.6983217
804.412	0.69825939
804.594	0.69819128
804.776	0.69830475
804.958	0.69803397
805.14	0.69821858
805.322	0.69792152
805.504	0.6978799
805.686	0.69776566
805.868	0.69764405
806.05	0.69729946
806.232	0.69734645
806.414	0.697256
806.596	0.69721071
806.778	0.69688195
806.96	0.69691641
807.141	0.69665299
807.323	0.69648039
807.505	0.69616426
807.687	0.69595781
807.869	0.69573093
808.05	0.69554635
808.232	0.69515366
808.414	0.69517564
808.595	0.69520156
808.777	0.69515303
808.959	0.69507381
809.14	0.69506604
809.322	0.69517381
809.504	0.69503261
809.685	0.69515606
809.867	0.69483691
810.048	0.6947531
810.23	0.69456662
810.411	0.69439148
810.593	0.69405027
810.774	0.69384971
810.956	0.69344079
811.137	0.69328361
811.319	0.69303995
811.5	0.692652
811.681	0.69239712
811.863	0.69211757
812.044	0.69200598
812.225	0.69186695
812.407	0.69172782
812.588	0.69151171
812.769	0.69145691
812.951	0.69119865
813.132	0.69116731
813.313	0.69120484
813.494	0.69088449
813.675	0.69085819
813.857	0.690851
814.038	0.69082446
814.219	0.6907222
814.4	0.69045033
814.581	0.69026366
814.762	0.68994994
814.943	0.6896482
815.124	0.6892529
815.305	0.68894211
815.486	0.68888703
815.667	0.68899713
815.848	0.68868218
816.029	0.6886669
816.21	0.68857095
816.391	0.68872894
816.572	0.68853766
816.753	0.68840068
816.934	0.68799239
817.115	0.68791584
817.295	0.68795532
817.476	0.68757048
817.657	0.68718924
817.838	0.68722139
818.019	0.68678959
818.199	0.68654505
818.38	0.68607855
818.561	0.68574336
818.741	0.68548164
818.922	0.68524595
819.103	0.68485901
819.283	0.68489046
819.464	0.68477689
819.645	0.6846611
819.825	0.68438171
820.006	0.68423793
820.186	0.68404628
820.367	0.6837366
820.547	0.68311078
820.728	0.68265202
820.908	0.6822938
821.089	0.68218877
821.269	0.68204913
821.45	0.68198759
821.63	0.68163914
821.81	0.68177052
821.991	0.68190413
822.171	0.68186411
822.351	0.6816905
822.532	0.6815446
822.712	0.68117387
822.892	0.68109315
823.072	0.68077703
823.253	0.68047371
823.433	0.68027046
823.613	0.67986794
823.793	0.67944374
823.973	0.67924461
824.154	0.67900505
824.334	0.67870445
824.514	0.6784075
824.694	0.678174
824.874	0.67773082
825.054	0.67758556
825.234	0.6771796
825.414	0.6767597
825.594	0.67658622
825.774	0.67642867
825.954	0.67613659
826.134	0.67607269
826.314	0.67563685
826.494	0.67567912
826.674	0.67530664
826.854	0.67476981
827.033	0.67415713
827.213	0.67405212
827.393	0.67355334
827.573	0.67358437
827.753	0.67298385
827.932	0.67297824
828.112	0.67290477
828.292	0.67289829
828.472	0.67226117
828.651	0.67237915
828.831	0.67184318
829.011	0.67168722
829.19	0.67123192
829.37	0.6710372
829.549	0.67061089
829.729	0.67049711
829.909	0.66991013
830.088	0.66971498
830.268	0.66919525
830.447	0.66916652
830.627	0.66895544
830.806	0.66886906
830.986	0.66831154
831.165	0.66826754
831.344	0.66814156
831.524	0.66802874
831.703	0.6676281
831.883	0.6670949
832.062	0.66668197
832.241	0.66660116
832.421	0.66627071
832.6	0.66586826
832.779	0.6657084
832.958	0.66547121
833.138	0.66512926
833.317	0.66505791
833.496	0.66478353
833.675	0.66441653
833.854	0.66431756
834.034	0.6638538
834.213	0.66343791
834.392	0.66350752
834.571	0.66297055
834.75	0.66279324
834.929	0.66252321
835.108	0.66198668
835.287	0.66200589
835.466	0.66186378
835.645	0.66154562
835.824	0.66130555
836.003	0.66108137
836.182	0.66094993
836.361	0.66093796
836.54	0.66031958
836.719	0.65997385
836.897	0.65942179
837.076	0.65911661
837.255	0.65861
837.434	0.65826177
837.613	0.65779014
837.791	0.65754849
837.97	0.65715409
838.149	0.65678406
838.328	0.65638423
838.506	0.6559741
838.685	0.65555865
838.864	0.65532035
839.042	0.65494058
839.221	0.65492573
839.4	0.65473229
839.578	0.65434926
839.757	0.65385416
839.935	0.65332468
840.114	0.65298168
840.292	0.65266832
840.471	0.65228931
840.649	0.65188909
840.828	0.65163483
841.006	0.65153275
841.185	0.65102798
841.363	0.65080399
841.541	0.65040521
841.72	0.65014377
841.898	0.65008835
842.076	0.64981232
842.255	0.64961472
842.433	0.64964472
842.611	0.64898705
842.789	0.64876994
842.968	0.64852702
843.146	0.64787679
843.324	0.64764618
843.502	0.647395
843.68	0.64719744
843.859	0.64678014
844.037	0.64638921
844.215	0.64577345
844.393	0.64552704
844.571	0.64515107
844.749	0.64475723
844.927	0.64432746
845.105	0.64399318
845.283	0.64350584
845.461	0.64313811
845.639	0.64280137
845.817	0.64229971
845.995	0.64205963
846.173	0.64181884
846.351	0.64159008
846.529	0.64134818
846.706	0.6409507
846.884	0.64082134
847.062	0.64040232
847.24	0.63978642
847.418	0.63909615
847.595	0.63868896
847.773	0.63838311
847.951	0.63788524
848.129	0.63722279
848.306	0.63706561
848.484	0.63681239
848.662	0.63667425
848.839	0.63667493
849.017	0.63646697
849.194	0.63627227
849.372	0.63605329
849.549	0.63559879
849.727	0.63533
849.905	0.63482535
850.082	0.63408541
850.26	0.63361063
850.437	0.63308124
850.614	0.63273838
850.792	0.63234608
850.969	0.63225288
851.147	0.63214175
851.324	0.63207841
851.501	0.63181189
851.679	0.63158883
851.856	0.63113712
852.033	0.63108999
852.211	0.63032326
852.388	0.62974833
852.565	0.6294624
852.742	0.62928999
852.92	0.62906179
853.097	0.62885756
853.274	0.62833658
853.451	0.62789344
853.628	0.62756975
853.805	0.62693987
853.982	0.6262413
854.159	0.62586079
854.336	0.62548558
854.514	0.62499493
854.691	0.62467902
854.868	0.62451201
855.045	0.62419595
855.221	0.62410871
855.398	0.62363228
855.575	0.62322682
855.752	0.62307911
855.929	0.6231687
856.106	0.62253373
856.283	0.62218399
856.46	0.62192501
856.637	0.62184274
856.813	0.62159094
856.99	0.62117303
857.167	0.62070145
857.344	0.62050555
857.52	0.62020938
857.697	0.61917655
857.874	0.61843604
858.05	0.61769198
858.227	0.61703238
858.404	0.61645925
858.58	0.61615036
858.757	0.61576941
858.933	0.61595256
859.11	0.61584126
859.287	0.61549898
859.463	0.61526907
859.64	0.61504063
859.816	0.61457678
859.993	0.61416676
860.169	0.61379418
860.345	0.61317723
860.522	0.61303255
860.698	0.61269851
860.875	0.61212347
861.051	0.61179028
861.227	0.61107497
861.404	0.61065698
861.58	0.61059858
861.756	0.61023129
861.932	0.61014808
862.109	0.60955238
862.285	0.6093698
862.461	0.60962695
862.637	0.60919186
862.813	0.60876825
862.99	0.60832619
863.166	0.60766638
863.342	0.6080892
863.518	0.60732046
863.694	0.60680632
863.87	0.60613022
864.046	0.60553741
864.222	0.6051131
864.398	0.60484948
864.574	0.60369998
864.75	0.60345807
864.926	0.60300367
865.102	0.60298064
865.278	0.60258446
865.454	0.60235379
865.63	0.60182225
865.805	0.60177098
865.981	0.60165383
866.157	0.60134515
866.333	0.60071853
866.509	0.6006457
866.684	0.60033712
866.86	0.60035286
867.036	0.59995065
867.212	0.59918575
867.387	0.59884117
867.563	0.59876788
867.739	0.59826779
867.914	0.59784073
868.09	0.59708364
868.265	0.59667844
868.441	0.59649293
868.617	0.59609502
868.792	0.5956223
868.968	0.59509108
869.143	0.59496411
869.319	0.59494007
869.494	0.59433878
869.67	0.59390247
869.845	0.59353418
870.02	0.59340521
870.196	0.5933626
870.371	0.59286998
870.546	0.59233317
870.722	0.59241907
870.897	0.59214221
871.072	0.59177992
871.248	0.59107501
871.423	0.59040699
871.598	0.59009597
871.773	0.58943196
871.949	0.5887797
872.124	0.58861467
872.299	0.58801774
872.474	0.5877642
872.649	0.58743866
872.824	0.58682541
872.999	0.58668022
873.174	0.58655332
873.349	0.58600412
873.524	0.58587752
873.699	0.58579821
873.874	0.5855381
874.049	0.58509085
874.224	0.58466124
874.399	0.58400241
874.574	0.5838992
874.749	0.58341703
874.924	0.58248361
875.099	0.58171224
875.274	0.58127327
875.449	0.58096135
875.623	0.58037113
875.798	0.57956177
875.973	0.57909841
876.148	0.57860552
876.322	0.57848609
876.497	0.57812102
876.672	0.57771678
876.846	0.57760042
877.021	0.57720095
877.196	0.57630054
877.37	0.5762799
877.545	0.57632744
877.72	0.57590529
877.894	0.57568582
878.069	0.57515569
878.243	0.57454697
878.418	0.57472262
878.592	0.57416777
878.767	0.5732709
878.941	0.57306768
879.116	0.57245948
879.29	0.57179319
879.464	0.57134914
879.639	0.57059994
879.813	0.57047901
879.987	0.56999925
880.162	0.56944466
880.336	0.56902262
880.51	0.56910797
880.685	0.56908235
880.859	0.56901829
881.033	0.56846386
881.207	0.56798565
881.381	0.56763663
881.556	0.56717403
881.73	0.56634845
881.904	0.56612025
882.078	0.5656838
882.252	0.56522993
882.426	0.56484895
882.6	0.56444175
882.774	0.56420721
882.948	0.563974
883.122	0.56298798
883.296	0.56250418
883.47	0.56227563
883.644	0.56228871
883.818	0.56163802
883.992	0.56118675
884.166	0.56128029
884.34	0.56150595
884.514	0.56161247
884.687	0.5613659
884.861	0.56069426
885.035	0.56064418
885.209	0.56046774
885.382	0.55984444
885.556	0.55930449
885.73	0.55873033
885.904	0.55826222
886.077	0.55771057
886.251	0.55746997
886.425	0.55698489
886.598	0.55675574
886.772	0.55613118
886.945	0.55509298
887.119	0.55424505
887.292	0.55390821
887.466	0.5536524
887.64	0.55300948
887.813	0.55247373
887.986	0.55236177
888.16	0.55280839
888.333	0.55251669
888.507	0.55227732
888.68	0.55145675
888.854	0.55119475
889.027	0.55069544
889.2	0.5503812
889.374	0.54968712
889.547	0.54959942
889.72	0.54935064
889.893	0.54915654
890.067	0.54874117
890.24	0.54819499
890.413	0.54765654
890.586	0.54689503
890.759	0.54649905
890.933	0.54605365
891.106	0.54545788
891.279	0.54512256
891.452	0.54495016
891.625	0.54451653
891.798	0.54456383
891.971	0.54421662
892.144	0.54380987
892.317	0.54376366
892.49	0.54320693
892.663	0.54295532
892.836	0.54294408
893.009	0.54268126
893.182	0.54196218
893.355	0.54177169
893.527	0.5413152
893.7	0.5415046
893.873	0.54118669
894.046	0.54037671
894.219	0.54017297
894.391	0.54016295
894.564	0.53997641
894.737	0.53960879
894.91	0.53895043
895.082	0.53855119
895.255	0.53842566
895.428	0.53767027
895.6	0.53716293
895.773	0.5363166
895.945	0.5357688
896.118	0.53548015
896.291	0.53519843
896.463	0.53487632
896.636	0.53451844
896.808	0.53416517
896.981	0.53396603
897.153	0.53378484
897.326	0.53351757
897.498	0.53273756
897.67	0.53222624
897.843	0.53182963
898.015	0.53180584
898.187	0.53170705
898.36	0.53095569
898.532	0.53005476
898.704	0.53021404
898.877	0.52982866
899.049	0.52962603
899.221	0.52924956
899.393	0.52872851
899.566	0.528841
899.738	0.52924987
899.91	0.52887625
900.082	0.52869035
900.254	0.52847802
900.426	0.52813178
900.598	0.52791888
900.77	0.52724746
900.942	0.52647161
901.114	0.52573641
901.286	0.525192
901.458	0.52457692
901.63	0.52400656
901.802	0.52357644
901.974	0.5235393
902.146	0.52328369
902.318	0.5232039
902.49	0.52288111
902.662	0.52243127
902.834	0.5219475
903.005	0.52192719
903.177	0.52168547
903.349	0.52158051
903.521	0.52114588
903.693	0.52100626
903.864	0.52078151
904.036	0.52058402
904.208	0.5195285
904.379	0.51898005
904.551	0.51867852
904.723	0.51843716
904.894	0.5178897
905.066	0.51746887
905.237	0.51736789
905.409	0.51722992
905.58	0.51713664
905.752	0.51647314
905.923	0.51593981
906.095	0.51552532
906.266	0.5153411
906.438	0.5149915
906.609	0.51477064
906.78	0.51411618
906.952	0.51386964
907.123	0.51340217
907.295	0.51357032
907.466	0.51336953
907.637	0.51314932
907.808	0.51278696
907.98	0.51259227
908.151	0.51221038
908.322	0.51223046
908.493	0.51134962
908.665	0.51079483
908.836	0.51000218
909.007	0.50985897
909.178	0.50918955
909.349	0.5087174
909.52	0.50856243
909.691	0.50824719
909.862	0.50810764
910.033	0.50774047
910.204	0.50749492
910.375	0.50760667
910.546	0.507546
910.717	0.50676445
910.888	0.5067829
911.059	0.50660349
911.23	0.5065364
911.401	0.50587492
911.572	0.50521948
911.742	0.50450573
911.913	0.504345
912.084	0.5037091
912.255	0.50312182
912.426	0.50242954
912.596	0.50201517
912.767	0.50193907
912.938	0.50199278
913.108	0.50169025
913.279	0.50136644
913.45	0.50101389
913.62	0.50098977
913.791	0.50114738
913.962	0.5008359
914.132	0.50036865
914.303	0.49986088
914.473	0.4998576
914.644	0.49937288
914.814	0.49902128
914.985	0.49839436
915.155	0.49803364
915.326	0.49764801
915.496	0.49746439
915.666	0.49676698
915.837	0.49716507
916.007	0.49635013
916.177	0.49557794
916.348	0.49532017
916.518	0.49523214
916.688	0.49497466
916.858	0.49481184
917.029	0.49381042
917.199	0.49393755
917.369	0.4945623
917.539	0.49449852
917.709	0.49412108
917.88	0.49343447
918.05	0.4928428
918.22	0.49257242
918.39	0.49200833
918.56	0.49148054
918.73	0.49099897
918.9	0.49038586
919.07	0.49029574
919.24	0.49042716
919.41	0.49042278
919.58	0.48993493
919.75	0.48945984
919.92	0.48851264
920.09	0.48878748
920.26	0.4882714
920.429	0.48780184
920.599	0.48734043
920.769	0.48719371
920.939	0.48643767
921.109	0.48633301
921.278	0.48534595
921.448	0.48521134
921.618	0.48501935
921.787	0.48466883
921.957	0.48462114
922.127	0.48409186
922.296	0.48436071
922.466	0.48431216
922.636	0.48421294
922.805	0.48413373
922.975	0.48372809
923.144	0.48339217
923.314	0.48354101
923.483	0.48296417
923.653	0.48266902
923.822	0.48224184
923.992	0.48178103
924.161	0.4815255
924.331	0.48127828
924.5	0.48094897
924.669	0.48015868
924.839	0.47993269
925.008	0.47955858
925.177	0.47871462
925.347	0.4786915
925.516	0.47869895
925.685	0.47861479
925.854	0.47893129
926.023	0.4782901
926.193	0.47852677
926.362	0.47836554
926.531	0.47787986
926.7	0.47714965
926.869	0.47715183
927.038	0.47612044
927.207	0.47625795
927.376	0.47526064
927.545	0.47515513
927.715	0.47470237
927.884	0.47445126
928.052	0.47408209
928.221	0.47378445
928.39	0.47293201
928.559	0.4726767
928.728	0.47253853
928.897	0.4728622
929.066	0.47303101
929.235	0.47191626
929.404	0.4720575
929.572	0.47212464
929.741	0.47255401
929.91	0.47205664
930.079	0.47118924
930.247	0.47026729
930.416	0.4707546
930.585	0.47030212
930.753	0.47000648
930.922	0.46913349
931.091	0.46897042
931.259	0.46875792
931.428	0.4690438
931.596	0.46854974
931.765	0.46932823
931.934	0.469752
932.102	0.468885
932.27	0.46876177
932.439	0.46817473
932.607	0.46728167
932.776	0.46745712
932.944	0.46663182
933.113	0.46611226
933.281	0.46613594
933.449	0.46497726
933.618	0.46457495
933.786	0.4648662
933.954	0.46410004
934.123	0.46341548
934.291	0.46316965
934.459	0.46308225
934.627	0.46390671
934.795	0.46437128
934.964	0.46427783
935.132	0.46342157
935.3	0.46289452
935.468	0.46148053
935.636	0.46186866
935.804	0.46065354
935.972	0.45997856
936.14	0.45903762
936.308	0.45942574
936.476	0.46059119
936.644	0.46118437
936.812	0.46046284
936.98	0.46074625
937.148	0.46034386
937.316	0.45925895
937.484	0.4601279
937.652	0.45781784
937.82	0.45837269
937.987	0.45823906
938.155	0.45832907
938.323	0.45872831
938.491	0.45856179
938.658	0.45813473
938.826	0.45837417
938.994	0.45727183
939.162	0.45697666
939.329	0.45763426
939.497	0.45922309
939.665	0.46030615
939.832	0.46185107
940	0.4637747
940.167	0.46445345
940.335	0.46329506
940.502	0.4614153
940.67	0.45978783
940.837	0.46211917
941.005	0.45891437
941.172	0.45738978
941.34	0.45769485
941.507	0.46267864
941.674	0.46708637
941.842	0.46770256
942.009	0.4705102
942.177	0.46740222
942.344	0.46934971
942.511	0.46966151
942.678	0.46948084
942.846	0.46530826
943.013	0.46464482
943.18	0.45918892
943.347	0.46468878
943.514	0.4627354
943.682	0.46580487
943.849	0.46113426
944.016	0.46000551
944.183	0.46055973
944.35	0.46131818
944.517	0.46319213
944.684	0.46673897
944.851	0.45522253
945.018	0.45517724
945.185	0.45532579
945.352	0.45317883
945.519	0.45460684
945.686	0.45162455
945.853	0.45440942
946.02	0.45601236
946.187	0.45552636
946.353	0.46091179
946.52	0.46237078
946.687	0.46110303
946.854	0.46087877
947.021	0.45631247
947.187	0.45902878
947.354	0.45696518
947.521	0.45259292
947.687	0.44823422
947.854	0.44656939
948.021	0.44415522
948.187	0.44258676
948.354	0.44229941
948.52	0.44263585
948.687	0.44460188
948.854	0.44997626
949.02	0.4472344
949.187	0.44753037
949.353	0.44910341
949.52	0.44691419
949.686	0.44732864
949.852	0.44765883
950.019	0.44800199
950.185	0.45099094
950.352	0.45048612
950.518	0.4462334
950.684	0.44896969
950.851	0.4484969
951.017	0.44366087
951.183	0.44084119
951.349	0.43974002
951.516	0.43665791
951.682	0.4380281
951.848	0.4357383
952.014	0.43334744
952.18	0.43481186
952.346	0.43362038
952.512	0.43382777
952.679	0.43763099
952.845	0.43763688
953.011	0.43807944
953.177	0.43980956
953.343	0.43733725
953.509	0.4400286
953.675	0.43820173
953.841	0.4344344
954.007	0.43452689
954.172	0.43589584
954.338	0.43465737
954.504	0.43362219
954.67	0.42924008
954.836	0.43058756
955.002	0.43236877
955.167	0.43221492
955.333	0.42764603
955.499	0.42766738
955.665	0.42803003
955.83	0.43006875
955.996	0.42845584
956.162	0.42639264
956.327	0.42523145
956.493	0.42649093
956.659	0.42820726
956.824	0.42845607
956.99	0.42682962
957.155	0.42686621
957.321	0.42854559
957.486	0.42853491
957.652	0.42795784
957.817	0.42752592
957.983	0.42710089
958.148	0.42742878
958.314	0.42666295
958.479	0.42387513
958.644	0.4232825
958.81	0.42401789
958.975	0.42381475
959.14	0.42375682
959.306	0.42234732
959.471	0.42176518
959.636	0.42150181
959.801	0.42332535
959.967	0.42256403
960.132	0.42176069
960.297	0.42159909
960.462	0.42328995
960.627	0.42319185
960.792	0.42255182
960.957	0.42095423
961.123	0.42164602
961.288	0.42112271
961.453	0.42133813
961.618	0.42075859
961.783	0.42132142
961.948	0.42077336
962.113	0.4188429
962.277	0.41673085
962.442	0.41565435
962.607	0.41489419
962.772	0.41373812
962.937	0.4119526
963.102	0.41298349
963.267	0.41420767
963.431	0.41459058
963.596	0.41434559
963.761	0.41326147
963.926	0.41243548
964.09	0.41315186
964.255	0.41419187
964.42	0.41355596
964.584	0.41507226
964.749	0.41355857
964.914	0.41346499
965.078	0.41228751
965.243	0.4110914
965.407	0.40883986
965.572	0.40832768
965.736	0.40722193
965.901	0.40968466
966.065	0.41196006
966.23	0.41335089
966.394	0.41472209
966.559	0.41510878
966.723	0.415386
966.887	0.41435855
967.052	0.41210304
967.216	0.40848999
967.38	0.40542055
967.545	0.40408178
967.709	0.40455792
967.873	0.40509809
968.037	0.4048717
968.202	0.40548557
968.366	0.40774819
968.53	0.41054781
968.694	0.40970826
968.858	0.40835334
969.022	0.40572739
969.187	0.40468268
969.351	0.40429805
969.515	0.40281483
969.679	0.4007792
969.843	0.3998949
970.007	0.39958477
970.171	0.40143529
970.335	0.40205827
970.499	0.4021674
970.662	0.40204894
970.826	0.40243736
970.99	0.40417182
971.154	0.40535577
971.318	0.40366266
971.482	0.40194197
971.645	0.4015461
971.809	0.40275292
971.973	0.40276934
972.137	0.40127522
972.3	0.40027155
972.464	0.40159025
972.628	0.40467587
972.791	0.40615015
972.955	0.40437835
973.119	0.4042985
973.282	0.40472449
973.446	0.40461913
973.609	0.40346927
973.773	0.40149588
973.936	0.39910118
974.1	0.39941127
974.263	0.39880879
974.427	0.39879405
974.59	0.39788837
974.754	0.39699208
974.917	0.39585025
975.08	0.39653957
975.244	0.39553903
975.407	0.39586718
975.57	0.39466848
975.734	0.39387726
975.897	0.39391149
976.06	0.3948635
976.223	0.39470022
976.387	0.39586572
976.55	0.39482521
976.713	0.39518105
976.876	0.3963282
977.039	0.39518412
977.202	0.39518701
977.365	0.39256633
977.528	0.39210145
977.692	0.39309242
977.855	0.39128672
978.018	0.39021602
978.181	0.39071587
978.344	0.38957852
978.506	0.39053796
978.669	0.38895388
978.832	0.3873631
978.995	0.38771522
979.158	0.38875567
979.321	0.3880183
979.484	0.38747708
979.646	0.38709521
979.809	0.38829607
979.972	0.38755738
980.135	0.38914924
980.297	0.38762627
980.46	0.38754171
980.623	0.38922589
980.786	0.38960981
980.948	0.38911441
981.111	0.38923276
981.273	0.38792353
981.436	0.38825308
981.599	0.38943734
981.761	0.38722778
981.924	0.38878653
982.086	0.38820314
982.249	0.3891785
982.411	0.38848517
982.573	0.38752291
982.736	0.38946889
982.898	0.38951846
983.061	0.38793028
983.223	0.38702381
983.385	0.38603654
983.548	0.3884136
983.71	0.38874565
983.872	0.38546605
984.034	0.38529071
984.197	0.38286135
984.359	0.38377583
984.521	0.3854127
984.683	0.38588634
984.845	0.38662521
985.008	0.38603729
985.17	0.38785809
985.332	0.39010585
985.494	0.38787039
985.656	0.3869735
985.818	0.38403453
985.98	0.3830648
986.142	0.38120209
986.304	0.37916742
986.466	0.37733975
986.628	0.3777614
986.79	0.37683843
986.952	0.37555548
987.113	0.37499368
987.275	0.37561065
987.437	0.37575168
987.599	0.37745446
987.761	0.37888003
987.922	0.37798131
988.084	0.37982571
988.246	0.3799625
988.408	0.38103456
988.569	0.38189295
988.731	0.38181895
988.893	0.38058323
989.054	0.38302577
989.216	0.3826269
989.377	0.38134714
989.539	0.38042356
989.701	0.37734765
989.862	0.37553566
990.024	0.37459505
990.185	0.37169715
990.347	0.37194301
990.508	0.37162663
990.669	0.37416052
990.831	0.37588711
990.992	0.37933349
991.154	0.37816463
991.315	0.38320371
991.476	0.38367396
991.638	0.38544753
991.799	0.38328218
991.96	0.38384326
992.121	0.38233831
992.283	0.3838907
992.444	0.37903548
992.605	0.37653393
992.766	0.37498877
992.927	0.37466594
993.088	0.37383179
993.249	0.37224968
993.41	0.36974439
993.572	0.37132126
993.733	0.37254643
993.894	0.37223372
994.055	0.36912464
994.216	0.36911439
994.376	0.36598612
994.537	0.36923626
994.698	0.36889068
994.859	0.36648209
995.02	0.36709076
995.181	0.36579172
995.342	0.36569718
995.503	0.36779419
995.663	0.36709906
995.824	0.36464504
995.985	0.37004169
996.146	0.37125881
996.306	0.37430818
996.467	0.37494645
996.628	0.37646411
996.788	0.37528592
996.949	0.37808242
997.11	0.37278747
997.27	0.37043924
997.431	0.37014215
997.591	0.36450398
997.752	0.35963272
997.912	0.35984068
998.073	0.35754092
998.233	0.36002793
998.394	0.35980892
998.554	0.36342723
998.714	0.36627323
998.875	0.36726004
999.035	0.36497819
999.196	0.3667273
999.356	0.36398237
999.516	0.36468342
999.676	0.36311743
999.837	0.36580603
999.997	0.36495483
1000.157	0.3655461
1000.317	0.35970824
1000.477	0.35839552
1000.638	0.35673694
1000.798	0.35700069
1000.958	0.35646024
1001.118	0.35709446
1001.278	0.35670104
1001.438	0.35986814
1001.598	0.36172813
1001.758	0.36313841
1001.918	0.35996975
1002.078	0.35534638
1002.238	0.35736925
1002.398	0.36130963
1002.558	0.35936015
1002.718	0.35834942
1002.878	0.35808837
1003.037	0.3524804
1003.197	0.35608499
1003.357	0.35360714
1003.517	0.35335025
1003.677	0.35143591
1003.836	0.35140186
1003.996	0.34978294
1004.156	0.35424521
1004.315	0.35576362
1004.475	0.36096555
1004.635	0.36139329
1004.794	0.36620291
1004.954	0.36667087
1005.114	0.36674015
1005.273	0.37156109
1005.433	0.36496864
1005.592	0.36360317
1005.752	0.36036248
1005.911	0.3572628
1006.071	0.3581972
1006.23	0.35500774
1006.389	0.35140542
1006.549	0.35424579
1006.708	0.3515813
1006.868	0.34893116
1007.027	0.35261009
1007.186	0.35442082
1007.345	0.36222337
1007.505	0.36241732
1007.664	0.36530662
1007.823	0.3655033
1007.982	0.368872
1008.142	0.36841815
1008.301	0.36779182
1008.46	0.36187331
1008.619	0.35685853
1008.778	0.35377458
1008.937	0.35044279
1009.096	0.35098168
1009.255	0.35021493
1009.414	0.34132066
1009.573	0.34423814
1009.732	0.35126746
1009.891	0.34920252
1010.05	0.35378515
1010.209	0.34904661
1010.368	0.34883629
1010.527	0.35577577
1010.686	0.35670255
1010.845	0.34788908
1011.003	0.35216388
1011.162	0.35094618
1011.321	0.34681153
1011.48	0.34886405
1011.638	0.34625524
1011.797	0.34476664
1011.956	0.35263484
1012.115	0.3519606
1012.273	0.34972095
1012.432	0.35477304
1012.59	0.34676669
1012.749	0.34747282
1012.908	0.34459626
1013.066	0.3434153
1013.225	0.33973688
1013.383	0.34047708
1013.542	0.33938379
1013.7	0.34691566
1013.859	0.35280752
1014.017	0.36101153
1014.175	0.35471857
1014.334	0.36256892
1014.492	0.36723093
1014.65	0.37238969
1014.809	0.37519246
1014.967	0.37145096
1015.125	0.36703697
1015.284	0.38100386
1015.442	0.37508559
1015.6	0.37031507
1015.758	0.36731536
1015.916	0.35935814
1016.075	0.35653154
1016.233	0.35056298
1016.391	0.34888856
1016.549	0.35006438
1016.707	0.35369216
1016.865	0.35250613
1017.023	0.34610438
1017.181	0.34732288
1017.339	0.35147699
1017.497	0.34497823
1017.655	0.34339029
1017.813	0.34096664
1017.971	0.34302243
1018.129	0.3511208
1018.286	0.35142389
1018.444	0.34274139
1018.602	0.34433804
1018.76	0.34341454
1018.918	0.33973122
1019.075	0.33809772
1019.233	0.33908404
1019.391	0.34109685
1019.549	0.35339792
1019.706	0.3552269
1019.864	0.35619815
1020.022	0.36589447
1020.179	0.37040795
1020.337	0.36708531
1020.494	0.36150391
1020.652	0.35288537
1020.809	0.35210896
1020.967	0.34492803
1021.124	0.34079531
1021.282	0.34469897
1021.439	0.34569447
1021.597	0.35403336
1021.754	0.35767115
1021.911	0.36781436
1022.069	0.36740628
1022.226	0.365076
1022.384	0.35041658
1022.541	0.35027712
1022.698	0.340938
1022.855	0.34013668
1023.013	0.3303694
1023.17	0.33084699
1023.327	0.3351611
1023.484	0.34535775
1023.641	0.34776135
1023.798	0.36927017
1023.956	0.38286693
1024.113	0.37170897
1024.27	0.37133507
1024.427	0.37406161
1024.584	0.377571
1024.741	0.36821245
1024.898	0.34834448
1025.055	0.32907074
1025.212	0.3314505
1025.369	0.32254847
1025.525	0.31632983
1025.682	0.3197685
1025.839	0.3251465
1025.996	0.32876415
1026.153	0.34686135
1026.31	0.36118494
1026.466	0.39605882
1026.623	0.40502658
1026.78	0.39465978
1026.937	0.3953145
1027.093	0.39383639
1027.25	0.40158403
1027.407	0.38400072
1027.563	0.37162316
1027.72	0.36707382
1027.876	0.35970028
1028.033	0.36444623
1028.19	0.36882334
1028.346	0.34610628
1028.503	0.35866302
1028.659	0.36344655
1028.816	0.36790653
1028.972	0.38199651
1029.128	0.39147288
1029.285	0.37904115
1029.441	0.38345598
1029.598	0.3619626
1029.754	0.36862331
1029.91	0.35858035
1030.067	0.34325772
1030.223	0.34402412
1030.379	0.34977243
1030.535	0.35887163
1030.691	0.3735834
1030.848	0.37389893
1031.004	0.38132326
1031.16	0.39853572
1031.316	0.40354469
1031.472	0.42801756
1031.628	0.41164699
1031.784	0.41172519
1031.94	0.41393561
1032.096	0.42336956
1032.252	0.43025042
1032.408	0.44090273
1032.564	0.42227025
1032.72	0.44100851
1032.876	0.42598145
1033.032	0.41156864
1033.188	0.39799036
1033.344	0.40600246
1033.5	0.40089199
1033.655	0.3981759
1033.811	0.40243011
1033.967	0.44330049
