Data from 0_1_mm_pl_10pc_Absorbance__0__15-23-40-588.txt Node

Date: Fri Feb 24 15:23:40 CET 2023
User: Ange
Spectrometer: FLMT08341
Trigger mode: 0
Integration Time (sec): 1.000000E-2
Scans to average: 400
Electric dark correction enabled: true
Nonlinearity correction enabled: false
Boxcar width: 3
XAxis mode: Wavelengths
Number of Pixels in Spectrum: 3648
>>>>>Begin Spectral Data<<<<<
345.271	-0.01203705
345.487	-0.00640311
345.704	-0.00273186
345.921	0.00201851
346.137	0.01471175
346.354	0.01222435
346.571	0.02426366
346.787	0.00579969
347.004	0.1407029
347.22	0.05719206
347.437	0.07345709
347.653	0.14410099
347.87	-0.11664959
348.086	-0.35751135
348.303	-0.23571039
348.519	0.36367266
348.736	0.31777115
348.952	0.32540546
349.169	0.33707677
349.385	0.35207683
349.601	0.35281696
349.818	0.35240134
350.034	0.34784385
350.251	0.34872384
350.467	0.34949834
350.683	0.340755
350.9	0.33852676
351.116	0.33737808
351.332	0.33317892
351.549	0.34281907
351.765	0.34934929
351.981	0.35420384
352.197	0.3650436
352.414	0.37357765
352.63	0.37726889
352.846	0.38238822
353.062	0.37288397
353.278	0.36674703
353.495	0.37390757
353.711	0.37067091
353.927	0.37220318
354.143	0.37116556
354.359	0.36666537
354.575	0.36545961
354.792	0.37454852
355.008	0.36694771
355.224	0.36324099
355.44	0.35985439
355.656	0.35830342
355.872	0.36404929
356.088	0.37578996
356.304	0.37389392
356.52	0.37400367
356.736	0.37434147
356.952	0.3726198
357.168	0.37043528
357.384	0.36912071
357.6	0.35947743
357.816	0.36089175
358.032	0.36428452
358.248	0.36924196
358.464	0.36922391
358.679	0.36989626
358.895	0.36751595
359.111	0.37182844
359.327	0.36417792
359.543	0.36349689
359.759	0.36499239
359.974	0.3629753
360.19	0.36177793
360.406	0.36192112
360.622	0.35661386
360.838	0.35454347
361.053	0.35411311
361.269	0.35312462
361.485	0.35291324
361.701	0.35178122
361.916	0.34735111
362.132	0.34738285
362.348	0.34830744
362.563	0.34535455
362.779	0.34149825
362.995	0.34229455
363.21	0.34373221
363.426	0.34371014
363.641	0.34377265
363.857	0.34393145
364.073	0.3410112
364.288	0.33784923
364.504	0.339773
364.719	0.33767582
364.935	0.33707865
365.15	0.33373746
365.366	0.33093924
365.581	0.33180797
365.797	0.33176008
366.012	0.3250898
366.228	0.32106465
366.443	0.32218771
366.658	0.32137562
366.874	0.31890442
367.089	0.32037412
367.305	0.31830061
367.52	0.31786441
367.735	0.31611385
367.951	0.31152804
368.166	0.31114852
368.381	0.31264682
368.597	0.30821884
368.812	0.30782766
369.027	0.30834877
369.243	0.30976255
369.458	0.31183311
369.673	0.31097684
369.888	0.30873238
370.104	0.30565337
370.319	0.30466985
370.534	0.30114378
370.749	0.29797014
370.964	0.29625891
371.179	0.29363213
371.395	0.29085548
371.61	0.29105866
371.825	0.28795549
372.04	0.28781522
372.255	0.28615126
372.47	0.28385619
372.685	0.28074749
372.9	0.27841423
373.115	0.27528838
373.33	0.27444887
373.545	0.27237258
373.76	0.2710999
373.975	0.26799413
374.19	0.26626022
374.405	0.26605226
374.62	0.26726948
374.835	0.26710054
375.05	0.26565035
375.265	0.26419931
375.48	0.26364226
375.695	0.26528945
375.91	0.26275771
376.125	0.25831786
376.339	0.25447517
376.554	0.25263229
376.769	0.25167656
376.984	0.24958031
377.199	0.24762172
377.414	0.24623286
377.628	0.24640703
377.843	0.24650698
378.058	0.24524534
378.273	0.24409249
378.487	0.24298009
378.702	0.24248087
378.917	0.24096158
379.131	0.23843764
379.346	0.23552824
379.561	0.23398216
379.775	0.23179649
379.99	0.22924549
380.205	0.22586602
380.419	0.22457341
380.634	0.22247471
380.848	0.22202698
381.063	0.22089493
381.278	0.22059254
381.492	0.21889097
381.707	0.21838005
381.921	0.2170187
382.136	0.21719295
382.35	0.21485603
382.565	0.21264322
382.779	0.21149027
382.994	0.21124836
383.208	0.20892722
383.422	0.20853417
383.637	0.20696241
383.851	0.20690334
384.066	0.20673775
384.28	0.2056468
384.494	0.20412844
384.709	0.20384029
384.923	0.20229828
385.137	0.20045172
385.352	0.19984656
385.566	0.19852594
385.78	0.19706995
385.995	0.19542686
386.209	0.19324776
386.423	0.19235038
386.637	0.19153555
386.852	0.18947368
387.066	0.18768244
387.28	0.18606729
387.494	0.18650272
387.708	0.18624099
387.923	0.18455292
388.137	0.18378568
388.351	0.18325492
388.565	0.18290551
388.779	0.18223509
388.993	0.18156815
389.207	0.18006556
389.421	0.1797796
389.635	0.17875836
389.85	0.17740994
390.064	0.17673101
390.278	0.17612851
390.492	0.17477333
390.706	0.17475313
390.92	0.17353336
391.134	0.17307702
391.348	0.17276351
391.561	0.17111628
391.775	0.16971551
391.989	0.16854406
392.203	0.16740065
392.417	0.1669951
392.631	0.16628998
392.845	0.16478825
393.059	0.16481035
393.273	0.16379246
393.486	0.16230875
393.7	0.16089622
393.914	0.159933
394.128	0.15861
394.342	0.15788445
394.555	0.15643773
394.769	0.15535768
394.983	0.15493205
395.197	0.15479572
395.41	0.15383166
395.624	0.15323409
395.838	0.15284764
396.051	0.1524115
396.265	0.15193019
396.479	0.15118838
396.692	0.15013565
396.906	0.14933638
397.12	0.14863527
397.333	0.14790997
397.547	0.14751516
397.76	0.14738028
397.974	0.14683442
398.187	0.14676383
398.401	0.14651039
398.614	0.14600433
398.828	0.14537578
399.041	0.14472183
399.255	0.14380993
399.468	0.14316317
399.682	0.14220168
399.895	0.14140483
400.109	0.14049391
400.322	0.14003576
400.536	0.13911178
400.749	0.13899442
400.962	0.13865432
401.176	0.13811465
401.389	0.13769507
401.602	0.13729943
401.816	0.13663387
402.029	0.13652028
402.242	0.13555223
402.456	0.13496198
402.669	0.13409266
402.882	0.13316253
403.095	0.13283095
403.309	0.13223475
403.522	0.1318767
403.735	0.13127069
403.948	0.13066949
404.161	0.13091621
404.375	0.13067936
404.588	0.13023983
404.801	0.12984996
405.014	0.12874307
405.227	0.12907109
405.44	0.12897186
405.653	0.12862502
405.866	0.12804703
406.079	0.12738997
406.293	0.12702119
406.506	0.12659591
406.719	0.12576645
406.932	0.12529281
407.145	0.1245002
407.358	0.12450711
407.571	0.12390724
407.784	0.12360026
407.996	0.12374585
408.209	0.1233029
408.422	0.12274786
408.635	0.12241136
408.848	0.12213034
409.061	0.12184712
409.274	0.12136531
409.487	0.12075766
409.7	0.12070933
409.912	0.12052959
410.125	0.12031469
410.338	0.11986832
410.551	0.11941509
410.764	0.11899888
410.976	0.11877673
411.189	0.11821697
411.402	0.11782485
411.615	0.11753764
411.827	0.1173574
412.04	0.11751106
412.253	0.11740215
412.465	0.11697657
412.678	0.11665693
412.891	0.11658954
413.103	0.11594364
413.316	0.11543273
413.529	0.115103
413.741	0.11500348
413.954	0.11519624
414.166	0.11501517
414.379	0.11449936
414.591	0.114729
414.804	0.11456049
415.016	0.11436818
415.229	0.11401682
415.441	0.11329255
415.654	0.11321584
415.866	0.11329983
416.079	0.11329919
416.291	0.11329313
416.504	0.11315344
416.716	0.11277183
416.928	0.11268459
417.141	0.11234515
417.353	0.11198907
417.566	0.11114222
417.778	0.11074667
417.99	0.11034156
418.203	0.11029469
418.415	0.11025234
418.627	0.1101545
418.839	0.10999245
419.052	0.11031728
419.264	0.11029194
419.476	0.11025545
419.688	0.11012372
419.901	0.11004743
420.113	0.10960441
420.325	0.10949194
420.537	0.10909655
420.749	0.1088938
420.961	0.10866924
421.174	0.10840445
421.386	0.10808957
421.598	0.10803201
421.81	0.10784766
422.022	0.10785684
422.234	0.10785899
422.446	0.10774999
422.658	0.1076837
422.87	0.10771802
423.082	0.10749031
423.294	0.10727171
423.506	0.10704407
423.718	0.1064999
423.93	0.1063445
424.142	0.10614572
424.354	0.10571402
424.566	0.10578526
424.778	0.10583356
424.99	0.10568518
425.202	0.10559872
425.414	0.10540548
425.625	0.10536652
425.837	0.10524735
426.049	0.10498895
426.261	0.10470506
426.473	0.10439042
426.684	0.1045414
426.896	0.10469958
427.108	0.10445854
427.32	0.1043694
427.531	0.10413364
427.743	0.10404645
427.955	0.10403529
428.167	0.10377978
428.378	0.10348691
428.59	0.1034257
428.802	0.10341011
429.013	0.10365801
429.225	0.10379097
429.436	0.10377072
429.648	0.10391449
429.86	0.10391057
430.071	0.10399994
430.283	0.10395401
430.494	0.10374957
430.706	0.1035992
430.917	0.10345122
431.129	0.1031904
431.34	0.10323296
431.552	0.10326838
431.763	0.10319578
431.975	0.10338007
432.186	0.1032091
432.398	0.10345579
432.609	0.10320991
432.821	0.10319013
433.032	0.10306486
433.243	0.10293175
433.455	0.10274488
433.666	0.10281111
433.877	0.10274923
434.089	0.10286277
434.3	0.10275865
434.511	0.10240254
434.723	0.10254751
434.934	0.10248104
435.145	0.10239209
435.356	0.1023458
435.568	0.10239623
435.779	0.10223394
435.99	0.10219772
436.201	0.10197557
436.412	0.10186128
436.624	0.10182049
436.835	0.10173306
437.046	0.1017576
437.257	0.10167446
437.468	0.1020009
437.679	0.10191563
437.89	0.10192244
438.101	0.10184286
438.312	0.10179812
438.523	0.10156025
438.734	0.10151485
438.945	0.1011314
439.156	0.10111179
439.367	0.10103688
439.578	0.10108267
439.789	0.10084026
440	0.10087948
440.211	0.10070212
440.422	0.10091408
440.633	0.10088991
440.844	0.10065965
441.055	0.10036828
441.266	0.10053658
441.477	0.10050799
441.687	0.1005363
441.898	0.10054354
442.109	0.10053063
442.32	0.10068013
442.531	0.10077812
442.741	0.10057297
442.952	0.10048069
443.163	0.10050194
443.374	0.10031014
443.584	0.10029644
443.795	0.10030961
444.006	0.10026287
444.216	0.10029286
444.427	0.10018594
444.638	0.1003132
444.848	0.10033433
445.059	0.10016811
445.27	0.09999373
445.48	0.10003007
445.691	0.10000346
445.901	0.10020519
446.112	0.1000088
446.323	0.09995113
446.533	0.10006953
446.744	0.10004064
446.954	0.09994597
447.165	0.09992837
447.375	0.09983712
447.586	0.09988168
447.796	0.0999345
448.006	0.09986967
448.217	0.09996369
448.427	0.10013495
448.638	0.1001517
448.848	0.10004592
449.058	0.10002835
449.269	0.0999982
449.479	0.10002468
449.689	0.10006308
449.9	0.09995221
450.11	0.09998905
450.32	0.10007517
450.531	0.10012756
450.741	0.10010839
450.951	0.10016619
451.161	0.10016188
451.372	0.10022022
451.582	0.10028461
451.792	0.10013419
452.002	0.10012785
452.212	0.09996097
452.422	0.10003599
452.633	0.10016075
452.843	0.10025199
453.053	0.10022477
453.263	0.10046525
453.473	0.10057877
453.683	0.10086431
453.893	0.10076475
454.103	0.10067473
454.313	0.10056384
454.523	0.10061654
454.733	0.10064661
454.943	0.10058413
455.153	0.10058307
455.363	0.10073694
455.573	0.10088822
455.783	0.10089752
455.993	0.10082783
456.203	0.10084451
456.413	0.10093158
456.623	0.10096317
456.833	0.10105306
457.042	0.10101131
457.252	0.1011481
457.462	0.10135533
457.672	0.10148623
457.882	0.10150655
458.091	0.10150217
458.301	0.10140847
458.511	0.10148293
458.721	0.10150729
458.931	0.10147824
459.14	0.10147813
459.35	0.10151572
459.56	0.10164752
459.769	0.10176703
459.979	0.10190252
460.189	0.10198775
460.398	0.10209421
460.608	0.10212807
460.817	0.10224213
461.027	0.10224247
461.237	0.10238058
461.446	0.10233343
461.656	0.10246703
461.865	0.10246731
462.075	0.10256454
462.284	0.10269225
462.494	0.10291986
462.703	0.10290628
462.913	0.10300696
463.122	0.10302718
463.332	0.10318735
463.541	0.1031923
463.751	0.10322968
463.96	0.10322607
464.169	0.10343048
464.379	0.10361321
464.588	0.10379668
464.797	0.10390228
465.007	0.10405178
465.216	0.10409091
465.425	0.10415904
465.635	0.10417558
465.844	0.10418337
466.053	0.10423937
466.263	0.10417663
466.472	0.1042528
466.681	0.10440143
466.89	0.10442936
467.099	0.10447698
467.309	0.10466232
467.518	0.10481537
467.727	0.10489553
467.936	0.10504281
468.145	0.10522611
468.354	0.10536277
468.563	0.10546759
468.772	0.10548968
468.982	0.1054466
469.191	0.10562597
469.4	0.10566962
469.609	0.10561089
469.818	0.10577028
470.027	0.10597392
470.236	0.10611835
470.445	0.10618109
470.654	0.1062712
470.863	0.10627626
471.072	0.10646059
471.28	0.10655464
471.489	0.10661874
471.698	0.10666382
471.907	0.10680702
472.116	0.10687689
472.325	0.1070598
472.534	0.10707174
472.743	0.10708174
472.951	0.10722717
473.16	0.107512
473.369	0.10761091
473.578	0.10785065
473.786	0.10802295
473.995	0.10813197
474.204	0.10831901
474.413	0.10834227
474.621	0.10838806
474.83	0.10852133
475.039	0.10865597
475.247	0.10869425
475.456	0.10895825
475.665	0.10912165
475.873	0.10932462
476.082	0.1094273
476.291	0.10957288
476.499	0.10967127
476.708	0.10986718
476.916	0.10993973
477.125	0.11015424
477.333	0.11037456
477.542	0.11052339
477.75	0.11072984
477.959	0.11097542
478.167	0.11115542
478.376	0.11134271
478.584	0.11152032
478.793	0.11150898
479.001	0.11166004
479.209	0.11178942
479.418	0.11185166
479.626	0.11205346
479.834	0.11220298
480.043	0.11233798
480.251	0.11257489
480.459	0.11275436
480.668	0.11296507
480.876	0.11319507
481.084	0.11334466
481.293	0.11349073
481.501	0.11361274
481.709	0.1138102
481.917	0.11393565
482.125	0.11404705
482.334	0.11418974
482.542	0.114406
482.75	0.11458975
482.958	0.11474269
483.166	0.11491928
483.374	0.11516929
483.583	0.11542534
483.791	0.11559576
483.999	0.11570945
484.207	0.11593622
484.415	0.11615318
484.623	0.11636872
484.831	0.11652372
485.039	0.11672542
485.247	0.11702038
485.455	0.11730337
485.663	0.11743546
485.871	0.11761041
486.079	0.11778571
486.287	0.11805124
486.495	0.11819061
486.702	0.11834105
486.91	0.11850705
487.118	0.11878785
487.326	0.11904126
487.534	0.11923748
487.742	0.11944873
487.95	0.11965334
488.157	0.11986543
488.365	0.12006025
488.573	0.12029141
488.781	0.12055923
488.988	0.12086399
489.196	0.12106179
489.404	0.12129752
489.612	0.12145997
489.819	0.12171207
490.027	0.12190124
490.235	0.12209314
490.442	0.12223115
490.65	0.12240067
490.857	0.1226829
491.065	0.12293437
491.273	0.12313
491.48	0.12339466
491.688	0.12353511
491.895	0.12381893
492.103	0.12408176
492.31	0.12423378
492.518	0.12441519
492.725	0.12472463
492.933	0.12490629
493.14	0.12516144
493.348	0.12533475
493.555	0.12560341
493.763	0.12588572
493.97	0.12614824
494.177	0.12637757
494.385	0.12661184
494.592	0.12688978
494.8	0.12711981
495.007	0.12732405
495.214	0.12751352
495.422	0.12780009
495.629	0.12800483
495.836	0.12824609
496.043	0.12849394
496.251	0.12878987
496.458	0.12904585
496.665	0.12938617
496.872	0.12964061
497.08	0.12992498
497.287	0.13022925
497.494	0.13053359
497.701	0.13086699
497.908	0.13113843
498.115	0.13136045
498.322	0.13164924
498.53	0.13190035
498.737	0.13213768
498.944	0.13240407
499.151	0.13263682
499.358	0.13298645
499.565	0.13330353
499.772	0.13354921
499.979	0.13382459
500.186	0.13415024
500.393	0.13444482
500.6	0.13470718
500.807	0.13490929
501.014	0.13512777
501.221	0.13542798
501.427	0.13566764
501.634	0.13599919
501.841	0.13619786
502.048	0.1365082
502.255	0.13682068
502.462	0.13712046
502.669	0.13742487
502.875	0.13779193
503.082	0.13798881
503.289	0.13832427
503.496	0.13864659
503.702	0.13889901
503.909	0.13922572
504.116	0.13949495
504.323	0.13972588
504.529	0.14011634
504.736	0.14043943
504.943	0.14066302
505.149	0.1410252
505.356	0.14134015
505.563	0.14168205
505.769	0.14200254
505.976	0.142243
506.182	0.14257964
506.389	0.14296588
506.595	0.14325911
506.802	0.14355053
507.008	0.14383723
507.215	0.14420722
507.421	0.14459845
507.628	0.14490141
507.834	0.14518352
508.041	0.14544414
508.247	0.145784
508.454	0.14614142
508.66	0.14646616
508.866	0.14674628
509.073	0.1470563
509.279	0.14738836
509.486	0.14775304
509.692	0.14808144
509.898	0.14844632
510.105	0.14876834
510.311	0.14913427
510.517	0.14947758
510.723	0.14977575
510.93	0.15012211
511.136	0.15049293
511.342	0.15077728
511.548	0.15113294
511.754	0.15145026
511.961	0.15178613
512.167	0.15216048
512.373	0.15252219
512.579	0.15280566
512.785	0.15316989
512.991	0.15346715
513.197	0.15381677
513.404	0.15414773
513.61	0.15452379
513.816	0.15486752
514.022	0.15524452
514.228	0.15556006
514.434	0.15589119
514.64	0.15629215
514.846	0.15667679
515.052	0.15700836
515.258	0.15732573
515.464	0.15770863
515.669	0.15808776
515.875	0.15848102
516.081	0.15877071
516.287	0.15911968
516.493	0.15952461
516.699	0.15990313
516.905	0.16022459
517.111	0.16057735
517.316	0.16096947
517.522	0.1613419
517.728	0.16173269
517.934	0.16207706
518.139	0.16247675
518.345	0.16283707
518.551	0.16324061
518.757	0.16359867
518.962	0.16401689
519.168	0.16437272
519.374	0.16472212
519.579	0.16507481
519.785	0.16549106
519.991	0.16585295
520.196	0.16621093
520.402	0.16659927
520.607	0.16700104
520.813	0.16742638
521.018	0.16783135
521.224	0.16823086
521.429	0.16862034
521.635	0.16900985
521.84	0.1693456
522.046	0.16972701
522.251	0.17012375
522.457	0.17045603
522.662	0.17082586
522.868	0.1712301
523.073	0.17162771
523.279	0.17206556
523.484	0.17243041
523.689	0.17280305
523.895	0.17322556
524.1	0.17358484
524.305	0.17397106
524.511	0.17435046
524.716	0.17468847
524.921	0.17516333
525.126	0.17553947
525.332	0.17597282
525.537	0.17639737
525.742	0.17683443
525.947	0.17727149
526.153	0.17765305
526.358	0.17803832
526.563	0.17840657
526.768	0.17878842
526.973	0.17920234
527.178	0.17960702
527.383	0.17995243
527.588	0.1804344
527.794	0.18078635
527.999	0.18122984
528.204	0.18164571
528.409	0.18198849
528.614	0.18235821
528.819	0.18275706
529.024	0.18306679
529.229	0.18345408
529.434	0.18386786
529.639	0.18418903
529.843	0.18460879
530.048	0.1849813
530.253	0.18540689
530.458	0.18587749
530.663	0.18630632
530.868	0.18670467
531.073	0.18722683
531.278	0.18766501
531.482	0.18811247
531.687	0.18850077
531.892	0.18883992
532.097	0.18923734
532.302	0.18968649
532.506	0.19008703
532.711	0.19049632
532.916	0.19088197
533.12	0.19135979
533.325	0.19178362
533.53	0.19223049
533.734	0.19257597
533.939	0.19302851
534.144	0.19339485
534.348	0.19379186
534.553	0.19414463
534.757	0.19459662
534.962	0.19502193
535.167	0.19550119
535.371	0.19585948
535.576	0.19637174
535.78	0.19684325
535.985	0.19733421
536.189	0.19781182
536.394	0.19819547
536.598	0.19858746
536.803	0.19901962
537.007	0.19941409
537.211	0.19988042
537.416	0.2003462
537.62	0.20067259
537.825	0.20116917
538.029	0.20166676
538.233	0.20205591
538.438	0.20250641
538.642	0.20287222
538.846	0.2032532
539.05	0.20373545
539.255	0.20409821
539.459	0.20448446
539.663	0.20493193
539.867	0.2053637
540.072	0.20579518
540.276	0.20621769
540.48	0.20666046
540.684	0.20709666
540.888	0.20756494
541.092	0.20796898
541.297	0.20838561
541.501	0.20879687
541.705	0.20920123
541.909	0.20962251
542.113	0.21000999
542.317	0.2104158
542.521	0.21092726
542.725	0.21134445
542.929	0.21177878
543.133	0.21223464
543.337	0.21265247
543.541	0.21309183
543.745	0.2134948
543.949	0.21392456
544.153	0.21431308
544.357	0.21475238
544.56	0.2151653
544.764	0.21560213
544.968	0.21603186
545.172	0.21641421
545.376	0.21677307
545.58	0.21725049
545.783	0.21767059
545.987	0.21806421
546.191	0.2184217
546.395	0.21887037
546.598	0.21931355
546.802	0.21975593
547.006	0.22014315
547.21	0.22060034
547.413	0.22105676
547.617	0.22156278
547.821	0.22200531
548.024	0.22246858
548.228	0.222841
548.431	0.2232926
548.635	0.22367715
548.839	0.22407459
549.042	0.22451194
549.246	0.2248634
549.449	0.22524201
549.653	0.2256747
549.856	0.22606617
550.06	0.22652359
550.263	0.22696272
550.467	0.22731686
550.67	0.2277646
550.874	0.22816047
551.077	0.22862624
551.28	0.22907979
551.484	0.22948668
551.687	0.22986407
551.891	0.23035065
552.094	0.23074255
552.297	0.23121612
552.501	0.23163452
552.704	0.23204399
552.907	0.23239252
553.11	0.23280819
553.314	0.23319166
553.517	0.2335796
553.72	0.23396196
553.923	0.23440931
554.127	0.23481747
554.33	0.23518653
554.533	0.23559195
554.736	0.23589325
554.939	0.23629425
555.142	0.23674507
555.345	0.23704089
555.549	0.23740141
555.752	0.23780966
555.955	0.23819412
556.158	0.23872517
556.361	0.23919747
556.564	0.23949382
556.767	0.23993088
556.97	0.24036334
557.173	0.24079938
557.376	0.24124562
557.579	0.24160039
557.782	0.24197357
557.984	0.24240336
558.187	0.24279676
558.39	0.24314977
558.593	0.2435795
558.796	0.24392194
558.999	0.24429574
559.202	0.24470369
559.404	0.24507866
559.607	0.24544498
559.81	0.24584343
560.013	0.24618099
560.216	0.24658066
560.418	0.246945
560.621	0.24727355
560.824	0.24764941
561.026	0.24803898
561.229	0.24833117
561.432	0.24868966
561.634	0.24900586
561.837	0.24937463
562.04	0.24971929
562.242	0.25013506
562.445	0.25049036
562.647	0.2509673
562.85	0.25129613
563.053	0.25168469
563.255	0.25206979
563.458	0.25249863
563.66	0.25282366
563.863	0.25319429
564.065	0.25345056
564.268	0.25386197
564.47	0.25426045
564.672	0.25455383
564.875	0.25485901
565.077	0.25519077
565.28	0.25552895
565.482	0.25589714
565.684	0.25616594
565.887	0.25642155
566.089	0.25679318
566.291	0.25712523
566.494	0.25748951
566.696	0.25789821
566.898	0.25829351
567.1	0.25867084
567.303	0.25903648
567.505	0.25932741
567.707	0.25961452
567.909	0.25991534
568.111	0.26016191
568.314	0.26045639
568.516	0.2608262
568.718	0.2611658
568.92	0.26153677
569.122	0.26187198
569.324	0.26220065
569.526	0.26249905
569.728	0.26280602
569.93	0.26304794
570.132	0.26338227
570.334	0.26370153
570.536	0.26402931
570.738	0.2643147
570.94	0.26460317
571.142	0.26494101
571.344	0.26523828
571.546	0.26551205
571.748	0.26578545
571.95	0.26600356
572.152	0.26633224
572.354	0.26665378
572.555	0.26696347
572.757	0.26734635
572.959	0.26763546
573.161	0.26798466
573.363	0.26831139
573.564	0.26866963
573.766	0.26898883
573.968	0.26929691
574.17	0.26952932
574.371	0.26980888
574.573	0.27002365
574.775	0.27029308
574.976	0.27047961
575.178	0.27072066
575.38	0.27088784
575.581	0.2711374
575.783	0.27144408
575.985	0.27175693
576.186	0.27205378
576.388	0.27237189
576.589	0.27264783
576.791	0.27303483
576.992	0.27336366
577.194	0.27363727
577.395	0.27388246
577.597	0.27422271
577.798	0.27443576
578	0.27469898
578.201	0.27498552
578.402	0.27518149
578.604	0.27534378
578.805	0.27563501
579.007	0.27586167
579.208	0.27618325
579.409	0.27642764
579.611	0.27664199
579.812	0.2770091
580.013	0.27738103
580.215	0.27749841
580.416	0.27774445
580.617	0.2778971
580.818	0.27817427
581.019	0.27838802
581.221	0.27856488
581.422	0.27879758
581.623	0.27918841
581.824	0.27933676
582.025	0.27966388
582.226	0.27991754
582.428	0.28024762
582.629	0.2804261
582.83	0.28068147
583.031	0.28084826
583.232	0.28117039
583.433	0.28138587
583.634	0.28158034
583.835	0.28172718
584.036	0.28199733
584.237	0.28217377
584.438	0.28241695
584.639	0.28261715
584.84	0.28288847
585.041	0.28315068
585.242	0.28339406
585.442	0.28361803
585.643	0.28392678
585.844	0.28418074
586.045	0.28447281
586.246	0.28453763
586.447	0.28468638
586.647	0.2848468
586.848	0.28503568
587.049	0.28521792
587.25	0.28540646
587.45	0.28558016
587.651	0.28591294
587.852	0.28617654
588.053	0.28652044
588.253	0.28678296
588.454	0.28698609
588.655	0.28719034
588.855	0.28738234
589.056	0.28758479
589.256	0.28784652
589.457	0.28802588
589.658	0.28832703
589.858	0.28857887
590.059	0.28884396
590.259	0.28913941
590.46	0.28936567
590.66	0.28952888
590.861	0.28975803
591.061	0.28990962
591.262	0.29014942
591.462	0.29041553
591.662	0.29063761
591.863	0.29084805
592.063	0.29109681
592.264	0.29135691
592.464	0.29157738
592.664	0.29175215
592.865	0.29198916
593.065	0.29210458
593.265	0.29236544
593.465	0.29251998
593.666	0.29265709
593.866	0.29284934
594.066	0.29308333
594.266	0.29319776
594.467	0.2934263
594.667	0.29358301
594.867	0.29392143
595.067	0.294113
595.267	0.29429888
595.467	0.29445583
595.668	0.29470315
595.868	0.29492643
596.068	0.29512886
596.268	0.29519156
596.468	0.29543351
596.668	0.29564133
596.868	0.29587706
597.068	0.2960404
597.268	0.29623133
597.468	0.2964005
597.668	0.29663959
597.868	0.29683127
598.068	0.29708553
598.268	0.29723233
598.467	0.29753533
598.667	0.29769369
598.867	0.29792789
599.067	0.29817965
599.267	0.29835543
599.467	0.2984672
599.667	0.29865435
599.866	0.29879311
600.066	0.29904492
600.266	0.29918139
600.466	0.29936096
600.665	0.29957083
600.865	0.29986536
601.065	0.30013221
601.264	0.30027531
601.464	0.30046913
601.664	0.30081161
601.863	0.30101785
602.063	0.30123348
602.263	0.30133586
602.462	0.30155036
602.662	0.30181243
602.861	0.30209869
603.061	0.30225437
603.26	0.30250049
603.46	0.30266712
603.659	0.30291007
603.859	0.30299678
604.058	0.30314755
604.258	0.30333898
604.457	0.30362342
604.657	0.30364876
604.856	0.30374928
605.056	0.30399896
605.255	0.30426219
605.454	0.30452548
605.654	0.30464132
605.853	0.30480861
606.052	0.30514582
606.252	0.30552238
606.451	0.30579505
606.65	0.30608268
606.849	0.30617217
607.049	0.30646441
607.248	0.30659993
607.447	0.3068102
607.646	0.30705509
607.845	0.30720349
608.045	0.30733159
608.244	0.30773793
608.443	0.30795646
608.642	0.30827502
608.841	0.30845785
609.04	0.30852032
609.239	0.3087712
609.438	0.30893383
609.637	0.30916872
609.836	0.30939146
610.035	0.30953871
610.234	0.30988355
610.433	0.31024879
610.632	0.31048474
610.831	0.31092071
611.03	0.31103744
611.229	0.31138048
611.428	0.3117208
611.627	0.31190892
611.826	0.31213574
612.025	0.31244821
612.224	0.31257793
612.422	0.31289444
612.621	0.31310848
612.82	0.31333014
613.019	0.31360622
613.218	0.31396943
613.416	0.31411522
613.615	0.31444383
613.814	0.3147266
614.012	0.31491531
614.211	0.31508992
614.41	0.31535359
614.608	0.31551945
614.807	0.31585133
615.006	0.31619135
615.204	0.31638701
615.403	0.31668291
615.602	0.31705875
615.8	0.31740471
615.999	0.31758683
616.197	0.31779374
616.396	0.31804599
616.594	0.31826412
616.793	0.31861514
616.991	0.31882577
617.19	0.31889144
617.388	0.31937034
617.586	0.31965553
617.785	0.31984569
617.983	0.32016957
618.182	0.32028115
618.38	0.32049347
618.578	0.32085028
618.777	0.32103771
618.975	0.32137721
619.173	0.32168692
619.372	0.3219765
619.57	0.32227416
619.768	0.32260651
619.966	0.32297443
620.165	0.32317822
620.363	0.32347204
620.561	0.32365519
620.759	0.32400125
620.957	0.32437996
621.155	0.32474276
621.354	0.32497034
621.552	0.32538592
621.75	0.3255888
621.948	0.32603066
622.146	0.32632669
622.344	0.32657693
622.542	0.32689565
622.74	0.32722022
622.938	0.3273931
623.136	0.32784332
623.334	0.32814404
623.532	0.32824485
623.73	0.32853509
623.928	0.32883115
624.126	0.32915167
624.324	0.32960981
624.522	0.32974198
624.719	0.32993585
624.917	0.33041889
625.115	0.33071216
625.313	0.33104063
625.511	0.33140545
625.708	0.33153074
625.906	0.33187695
626.104	0.33220303
626.302	0.33255304
626.499	0.33286296
626.697	0.33308105
626.895	0.33318425
627.093	0.33354892
627.29	0.33391698
627.488	0.33427215
627.686	0.33459089
627.883	0.33486242
628.081	0.33509753
628.278	0.33572699
628.476	0.33596751
628.673	0.33630155
628.871	0.33658764
629.068	0.33685505
629.266	0.33728799
629.463	0.3376082
629.661	0.33772199
629.858	0.3380148
630.056	0.33823122
630.253	0.33854813
630.451	0.3388516
630.648	0.33909921
630.845	0.33943959
631.043	0.33975181
631.24	0.34018045
631.438	0.34057541
631.635	0.34088032
631.832	0.34106588
632.029	0.34143631
632.227	0.34179136
632.424	0.34212943
632.621	0.3424255
632.818	0.34264493
633.016	0.34299231
633.213	0.34333792
633.41	0.34371123
633.607	0.34396639
633.804	0.34430298
634.001	0.34457032
634.199	0.34491973
634.396	0.34522614
634.593	0.34552681
634.79	0.34572967
634.987	0.34616055
635.184	0.34643482
635.381	0.34680266
635.578	0.34720548
635.775	0.34752149
635.972	0.34795792
636.169	0.34833132
636.366	0.34854766
636.563	0.34885314
636.76	0.34912031
636.957	0.34941534
637.153	0.34961883
637.35	0.34993625
637.547	0.35020234
637.744	0.35053511
637.941	0.35089228
638.138	0.35128537
638.334	0.3515316
638.531	0.3520143
638.728	0.35236021
638.925	0.35283867
639.121	0.35315257
639.318	0.35342017
639.515	0.35366841
639.711	0.35405067
639.908	0.3541744
640.105	0.35439771
640.301	0.35454442
640.498	0.35481817
640.695	0.35520802
640.891	0.3554685
641.088	0.35570773
641.284	0.35613499
641.481	0.35644326
641.677	0.35678937
641.874	0.35712162
642.07	0.3574138
642.267	0.35786728
642.463	0.35815262
642.66	0.35849809
642.856	0.35880321
643.053	0.35892296
643.249	0.35922367
643.445	0.35946998
643.642	0.35968096
643.838	0.36002919
644.034	0.36028646
644.231	0.3605559
644.427	0.36100386
644.623	0.36137461
644.82	0.36177639
645.016	0.36205412
645.212	0.36227707
645.408	0.36260975
645.604	0.36307409
645.801	0.3634979
645.997	0.36378048
646.193	0.36400635
646.389	0.36444674
646.585	0.36490868
646.781	0.3653178
646.977	0.36560293
647.173	0.36586032
647.37	0.36611779
647.566	0.36640367
647.762	0.36663149
647.958	0.36696541
648.154	0.36710763
648.35	0.36737568
648.546	0.36762722
648.742	0.36804021
648.937	0.36825727
649.133	0.36863183
649.329	0.36891953
649.525	0.36929532
649.721	0.36956922
649.917	0.37000065
650.113	0.37021701
650.309	0.37067139
650.504	0.37082052
650.7	0.37105797
650.896	0.37135874
651.092	0.37163282
651.287	0.37176944
651.483	0.37213597
651.679	0.37236393
651.875	0.37278215
652.07	0.37302031
652.266	0.37328518
652.462	0.3736195
652.657	0.37393796
652.853	0.37414115
653.048	0.37444776
653.244	0.3746043
653.44	0.37490367
653.635	0.37508661
653.831	0.37540217
654.026	0.37577086
654.222	0.37608708
654.417	0.37650579
654.613	0.3768751
654.808	0.37718625
655.004	0.37763184
655.199	0.37784274
655.394	0.37807029
655.59	0.37848788
655.785	0.37862709
655.98	0.37897449
656.176	0.37922178
656.371	0.37958484
656.566	0.37991516
656.762	0.38010155
656.957	0.38031197
657.152	0.38057003
657.348	0.38079998
657.543	0.3811268
657.738	0.38135012
657.933	0.3815746
658.128	0.38188019
658.324	0.38206509
658.519	0.38244909
658.714	0.38272369
658.909	0.38291728
659.104	0.38315063
659.299	0.38347221
659.494	0.38376142
659.689	0.38414594
659.884	0.38434646
660.079	0.38458313
660.274	0.384898
660.469	0.38522378
660.664	0.38557359
660.859	0.38590299
661.054	0.38615619
661.249	0.38648099
661.444	0.38679354
661.639	0.38708583
661.834	0.38726249
662.029	0.38752828
662.224	0.38776722
662.418	0.38807684
662.613	0.3882919
662.808	0.38847821
663.003	0.38875144
663.198	0.38902049
663.392	0.38914347
663.587	0.38949146
663.782	0.38956432
663.977	0.38981748
664.171	0.39014882
664.366	0.39045827
664.561	0.39078475
664.755	0.39115537
664.95	0.3913022
665.144	0.39164865
665.339	0.391981
665.534	0.39226864
665.728	0.39260147
665.923	0.39290611
666.117	0.39310447
666.312	0.3934028
666.506	0.39375577
666.701	0.39393258
666.895	0.39411841
667.09	0.39426091
667.284	0.39448903
667.479	0.39470784
667.673	0.39493826
667.867	0.39521865
668.062	0.39546495
668.256	0.39579766
668.45	0.39618033
668.645	0.39639934
668.839	0.39672044
669.033	0.39698649
669.228	0.39714945
669.422	0.39751573
669.616	0.39777477
669.81	0.39800665
670.004	0.39823431
670.199	0.3985263
670.393	0.39877582
670.587	0.39906291
670.781	0.39932163
670.975	0.39962063
671.169	0.39972539
671.363	0.39995701
671.558	0.40012557
671.752	0.40042516
671.946	0.4007177
672.14	0.40093742
672.334	0.40108363
672.528	0.40149057
672.722	0.40162875
672.916	0.40185497
673.11	0.40196187
673.304	0.40226439
673.497	0.40238543
673.691	0.40272769
673.885	0.40276795
674.079	0.40317507
674.273	0.40341293
674.467	0.40377749
674.661	0.40388642
674.854	0.40418806
675.048	0.40437402
675.242	0.40469888
675.436	0.40492678
675.629	0.40519465
675.823	0.40528486
676.017	0.40559161
676.211	0.40577978
676.404	0.40600852
676.598	0.40619827
676.792	0.40640708
676.985	0.40671199
677.179	0.40710928
677.372	0.40731859
677.566	0.40770727
677.76	0.40799028
677.953	0.4082903
678.147	0.40853899
678.34	0.40877849
678.534	0.40895977
678.727	0.40921207
678.921	0.40940943
679.114	0.40953666
679.307	0.40986225
679.501	0.41019218
679.694	0.41041092
679.888	0.41069974
680.081	0.41091415
680.274	0.41105617
680.468	0.41141454
680.661	0.41161577
680.854	0.41190862
681.048	0.4122247
681.241	0.41244074
681.434	0.41267844
681.627	0.41292196
681.821	0.41310239
682.014	0.41339345
682.207	0.41351254
682.4	0.41362197
682.593	0.41391163
682.786	0.41412211
682.98	0.4144092
683.173	0.41473927
683.366	0.41489411
683.559	0.41510693
683.752	0.41547724
683.945	0.41566496
684.138	0.41600436
684.331	0.41625005
684.524	0.4165237
684.717	0.41670157
684.91	0.4170056
685.103	0.41711465
685.296	0.41733351
685.489	0.41755612
685.682	0.41778528
685.874	0.41804385
686.067	0.41833859
686.26	0.41850455
686.453	0.41869541
686.646	0.41894593
686.839	0.41911874
687.031	0.41935916
687.224	0.41935743
687.417	0.41964965
687.61	0.41988283
687.802	0.42021583
687.995	0.42049029
688.188	0.42078023
688.38	0.42104297
688.573	0.42146204
688.766	0.42165929
688.958	0.42185591
689.151	0.4219893
689.343	0.42223418
689.536	0.42238704
689.729	0.42258654
689.921	0.422816
690.114	0.42290749
690.306	0.42311701
690.499	0.42338798
690.691	0.42361843
690.884	0.42386892
691.076	0.4241678
691.268	0.42427606
691.461	0.42454835
691.653	0.42485215
691.846	0.42514819
692.038	0.42534194
692.23	0.42544212
692.423	0.42555531
692.615	0.42579497
692.807	0.42602886
692.999	0.42624774
693.192	0.42636956
693.384	0.42659793
693.576	0.42685901
693.768	0.42715035
693.961	0.4273411
694.153	0.42760194
694.345	0.42774133
694.537	0.42803188
694.729	0.42824211
694.921	0.42850706
695.113	0.42878516
695.305	0.42908009
695.498	0.42922051
695.69	0.42960187
695.882	0.42980724
696.074	0.43012993
696.266	0.43035548
696.458	0.43044003
696.65	0.43070155
696.842	0.43105693
697.033	0.43121487
697.225	0.43136493
697.417	0.43150714
697.609	0.43172045
697.801	0.43192226
697.993	0.43212615
698.185	0.43226361
698.376	0.43249915
698.568	0.43274934
698.76	0.43304046
698.952	0.4332735
699.144	0.43355977
699.335	0.43378752
699.527	0.43404275
699.719	0.43426427
699.91	0.43467578
700.102	0.43477524
700.294	0.43503
700.485	0.43526139
700.677	0.4354809
700.869	0.43577121
701.06	0.43611837
701.252	0.43619122
701.443	0.4365193
701.635	0.43682396
701.826	0.43710171
702.018	0.43740501
702.209	0.43762665
702.401	0.43774343
702.592	0.43806635
702.784	0.43825593
702.975	0.43845595
703.166	0.43868955
703.358	0.43881566
703.549	0.43908726
703.741	0.43935861
703.932	0.43954781
704.123	0.43982513
704.315	0.44001081
704.506	0.44028789
704.697	0.44058339
704.888	0.44086795
705.08	0.44108313
705.271	0.44137823
705.462	0.44146116
705.653	0.44177695
705.844	0.44194505
706.035	0.44213709
706.227	0.44221603
706.418	0.44239677
706.609	0.4425939
706.8	0.44301394
706.991	0.44319182
707.182	0.44338245
707.373	0.44354759
707.564	0.44380744
707.755	0.44402977
707.946	0.44420541
708.137	0.44426998
708.328	0.44443996
708.519	0.44475707
708.71	0.44504021
708.901	0.44521182
709.092	0.44544775
709.283	0.44563362
709.473	0.44590198
709.664	0.44622036
709.855	0.44641538
710.046	0.44663585
710.237	0.44697522
710.427	0.44725877
710.618	0.44765675
710.809	0.44794177
711	0.44827662
711.19	0.44841771
711.381	0.4487322
711.572	0.44886071
711.762	0.44910848
711.953	0.44921356
712.144	0.44944343
712.334	0.44954365
712.525	0.44994593
712.715	0.45014245
712.906	0.45046845
713.097	0.45065998
713.287	0.4509556
713.478	0.45122575
713.668	0.45154131
713.859	0.45174796
714.049	0.45199142
714.239	0.4523318
714.43	0.45261367
714.62	0.4527672
714.811	0.45297166
715.001	0.45313093
715.191	0.45330101
715.382	0.45348517
715.572	0.45372467
715.762	0.45392458
715.953	0.45432496
716.143	0.45466265
716.333	0.45489919
716.523	0.45521033
716.714	0.45556978
716.904	0.45571862
717.094	0.45604844
717.284	0.45614722
717.474	0.4562807
717.664	0.45656568
717.855	0.45674563
718.045	0.45686308
718.235	0.45707003
718.425	0.4573528
718.615	0.45769175
718.805	0.45807559
718.995	0.45840261
719.185	0.45875176
719.375	0.45910447
719.565	0.45950566
719.755	0.45967178
719.945	0.4599052
720.135	0.46015248
720.325	0.46041478
720.515	0.46070882
720.704	0.46098662
720.894	0.46118124
721.084	0.46146421
721.274	0.46172982
721.464	0.46191958
721.654	0.46206315
721.843	0.46217514
722.033	0.46245724
722.223	0.46262641
722.413	0.46295831
722.602	0.46321035
722.792	0.4635382
722.982	0.46389181
723.171	0.46424247
723.361	0.46450207
723.55	0.46491485
723.74	0.46511619
723.93	0.46542387
724.119	0.4656581
724.309	0.46587464
724.498	0.46606277
724.688	0.46623459
724.877	0.46639674
725.067	0.46660207
725.256	0.4668012
725.446	0.46700313
725.635	0.46720166
725.825	0.46747695
726.014	0.46773654
726.203	0.46796193
726.393	0.46808593
726.582	0.46824046
726.771	0.46842279
726.961	0.46863612
727.15	0.46869538
727.339	0.46875242
727.529	0.46888857
727.718	0.46908434
727.907	0.46924705
728.096	0.4693804
728.286	0.46952341
728.475	0.46986919
728.664	0.47015421
728.853	0.47045166
729.042	0.47068135
729.231	0.47090021
729.42	0.47116143
729.609	0.47137229
729.799	0.47145562
729.988	0.47160069
730.177	0.47158042
730.366	0.47174911
730.555	0.47188676
730.744	0.47205909
730.933	0.47225777
731.122	0.47253956
731.31	0.47275177
731.499	0.47301898
731.688	0.47332608
731.877	0.47360511
732.066	0.47380031
732.255	0.47401622
732.444	0.47421494
732.632	0.47440579
732.821	0.47464899
733.01	0.47483505
733.199	0.47490424
733.388	0.47502245
733.576	0.47513261
733.765	0.47520436
733.954	0.47538383
734.142	0.47551212
734.331	0.47561101
734.52	0.47592923
734.708	0.47619682
734.897	0.47645059
735.086	0.47664401
735.274	0.47680116
735.463	0.47691364
735.651	0.47705616
735.84	0.47711228
736.028	0.4772709
736.217	0.47746132
736.405	0.47761193
736.594	0.47780654
736.782	0.478003
736.971	0.47818452
737.159	0.47845946
737.347	0.47867134
737.536	0.47873927
737.724	0.47902051
737.912	0.47913686
738.101	0.47928624
738.289	0.47949044
738.477	0.47958722
738.666	0.47967035
738.854	0.47993562
739.042	0.48011941
739.23	0.48034639
739.418	0.48061544
739.607	0.48076235
739.795	0.48091403
739.983	0.48108613
740.171	0.4811986
740.359	0.48126666
740.547	0.48140695
740.735	0.48150503
740.923	0.48174944
741.112	0.48202589
741.3	0.48220553
741.488	0.4823221
741.676	0.48266286
741.864	0.48283326
742.052	0.48304322
742.239	0.48303297
742.427	0.48312213
742.615	0.48320719
742.803	0.48341569
742.991	0.48335739
743.179	0.48353155
743.367	0.48374097
743.555	0.48406127
743.742	0.48429544
743.93	0.48459617
744.118	0.48471269
744.306	0.48496949
744.494	0.48502189
744.681	0.48506942
744.869	0.48512632
745.057	0.48522011
745.244	0.48526213
745.432	0.48544906
745.62	0.48558384
745.807	0.48583377
745.995	0.4860773
746.182	0.48624028
746.37	0.48643206
746.558	0.48659835
746.745	0.48667337
746.933	0.48677987
747.12	0.48690343
747.308	0.48715198
747.495	0.48722267
747.683	0.48723428
747.87	0.48735258
748.057	0.48761144
748.245	0.48778731
748.432	0.48790196
748.62	0.48777482
748.807	0.48799457
748.994	0.48815576
749.182	0.48827169
749.369	0.48831967
749.556	0.48846908
749.743	0.48867149
749.931	0.48888274
750.118	0.48905785
750.305	0.48917127
750.492	0.48929605
750.68	0.48946457
750.867	0.48953613
751.054	0.4895911
751.241	0.48978067
751.428	0.48984849
751.615	0.49005417
751.802	0.49021798
751.989	0.49034766
752.176	0.49058479
752.363	0.49083284
752.55	0.49093846
752.737	0.49117572
752.924	0.49123739
753.111	0.4914293
753.298	0.49159253
753.485	0.49156916
753.672	0.49149344
753.859	0.49165359
754.046	0.49164126
754.233	0.49169115
754.42	0.49184412
754.606	0.49181773
754.793	0.49189627
754.98	0.49211629
755.167	0.49204625
755.353	0.49218274
755.54	0.49241775
755.727	0.49243637
755.914	0.4925509
756.1	0.4927355
756.287	0.49274123
756.474	0.49291607
756.66	0.49304525
756.847	0.49315331
757.033	0.49312367
757.22	0.49315609
757.407	0.49330786
757.593	0.49348847
757.78	0.49355502
757.966	0.49357849
758.153	0.49355358
758.339	0.49364705
758.526	0.49373652
758.712	0.49364809
758.898	0.49376368
759.085	0.49375681
759.271	0.49375413
759.458	0.49381648
759.644	0.49391622
759.83	0.49397628
760.017	0.49411242
760.203	0.49408549
760.389	0.49425139
760.576	0.49448146
760.762	0.49448567
760.948	0.49446898
761.134	0.49454583
761.32	0.49453549
761.507	0.49450899
761.693	0.49464736
761.879	0.49458075
762.065	0.49476012
762.251	0.49484924
762.437	0.49503923
762.623	0.4951896
762.809	0.4952592
762.995	0.49522016
763.181	0.49527134
763.367	0.49532625
763.553	0.49543644
763.739	0.49546413
763.925	0.495468
764.111	0.49559661
764.297	0.49570082
764.483	0.49569013
764.669	0.49564525
764.855	0.49565107
765.041	0.49557512
765.227	0.49551057
765.412	0.4955178
765.598	0.49547578
765.784	0.4954917
765.97	0.49563171
766.156	0.49568325
766.341	0.49582641
766.527	0.49584762
766.713	0.49590467
766.898	0.49595735
767.084	0.49600905
767.27	0.49588702
767.455	0.49577907
767.641	0.49568833
767.827	0.4957134
768.012	0.49560015
768.198	0.49561028
768.383	0.49559466
768.569	0.49570756
768.754	0.49585418
768.94	0.49587459
769.125	0.49591302
769.311	0.49589805
769.496	0.49579467
769.682	0.49579943
769.867	0.49567037
770.052	0.49563003
770.238	0.49549155
770.423	0.49546312
770.608	0.49549594
770.794	0.49549741
770.979	0.49536736
771.164	0.49541675
771.35	0.49539538
771.535	0.49549567
771.72	0.49547328
771.905	0.49557366
772.09	0.49551112
772.276	0.4956654
772.461	0.49558252
772.646	0.49551644
772.831	0.49549264
773.016	0.49543936
773.201	0.4953285
773.386	0.49539341
773.571	0.49525557
773.756	0.49516709
773.941	0.49505899
774.126	0.49506002
774.311	0.49492645
774.496	0.49477054
774.681	0.49465132
774.866	0.49458483
775.051	0.49449059
775.236	0.49450723
775.421	0.49434538
775.606	0.49427101
775.791	0.49418604
775.976	0.49416249
776.16	0.49415581
776.345	0.49423983
776.53	0.49427488
776.715	0.49422779
776.899	0.49422447
777.084	0.49422721
777.269	0.49412315
777.454	0.49399786
777.638	0.49382221
777.823	0.49357104
778.008	0.49338493
778.192	0.493328
778.377	0.49327723
778.561	0.49319001
778.746	0.49313953
778.931	0.49311628
779.115	0.49326721
779.3	0.49335183
779.484	0.49323731
779.669	0.49303763
779.853	0.49285374
780.037	0.49268209
780.222	0.49253357
780.406	0.49217882
780.591	0.49202061
780.775	0.49190174
780.959	0.49185721
781.144	0.49186185
781.328	0.49179576
781.512	0.49163815
781.697	0.49151956
781.881	0.49136631
782.065	0.49136595
782.249	0.49123677
782.434	0.49114823
782.618	0.49102852
782.802	0.4910179
782.986	0.4909886
783.17	0.49084957
783.354	0.4906038
783.539	0.49038121
783.723	0.49010501
783.907	0.48995814
784.091	0.48972934
784.275	0.48960144
784.459	0.48952132
784.643	0.48949081
784.827	0.4893927
785.011	0.48935448
785.195	0.48929072
785.379	0.48920941
785.563	0.48899798
785.747	0.48877913
785.93	0.48878852
786.114	0.48855485
786.298	0.48835731
786.482	0.48807507
786.666	0.48791185
786.85	0.48774453
787.033	0.48761073
787.217	0.48729751
787.401	0.48726123
787.585	0.4871631
787.768	0.48711919
787.952	0.48690129
788.136	0.48673938
788.319	0.48655082
788.503	0.48626276
788.687	0.48606664
788.87	0.48573763
789.054	0.4854806
789.237	0.48523531
789.421	0.4850366
789.605	0.48479563
789.788	0.48453489
789.972	0.48436783
790.155	0.48414868
790.338	0.48386462
790.522	0.48367027
790.705	0.48335702
790.889	0.48310152
791.072	0.48299553
791.256	0.4828368
791.439	0.48273761
791.622	0.48258575
791.806	0.48258855
791.989	0.48248884
792.172	0.48255352
792.355	0.48241617
792.539	0.482187
792.722	0.48199488
792.905	0.48182734
793.088	0.48143063
793.271	0.48125654
793.455	0.48092548
793.638	0.48071922
793.821	0.48048487
794.004	0.48029085
794.187	0.48016943
794.37	0.48006508
794.553	0.47989827
794.736	0.47965236
794.919	0.4793024
795.102	0.47905614
795.285	0.47880224
795.468	0.4784898
795.651	0.47818409
795.834	0.47805628
796.017	0.47785755
796.2	0.47767081
796.383	0.47752191
796.566	0.47743944
796.749	0.47722461
796.931	0.47701703
797.114	0.4766106
797.297	0.47628591
797.48	0.47601918
797.663	0.4757158
797.845	0.47530543
798.028	0.47503026
798.211	0.47475869
798.393	0.47445339
798.576	0.47434148
798.759	0.47404868
798.941	0.47378761
799.124	0.4735916
799.307	0.47340832
799.489	0.47322178
799.672	0.47304594
799.854	0.47264373
800.037	0.47234413
800.219	0.47195296
800.402	0.47164594
800.584	0.47119514
800.767	0.47087163
800.949	0.47052205
801.132	0.47037584
801.314	0.47018632
801.496	0.47003385
801.679	0.46965458
801.861	0.46950599
802.043	0.46909903
802.226	0.46892414
802.408	0.46855365
802.59	0.4683045
802.772	0.46807834
802.955	0.4679426
803.137	0.46760698
803.319	0.46736405
803.501	0.4669252
803.684	0.46666423
803.866	0.46619451
804.048	0.46585372
804.23	0.46551185
804.412	0.46534896
804.594	0.46507469
804.776	0.46500275
804.958	0.46466641
805.14	0.46456763
805.322	0.46430769
805.504	0.46404889
805.686	0.4636635
805.868	0.46347926
806.05	0.46305578
806.232	0.46286099
806.414	0.46258688
806.596	0.46223565
806.778	0.46181271
806.96	0.4616149
807.141	0.46118832
807.323	0.46095255
807.505	0.46052423
807.687	0.46021271
807.869	0.45987578
808.05	0.45964548
808.232	0.45921873
808.414	0.45900067
808.595	0.45857921
808.777	0.45824981
808.959	0.4579516
809.14	0.45778601
809.322	0.45758351
809.504	0.45726745
809.685	0.4570796
809.867	0.45678586
810.048	0.4565148
810.23	0.45617558
810.411	0.45576016
810.593	0.45524999
810.774	0.45485045
810.956	0.45435209
811.137	0.45396363
811.319	0.45359646
811.5	0.45313857
811.681	0.45264976
811.863	0.45227664
812.044	0.45182436
812.225	0.45148704
812.407	0.45110102
812.588	0.45067058
812.769	0.45030136
812.951	0.44999704
813.132	0.44970825
813.313	0.44961535
813.494	0.44917643
813.675	0.44886758
813.857	0.44854514
814.038	0.44828282
814.219	0.44793062
814.4	0.447542
814.581	0.44722538
814.762	0.44691017
814.943	0.44658115
815.124	0.44620308
815.305	0.44578391
815.486	0.44552555
815.667	0.44510652
815.848	0.44451916
816.029	0.44406412
816.21	0.44369041
816.391	0.44340797
816.572	0.4430259
816.753	0.44263787
816.934	0.44230466
817.115	0.44203
817.295	0.44181548
817.476	0.44134021
817.657	0.44101526
817.838	0.44078431
818.019	0.44031027
818.199	0.43990377
818.38	0.43947595
818.561	0.4389763
818.741	0.43867023
818.922	0.43813813
819.103	0.43772651
819.283	0.43747025
819.464	0.43718028
819.645	0.43678354
819.825	0.43648984
820.006	0.43608247
820.186	0.43571335
820.367	0.43530331
820.547	0.43480841
820.728	0.43427675
820.908	0.43384341
821.089	0.43346907
821.269	0.43308906
821.45	0.43274077
821.63	0.43215172
821.81	0.43179818
821.991	0.43147615
822.171	0.43107035
822.351	0.43055254
822.532	0.43005291
822.712	0.42955391
822.892	0.42932557
823.072	0.42894997
823.253	0.42866617
823.433	0.42835748
823.613	0.42802035
823.793	0.42775254
823.973	0.42753456
824.154	0.4271504
824.334	0.42676426
824.514	0.42631337
824.694	0.42596231
824.874	0.42539336
825.054	0.42491945
825.234	0.42440069
825.414	0.42384717
825.594	0.42332079
825.774	0.42284579
825.954	0.42225882
826.134	0.42190587
826.314	0.42141737
826.494	0.42091267
826.674	0.42035815
826.854	0.41978273
827.033	0.41913736
827.213	0.41879156
827.393	0.4182906
827.573	0.41787362
827.753	0.41741889
827.932	0.41721555
828.112	0.41694312
828.292	0.41682704
828.472	0.4163868
828.651	0.41619085
828.831	0.41578259
829.011	0.41552907
829.19	0.41505811
829.37	0.41465396
829.549	0.41411922
829.729	0.41361304
829.909	0.41304832
830.088	0.41264904
830.268	0.41197785
830.447	0.41147961
830.627	0.41106136
830.806	0.41064788
830.986	0.41024895
831.165	0.40997775
831.344	0.40959784
831.524	0.40932207
831.703	0.40890677
831.883	0.40836244
832.062	0.40785135
832.241	0.40741265
832.421	0.4067757
832.6	0.40618321
832.779	0.40570077
832.958	0.4052745
833.138	0.40475619
833.317	0.40447295
833.496	0.40395063
833.675	0.40353959
833.854	0.40330309
834.034	0.4029186
834.213	0.40245175
834.392	0.4022794
834.571	0.40163765
834.75	0.40130427
834.929	0.40083665
835.108	0.400243
835.287	0.39975685
835.466	0.39933745
835.645	0.39864644
835.824	0.39808959
836.003	0.39759923
836.182	0.39718955
836.361	0.39684301
836.54	0.39636693
836.719	0.39589972
836.897	0.39543256
837.076	0.39510716
837.255	0.39468445
837.434	0.39420128
837.613	0.39372499
837.791	0.39321664
837.97	0.39269724
838.149	0.39232489
838.328	0.39184445
838.506	0.39129453
838.685	0.39090695
838.864	0.39046166
839.042	0.39002548
839.221	0.38967882
839.4	0.38920421
839.578	0.38877846
839.757	0.38832194
839.935	0.38771892
840.114	0.38721178
840.292	0.38678691
840.471	0.38644589
840.649	0.38604297
840.828	0.38571336
841.006	0.38536121
841.185	0.38495164
841.363	0.38455244
841.541	0.38412402
841.72	0.38366952
841.898	0.38324446
842.076	0.38269612
842.255	0.38218983
842.433	0.38176769
842.611	0.3813671
842.789	0.38086128
842.968	0.38032533
843.146	0.37978292
843.324	0.37932272
843.502	0.37889355
843.68	0.37848124
843.859	0.37791165
844.037	0.37754912
844.215	0.37708467
844.393	0.37670454
844.571	0.37629335
844.749	0.37591419
844.927	0.37537281
845.105	0.37484697
845.283	0.37426147
845.461	0.37369003
845.639	0.3731789
845.817	0.37259009
845.995	0.37207823
846.173	0.37175434
846.351	0.37130236
846.529	0.37093323
846.706	0.37056714
846.884	0.37025214
847.062	0.36979509
847.24	0.36926156
847.418	0.36872068
847.595	0.36837999
847.773	0.36789304
847.951	0.36737318
848.129	0.36674027
848.306	0.36640379
848.484	0.36599284
848.662	0.36552595
848.839	0.36504397
849.017	0.36464364
849.194	0.36413958
849.372	0.36369351
849.549	0.36303108
849.727	0.36250944
849.905	0.36197189
850.082	0.36124396
850.26	0.36068768
850.437	0.36013293
850.614	0.35969975
850.792	0.35935022
850.969	0.35907803
851.147	0.35879917
851.324	0.35861402
851.501	0.35823622
851.679	0.35783041
851.856	0.35726024
852.033	0.35697108
852.211	0.35643106
852.388	0.35582488
852.565	0.3553227
852.742	0.35483863
852.92	0.35442607
853.097	0.35404899
853.274	0.35338535
853.451	0.35279898
853.628	0.35227706
853.805	0.35181816
853.982	0.35135004
854.159	0.35080472
854.336	0.35034574
854.514	0.34988875
854.691	0.34940132
854.868	0.34903709
855.045	0.34849978
855.221	0.34806567
855.398	0.34763651
855.575	0.34715836
855.752	0.3467777
855.929	0.34656951
856.106	0.34596748
856.283	0.34562141
856.46	0.34524615
856.637	0.34493854
856.813	0.34461059
856.99	0.34414392
857.167	0.34365783
857.344	0.34339927
857.52	0.34286762
857.697	0.34218681
857.874	0.34158867
858.05	0.34097314
858.227	0.34045435
858.404	0.33990279
858.58	0.33952632
858.757	0.33918586
858.933	0.33883385
859.11	0.33848551
859.287	0.33804611
859.463	0.33757161
859.64	0.3370639
859.816	0.33631868
859.993	0.3357945
860.169	0.33540413
860.345	0.33480826
860.522	0.33438799
860.698	0.33400878
860.875	0.33358503
861.051	0.33327449
861.227	0.33270203
861.404	0.33218445
861.58	0.33191605
861.756	0.33144681
861.932	0.33095103
862.109	0.33039361
862.285	0.3298958
862.461	0.32957862
862.637	0.32913545
862.813	0.32855697
862.99	0.32813652
863.166	0.3275949
863.342	0.32736948
863.518	0.32684065
863.694	0.3264089
863.87	0.325882
864.046	0.32554724
864.222	0.32517216
864.398	0.32487254
864.574	0.32424271
864.75	0.32388042
864.926	0.32336593
865.102	0.32301087
865.278	0.32241024
865.454	0.32178752
865.63	0.32127163
865.805	0.32075968
865.981	0.32035483
866.157	0.31996575
866.333	0.31939216
866.509	0.31907099
866.684	0.31866875
866.86	0.31831934
867.036	0.31790629
867.212	0.31746293
867.387	0.31703035
867.563	0.31669441
867.739	0.31625927
867.914	0.31595548
868.09	0.31544406
868.265	0.31514374
868.441	0.31472125
868.617	0.31419983
868.792	0.3136868
868.968	0.31316051
869.143	0.31274268
869.319	0.3123232
869.494	0.31177391
869.67	0.31125958
869.845	0.31084523
870.02	0.3105827
870.196	0.3102681
870.371	0.30971721
870.546	0.30929994
870.722	0.30894755
870.897	0.30843669
871.072	0.30804149
871.248	0.30739349
871.423	0.30684965
871.598	0.30652367
871.773	0.30602287
871.949	0.30568052
872.124	0.30544269
872.299	0.30501689
872.474	0.30463314
872.649	0.30425062
872.824	0.30367379
872.999	0.30315898
873.174	0.30258503
873.349	0.3021198
873.524	0.3016829
873.699	0.30134759
873.874	0.30088834
874.049	0.300555
874.224	0.30026849
874.399	0.29984021
874.574	0.2994716
874.749	0.29906462
874.924	0.29858624
875.099	0.29804043
875.274	0.29745564
875.449	0.29699896
875.623	0.29658428
875.798	0.29601605
875.973	0.29567494
876.148	0.29517962
876.322	0.29487815
876.497	0.29445307
876.672	0.29396802
876.846	0.29353581
877.021	0.29314751
877.196	0.29240669
877.37	0.29206786
877.545	0.29172032
877.72	0.29132371
877.894	0.29097761
878.069	0.29050976
878.243	0.28994487
878.418	0.28975141
878.592	0.28921326
878.767	0.28856153
878.941	0.28814966
879.116	0.28756403
879.29	0.28715824
879.464	0.286741
879.639	0.2860217
879.813	0.28571626
879.987	0.28535796
880.162	0.28497901
880.336	0.28471777
880.51	0.28442831
880.685	0.28411618
880.859	0.28398897
881.033	0.28356703
881.207	0.28321438
881.381	0.28290724
881.556	0.28244965
881.73	0.28194693
881.904	0.2817679
882.078	0.28132897
882.252	0.2810884
882.426	0.28054398
882.6	0.28001638
882.774	0.27967531
882.948	0.27918096
883.122	0.27854519
883.296	0.27810914
883.47	0.27758622
883.644	0.2774252
883.818	0.27702293
883.992	0.27675887
884.166	0.27652625
884.34	0.27629876
884.514	0.27615008
884.687	0.27577681
884.861	0.27532044
885.035	0.27508767
885.209	0.27471481
885.382	0.27446791
885.556	0.27404399
885.73	0.27350963
885.904	0.27315043
886.077	0.27264013
886.251	0.27209651
886.425	0.27161832
886.598	0.27103263
886.772	0.27042197
886.945	0.26993368
887.119	0.26936565
887.292	0.26905752
887.466	0.26886061
887.64	0.26837727
887.813	0.26800388
887.986	0.26775363
888.16	0.26749791
888.333	0.26723425
888.507	0.2668487
888.68	0.26632596
888.854	0.26604627
889.027	0.26563457
889.2	0.26529977
889.374	0.26481521
889.547	0.26453122
889.72	0.26432942
889.893	0.2639631
890.067	0.26355035
890.24	0.26306965
890.413	0.26274686
890.586	0.2624765
890.759	0.26203044
890.933	0.26157094
891.106	0.26120259
891.279	0.26090033
891.452	0.26064188
891.625	0.26017438
891.798	0.2598222
891.971	0.25960513
892.144	0.25937081
892.317	0.25915949
892.49	0.25869642
892.663	0.25842143
892.836	0.25830647
893.009	0.25799598
893.182	0.25737024
893.355	0.256943
893.527	0.25648947
893.7	0.25634662
893.873	0.2559875
894.046	0.25544258
894.219	0.25515236
894.391	0.2549806
894.564	0.2547737
894.737	0.2545006
894.91	0.25407791
895.082	0.2537543
895.255	0.25330975
895.428	0.25274866
895.6	0.2521381
895.773	0.25144109
895.945	0.25081673
896.118	0.25036212
896.291	0.24993334
896.463	0.24969634
896.636	0.24932059
896.808	0.24912187
896.981	0.24881056
897.153	0.24857569
897.326	0.24828398
897.498	0.24790899
897.67	0.24756504
897.843	0.24729673
898.015	0.24704836
898.187	0.24677511
898.36	0.24628414
898.532	0.24574046
898.704	0.24541443
898.877	0.24486892
899.049	0.24454278
899.221	0.24428124
899.393	0.24399527
899.566	0.24394713
899.738	0.2438834
899.91	0.24369105
900.082	0.24351916
900.254	0.24325437
900.426	0.24294074
900.598	0.24259892
900.77	0.24198749
900.942	0.24144462
901.114	0.24094408
901.286	0.24056196
901.458	0.24011059
901.63	0.23963307
901.802	0.23937126
901.974	0.23928474
902.146	0.23908969
902.318	0.23890721
902.49	0.23871675
902.662	0.23847842
902.834	0.23819851
903.005	0.23793287
903.177	0.23753099
903.349	0.23727971
903.521	0.23691273
903.693	0.23660419
903.864	0.23633692
904.036	0.23595989
904.208	0.23543067
904.379	0.23509245
904.551	0.23475747
904.723	0.23433884
904.894	0.23386712
905.066	0.2334113
905.237	0.23321893
905.409	0.23291557
905.58	0.23268809
905.752	0.23232547
905.923	0.23197925
906.095	0.23170862
906.266	0.23139662
906.438	0.2310093
906.609	0.23075641
906.78	0.23027282
906.952	0.23001326
907.123	0.22963942
907.295	0.22941292
907.466	0.22913516
907.637	0.22899302
907.808	0.22871155
907.98	0.22854198
908.151	0.22825573
908.322	0.2282157
908.493	0.22774406
908.665	0.22752339
908.836	0.22695301
909.007	0.22660836
909.178	0.22625933
909.349	0.22596231
909.52	0.22566896
909.691	0.22540968
909.862	0.22510396
910.033	0.22501115
910.204	0.22474249
910.375	0.2245234
910.546	0.22424337
910.717	0.22387824
910.888	0.22385974
911.059	0.22357371
911.23	0.22321691
911.401	0.22289501
911.572	0.22260239
911.742	0.22224107
911.913	0.22191177
912.084	0.2213943
912.255	0.22092609
912.426	0.22042157
912.596	0.2199689
912.767	0.21959469
912.938	0.21925162
913.108	0.2188394
913.279	0.21847169
913.45	0.21827513
913.62	0.2182083
913.791	0.21828362
913.962	0.21820285
914.132	0.2178106
914.303	0.21769178
914.473	0.2174735
914.644	0.21712316
914.814	0.21664286
914.985	0.2162184
915.155	0.21574682
915.326	0.21562219
915.496	0.21514101
915.666	0.21492069
915.837	0.2147761
916.007	0.21440274
916.177	0.21392743
916.348	0.21368876
916.518	0.21341204
916.688	0.2134198
916.858	0.21299196
917.029	0.21264896
917.199	0.21259286
917.369	0.21256167
917.539	0.21241706
917.709	0.21214405
917.88	0.21182815
918.05	0.21152179
918.22	0.21115723
918.39	0.21074639
918.56	0.21032227
918.73	0.21002982
918.9	0.20964261
919.07	0.20916336
919.24	0.20902843
919.41	0.20892175
919.58	0.2087064
919.75	0.20857953
919.92	0.20806212
920.09	0.20790773
920.26	0.20761667
920.429	0.20729785
920.599	0.20705133
920.769	0.20687011
920.939	0.20649042
921.109	0.20631752
921.278	0.20607364
921.448	0.2059827
921.618	0.20583337
921.787	0.20549324
921.957	0.20520306
922.127	0.2049502
922.296	0.20478716
922.466	0.20443994
922.636	0.20427702
922.805	0.20409754
922.975	0.20383403
923.144	0.20364461
923.314	0.20338816
923.483	0.20313786
923.653	0.20288926
923.822	0.20260653
923.992	0.20230776
924.161	0.20209983
924.331	0.20178363
924.5	0.201583
924.669	0.20112524
924.839	0.20107667
925.008	0.20084896
925.177	0.20052283
925.347	0.20044009
925.516	0.20053989
925.685	0.20032721
925.854	0.20060137
926.023	0.20022211
926.193	0.20032598
926.362	0.20028356
926.531	0.20024153
926.7	0.19991594
926.869	0.19993209
927.038	0.19950265
927.207	0.19952517
927.376	0.198914
927.545	0.19862572
927.715	0.19827891
927.884	0.19802982
928.052	0.19784069
928.221	0.19734151
928.39	0.19693069
928.559	0.19672102
928.728	0.19654854
928.897	0.19638242
929.066	0.19617844
929.235	0.19554095
929.404	0.1955861
929.572	0.19536416
929.741	0.19517528
929.91	0.1948978
930.079	0.19445012
930.247	0.19399743
930.416	0.19410395
930.585	0.19386446
930.753	0.19373513
930.922	0.19352491
931.091	0.19328989
931.259	0.19291104
931.428	0.19290854
931.596	0.19267186
931.765	0.19263256
931.934	0.19251937
932.102	0.19206524
932.27	0.19188731
932.439	0.19184771
932.607	0.191538
932.776	0.19137377
932.944	0.19103499
933.113	0.1907577
933.281	0.19090416
933.449	0.1906682
933.618	0.19036287
933.786	0.19019316
933.954	0.18984096
934.123	0.18959153
934.291	0.18949537
934.459	0.18903613
934.627	0.18891395
934.795	0.18888324
934.964	0.18865408
935.132	0.18839968
935.3	0.18809395
935.468	0.18753069
935.636	0.1878976
935.804	0.18747813
935.972	0.18719893
936.14	0.18724618
936.308	0.18693878
936.476	0.18700256
936.644	0.18725432
936.812	0.18679609
936.98	0.18672674
937.148	0.18651694
937.316	0.18598983
937.484	0.18661368
937.652	0.18588533
937.82	0.18573499
937.987	0.185162
938.155	0.18502034
938.323	0.18523046
938.491	0.18509319
938.658	0.184904
938.826	0.18544343
938.994	0.18522398
939.162	0.18574248
939.329	0.1866044
939.497	0.18704399
939.665	0.18723254
939.832	0.18784917
940	0.18831802
940.167	0.18841176
940.335	0.1879254
940.502	0.187292
940.67	0.18678512
940.837	0.18769242
941.005	0.1865348
941.172	0.18628732
941.34	0.18639805
941.507	0.18761107
941.674	0.18908706
941.842	0.18905153
942.009	0.18908589
942.177	0.18875794
942.344	0.18906378
942.511	0.18892592
942.678	0.18943865
942.846	0.18741517
943.013	0.18796418
943.18	0.18757439
943.347	0.18816845
943.514	0.18714355
943.682	0.18767939
943.849	0.18646268
944.016	0.1863574
944.183	0.18684342
944.35	0.18700505
944.517	0.1874696
944.684	0.18941803
944.851	0.18546453
945.018	0.18540039
945.185	0.18573766
945.352	0.18535499
945.519	0.18515524
945.686	0.18484027
945.853	0.1852294
946.02	0.18666308
946.187	0.18533907
946.353	0.18598282
946.52	0.18554272
946.687	0.18509799
946.854	0.18455677
947.021	0.18270934
947.187	0.18366894
947.354	0.18311227
947.521	0.18274677
947.687	0.18139704
947.854	0.18137931
948.021	0.17991955
948.187	0.17926916
948.354	0.17877239
948.52	0.17899835
948.687	0.17914369
948.854	0.18009808
949.02	0.17848951
949.187	0.17898508
949.353	0.17961824
949.52	0.17885363
949.686	0.17868321
949.852	0.17850798
950.019	0.17861013
950.185	0.18017648
950.352	0.18040814
950.518	0.17938993
950.684	0.17966276
950.851	0.17965491
951.017	0.17871053
951.183	0.17739668
951.349	0.17578566
951.516	0.17393065
951.682	0.17377314
951.848	0.17352326
952.014	0.17240045
952.18	0.17223231
952.346	0.17167751
952.512	0.17234804
952.679	0.17334334
952.845	0.17229022
953.011	0.17171185
953.177	0.17213268
953.343	0.17068082
953.509	0.17128092
953.675	0.17032802
953.841	0.1695467
954.007	0.16995421
954.172	0.1703307
954.338	0.16993655
954.504	0.16970054
954.67	0.168699
954.836	0.16874066
955.002	0.16872378
955.167	0.16822735
955.333	0.16727404
955.499	0.16696437
955.665	0.1667947
955.83	0.1674557
955.996	0.16708059
956.162	0.1664779
956.327	0.16613341
956.493	0.16576663
956.659	0.16581051
956.824	0.16562301
956.99	0.16426066
957.155	0.16404557
957.321	0.16457482
957.486	0.16433921
957.652	0.16388769
957.817	0.16418605
957.983	0.16419732
958.148	0.16441309
958.314	0.1644026
958.479	0.16312149
958.644	0.16354703
958.81	0.1643205
958.975	0.16358274
959.14	0.16297686
959.306	0.16259944
959.471	0.16218327
959.636	0.16182101
959.801	0.16161641
959.967	0.1609551
960.132	0.16105478
960.297	0.16106411
960.462	0.16107505
960.627	0.16080086
960.792	0.16050348
960.957	0.15975581
961.123	0.16014865
961.288	0.15971648
961.453	0.15969368
961.618	0.15975955
961.783	0.16001418
961.948	0.16000404
962.113	0.15969511
962.277	0.15877013
962.442	0.15866687
962.607	0.15863325
962.772	0.15804027
962.937	0.15731525
963.102	0.15726569
963.267	0.15749684
963.431	0.15751816
963.596	0.15719261
963.761	0.15680281
963.926	0.15654316
964.09	0.15645609
964.255	0.15693825
964.42	0.15684878
964.584	0.15682854
964.749	0.15643472
964.914	0.15611704
965.078	0.15580087
965.243	0.15526158
965.407	0.15438696
965.572	0.15408423
965.736	0.15403029
965.901	0.15443668
966.065	0.15520919
966.23	0.1553457
966.394	0.15612405
966.559	0.15635388
966.723	0.1558484
966.887	0.1555046
967.052	0.15503157
967.216	0.15384591
967.38	0.1532835
967.545	0.15318462
967.709	0.15328665
967.873	0.15397494
968.037	0.1536456
968.202	0.15350669
968.366	0.15382533
968.53	0.15435851
968.694	0.15316059
968.858	0.15281909
969.022	0.15206933
969.187	0.15209757
969.351	0.15180932
969.515	0.15135244
969.679	0.15073411
969.843	0.15059522
970.007	0.15014041
970.171	0.15002802
970.335	0.14990364
970.499	0.14956272
970.662	0.15022997
970.826	0.1506511
970.99	0.15123816
971.154	0.15201889
971.318	0.15190344
971.482	0.15137267
971.645	0.15137686
971.809	0.15098583
971.973	0.15065577
972.137	0.15011697
972.3	0.14929031
972.464	0.14960073
972.628	0.15028968
972.791	0.1508089
972.955	0.15066836
973.119	0.15029047
973.282	0.14993998
973.446	0.15018344
973.609	0.14981046
973.773	0.14916989
973.936	0.14871917
974.1	0.14870085
974.263	0.14855884
974.427	0.14920767
974.59	0.14848618
974.754	0.14787188
974.917	0.14768965
975.08	0.1475454
975.244	0.14687539
975.407	0.14726529
975.57	0.14682038
975.734	0.14671377
975.897	0.14683126
976.06	0.14683658
976.223	0.1465459
976.387	0.14679638
976.55	0.1466294
976.713	0.14669837
976.876	0.14660325
977.039	0.14654258
977.202	0.14610543
977.365	0.14612028
977.528	0.14624503
977.692	0.14607096
977.855	0.14553834
978.018	0.14533976
978.181	0.14525013
978.344	0.14538585
978.506	0.14469476
978.669	0.14414058
978.832	0.14344355
978.995	0.14355201
979.158	0.14390798
979.321	0.14342888
979.484	0.14296853
979.646	0.14290068
979.809	0.14306429
979.972	0.14296425
980.135	0.14300287
980.297	0.14265663
980.46	0.14279556
980.623	0.14260465
980.786	0.14267805
980.948	0.14247454
981.111	0.1422176
981.273	0.14231914
981.436	0.14210075
981.599	0.14270615
981.761	0.14277679
981.924	0.14348672
982.086	0.14319573
982.249	0.14382206
982.411	0.14358455
982.573	0.14349931
982.736	0.14355257
982.898	0.14333441
983.061	0.14283544
983.223	0.14207583
983.385	0.14147391
983.548	0.14123372
983.71	0.14087664
983.872	0.140074
984.034	0.14032215
984.197	0.13906734
984.359	0.1398409
984.521	0.14028121
984.683	0.14046481
984.845	0.14106709
985.008	0.14075959
985.17	0.1411269
985.332	0.14201187
985.494	0.14163579
985.656	0.14117221
985.818	0.14039351
985.98	0.13968529
986.142	0.13910239
986.304	0.13823838
986.466	0.1380611
986.628	0.13786393
986.79	0.13775448
986.952	0.1371183
987.113	0.13756024
987.275	0.13748762
987.437	0.13781713
987.599	0.13798468
987.761	0.13848482
987.922	0.13766363
988.084	0.13810387
988.246	0.13788264
988.408	0.13832661
988.569	0.13786322
988.731	0.13791108
988.893	0.13832748
989.054	0.14001628
989.216	0.14013352
989.377	0.13979156
989.539	0.13942266
989.701	0.13941578
989.862	0.13879192
990.024	0.13766526
990.185	0.13635836
990.347	0.13681072
990.508	0.1365784
990.669	0.13657441
990.831	0.1370762
990.992	0.13791658
991.154	0.13729966
991.315	0.13854148
991.476	0.13788134
991.638	0.13768872
991.799	0.13813301
991.96	0.1373482
992.121	0.1370822
992.283	0.13768008
992.444	0.1365104
992.605	0.13669104
992.766	0.13696051
992.927	0.13629792
993.088	0.1367858
993.249	0.1361864
993.41	0.13583007
993.572	0.13590435
993.733	0.13571983
993.894	0.13557364
994.055	0.13475204
994.216	0.13453888
994.376	0.13351218
994.537	0.13407559
994.698	0.1335118
994.859	0.13296858
995.02	0.13283785
995.181	0.13319613
995.342	0.13294972
995.503	0.13443357
995.663	0.13425311
995.824	0.13422774
995.985	0.13563876
996.146	0.13545872
996.306	0.13561413
996.467	0.13652553
996.628	0.1364708
996.788	0.13619685
996.949	0.1373746
997.11	0.13662944
997.27	0.13682582
997.431	0.13664817
997.591	0.13530857
997.752	0.1333771
997.912	0.13285265
998.073	0.13097438
998.233	0.13093918
998.394	0.13061506
998.554	0.13203267
998.714	0.13183866
998.875	0.13262087
999.035	0.13272538
999.196	0.13333951
999.356	0.13310408
999.516	0.13333911
999.676	0.13222993
999.837	0.13269388
999.997	0.13263025
1000.157	0.13263225
1000.317	0.13247951
1000.477	0.13159534
1000.638	0.13045657
1000.798	0.13098234
1000.958	0.13172797
1001.118	0.13093398
1001.278	0.13025888
1001.438	0.13006096
1001.598	0.12962166
1001.758	0.13036568
1001.918	0.12911303
1002.078	0.12663871
1002.238	0.12751732
1002.398	0.12802963
1002.558	0.12778271
1002.718	0.12811921
1002.878	0.12777418
1003.037	0.12674579
1003.197	0.12731915
1003.357	0.12710175
1003.517	0.12829999
1003.677	0.1275437
1003.836	0.12689512
1003.996	0.12755309
1004.156	0.12915202
1004.315	0.13076336
1004.475	0.1314926
1004.635	0.13081498
1004.794	0.13314054
1004.954	0.13405783
1005.114	0.13258838
1005.273	0.13324576
1005.433	0.13165404
1005.592	0.13101541
1005.752	0.1298612
1005.911	0.12817556
1006.071	0.12816459
1006.23	0.12860268
1006.389	0.12806488
1006.549	0.12966556
1006.708	0.13005834
1006.868	0.1291092
1007.027	0.12988862
1007.186	0.13040137
1007.345	0.13262892
1007.505	0.13231524
1007.664	0.1318524
1007.823	0.13172849
1007.982	0.13314128
1008.142	0.13438387
1008.301	0.13382999
1008.46	0.13103586
1008.619	0.1308169
1008.778	0.13008112
1008.937	0.12946141
1009.096	0.12968518
1009.255	0.12805632
1009.414	0.12645333
1009.573	0.12707607
1009.732	0.12809203
1009.891	0.12815324
1010.05	0.12930312
1010.209	0.1286615
1010.368	0.12863662
1010.527	0.1298532
1010.686	0.13129905
1010.845	0.13073907
1011.003	0.1321646
1011.162	0.13067418
1011.321	0.12954004
1011.48	0.13046987
1011.638	0.13064012
1011.797	0.13152549
1011.956	0.13137969
1012.115	0.13065747
1012.273	0.13023246
1012.432	0.13159196
1012.59	0.13037487
1012.749	0.13186212
1012.908	0.13025167
1013.066	0.13100902
1013.225	0.12895368
1013.383	0.13137272
1013.542	0.13058081
1013.7	0.13328505
1013.859	0.13376072
1014.017	0.13599463
1014.175	0.13437977
1014.334	0.13870116
1014.492	0.1387145
1014.65	0.14102269
1014.809	0.14087761
1014.967	0.13990668
1015.125	0.13886203
1015.284	0.14025196
1015.442	0.13885873
1015.6	0.13655535
1015.758	0.13447363
1015.916	0.13208222
1016.075	0.13154319
1016.233	0.12981799
1016.391	0.13173158
1016.549	0.13226845
1016.707	0.13409811
1016.865	0.1343733
1017.023	0.13292091
1017.181	0.13226315
1017.339	0.13313229
1017.497	0.13021405
1017.655	0.12610225
1017.813	0.1264662
1017.971	0.1266795
1018.129	0.12879906
1018.286	0.1307216
1018.444	0.13008712
1018.602	0.13093582
1018.76	0.13223789
1018.918	0.1312625
1019.075	0.13230729
1019.233	0.13103453
1019.391	0.12951906
1019.549	0.13080406
1019.706	0.13160083
1019.864	0.1320218
1020.022	0.13340726
1020.179	0.13261857
1020.337	0.13244158
1020.494	0.12995474
1020.652	0.12815683
1020.809	0.12649361
1020.967	0.12786633
1021.124	0.12731563
1021.282	0.13236631
1021.439	0.13495187
1021.597	0.13802439
1021.754	0.13723444
1021.911	0.14092519
1022.069	0.14040573
1022.226	0.14003578
1022.384	0.13332033
1022.541	0.13063364
1022.698	0.13331385
1022.855	0.13687647
1023.013	0.13411522
1023.17	0.13206722
1023.327	0.13588351
1023.484	0.14033438
1023.641	0.14335101
1023.798	0.14829197
1023.956	0.15004731
1024.113	0.14648257
1024.27	0.15159859
1024.427	0.1491258
1024.584	0.14829192
1024.741	0.14497274
1024.898	0.1351482
1025.055	0.13085765
1025.212	0.13136888
1025.369	0.12827398
1025.525	0.12599698
1025.682	0.12822045
1025.839	0.12535185
1025.996	0.13004976
1026.153	0.13282396
1026.31	0.140082
1026.466	0.1453465
1026.623	0.15193175
1026.78	0.14952776
1026.937	0.15917939
1027.093	0.16116752
1027.25	0.16660054
1027.407	0.16030656
1027.563	0.15715874
1027.72	0.1527599
1027.876	0.15028713
1028.033	0.14704815
1028.19	0.14282941
1028.346	0.13637774
1028.503	0.14290395
1028.659	0.14584049
1028.816	0.14668714
1028.972	0.14925778
1029.128	0.15229825
1029.285	0.15345673
1029.441	0.15316019
1029.598	0.15159784
1029.754	0.15350097
1029.91	0.15037531
1030.067	0.14880661
1030.223	0.14837317
1030.379	0.15045954
1030.535	0.1537155
1030.691	0.15031415
1030.848	0.151815
1031.004	0.15431463
1031.16	0.16311205
1031.316	0.16763212
1031.472	0.17056337
1031.628	0.16746408
1031.784	0.17207094
1031.94	0.16797666
1032.096	0.17151386
1032.252	0.1621177
1032.408	0.1729826
1032.564	0.16849039
1032.72	0.16944224
1032.876	0.16590976
1033.032	0.16258304
1033.188	0.16081958
1033.344	0.1724291
1033.5	0.16649413
1033.655	0.16844348
1033.811	0.17790376
1033.967	0.18535657
