Data from 0_1_mm_pl_60pc_Absorbance__0__15-30-59-856.txt Node

Date: Fri Feb 24 15:30:59 CET 2023
User: Ange
Spectrometer: FLMT08341
Trigger mode: 0
Integration Time (sec): 1.000000E-2
Scans to average: 400
Electric dark correction enabled: true
Nonlinearity correction enabled: false
Boxcar width: 3
XAxis mode: Wavelengths
Number of Pixels in Spectrum: 3648
>>>>>Begin Spectral Data<<<<<
345.271	-0.00606306
345.487	-0.01826999
345.704	-0.02317634
345.921	-0.0263558
346.137	-0.0470588
346.354	-0.04559361
346.571	-0.10861626
346.787	-0.17958232
347.004	-0.09756565
347.22	0.04052406
347.437	-0.09815443
347.653	-0.18556691
347.87	-0.03866645
348.086	-0
348.303	-0.16812803
348.519	0.6474508
348.736	0.66422531
348.952	0.65102449
349.169	0.68967236
349.385	0.72615346
349.601	0.71092003
349.818	0.70044296
350.034	0.68669458
350.251	0.675225
350.467	0.68486875
350.683	0.65493191
350.9	0.64750981
351.116	0.63833176
351.332	0.62515223
351.549	0.64702071
351.765	0.66814736
351.981	0.67364662
352.197	0.70604297
352.414	0.73958947
352.63	0.75617772
352.846	0.77593788
353.062	0.74860397
353.278	0.72921237
353.495	0.75401917
353.711	0.74934386
353.927	0.74953935
354.143	0.75193181
354.359	0.74913157
354.575	0.74530846
354.792	0.76935046
355.008	0.74902784
355.224	0.73990192
355.44	0.72824374
355.656	0.72184142
355.872	0.72821483
356.088	0.77944879
356.304	0.78154329
356.52	0.77597619
356.736	0.78222602
356.952	0.7920714
357.168	0.78980762
357.384	0.80215173
357.6	0.76363822
357.816	0.77403797
358.032	0.79387494
358.248	0.82457941
358.464	0.82076526
358.679	0.83823914
358.895	0.8309179
359.111	0.84724413
359.327	0.81915702
359.543	0.81759689
359.759	0.81703778
359.974	0.81455826
360.19	0.80945192
360.406	0.81396965
360.622	0.80842002
360.838	0.81004961
361.053	0.81842067
361.269	0.8175151
361.485	0.82567465
361.701	0.83111623
361.916	0.81861117
362.132	0.81616336
362.348	0.82225521
362.563	0.82583848
362.779	0.815226
362.995	0.81972963
363.21	0.8287559
363.426	0.83622189
363.641	0.84117271
363.857	0.85453205
364.073	0.83897319
364.288	0.83558259
364.504	0.84955798
364.719	0.84623335
364.935	0.84536656
365.15	0.85117021
365.366	0.84822007
365.581	0.87027755
365.797	0.87159796
366.012	0.85331527
366.228	0.84373115
366.443	0.85989666
366.658	0.85470592
366.874	0.84669825
367.089	0.84915417
367.305	0.85586364
367.52	0.86024203
367.735	0.85962085
367.951	0.84214748
368.166	0.85216258
368.381	0.87123954
368.597	0.86504524
368.812	0.87519118
369.027	0.88960198
369.243	0.90016093
369.458	0.93595448
369.673	0.941982
369.888	0.93866242
370.104	0.92840833
370.319	0.92977883
370.534	0.91707857
370.749	0.92083754
370.964	0.91719167
371.179	0.91099892
371.395	0.90081722
371.61	0.91490329
371.825	0.90030933
372.04	0.90309107
372.255	0.89512049
372.47	0.88236069
372.685	0.87320303
372.9	0.8739023
373.115	0.86098717
373.33	0.8663948
373.545	0.86757233
373.76	0.87289695
373.975	0.86480389
374.19	0.86288591
374.405	0.86279848
374.62	0.8774409
374.835	0.89171176
375.05	0.89306616
375.265	0.89293166
375.48	0.90469342
375.695	0.9296687
375.91	0.9288791
376.125	0.91102158
376.339	0.88982433
376.554	0.89188689
376.769	0.89194749
376.984	0.88557603
377.199	0.88366523
377.414	0.88093099
377.628	0.89535779
377.843	0.90506297
378.058	0.90518217
378.273	0.91027331
378.487	0.91530124
378.702	0.91507001
378.917	0.91603391
379.131	0.90507741
379.346	0.89027215
379.561	0.88121572
379.775	0.87224734
379.99	0.86121923
380.205	0.84591259
380.419	0.83828629
380.634	0.8272948
380.848	0.83837682
381.063	0.84016022
381.278	0.84957447
381.492	0.84119582
381.707	0.84859724
381.921	0.84857
382.136	0.86282119
382.35	0.85290634
382.565	0.84476858
382.779	0.84130537
382.994	0.84528813
383.208	0.83555858
383.422	0.84149954
383.637	0.83647821
383.851	0.84347533
384.066	0.84964983
384.28	0.84689664
384.494	0.84891521
384.709	0.8542643
384.923	0.85237247
385.137	0.84102097
385.352	0.83735565
385.566	0.83654506
385.78	0.83243638
385.995	0.82472277
386.209	0.81852071
386.423	0.81991309
386.637	0.82435364
386.852	0.81593228
387.066	0.81284429
387.28	0.80667287
387.494	0.81298802
387.708	0.81252088
387.923	0.80594441
388.137	0.80838503
388.351	0.8102135
388.565	0.80956478
388.779	0.81168554
388.993	0.8152761
389.207	0.81441186
389.421	0.81427151
389.635	0.80591281
389.85	0.80145014
390.064	0.79865408
390.278	0.79607853
390.492	0.79310733
390.706	0.79143274
390.92	0.78947758
391.134	0.79348625
391.348	0.80200494
391.561	0.79665911
391.775	0.79330793
391.989	0.7847945
392.203	0.78286503
392.417	0.78244924
392.631	0.78231485
392.845	0.77207106
393.059	0.77549411
393.273	0.77139914
393.486	0.76541609
393.7	0.75888961
393.914	0.7579239
394.128	0.75264996
394.342	0.74880872
394.555	0.74001173
394.769	0.73795505
394.983	0.73971728
395.197	0.74111267
395.41	0.73739244
395.624	0.73648854
395.838	0.73467033
396.051	0.7403887
396.265	0.73473597
396.479	0.73264654
396.692	0.73044143
396.906	0.72532641
397.12	0.72016057
397.333	0.71924583
397.547	0.71312403
397.76	0.71609604
397.974	0.71449548
398.187	0.71286893
398.401	0.71370572
398.614	0.71210784
398.828	0.70971653
399.041	0.70887836
399.255	0.70458053
399.468	0.70056819
399.682	0.69722425
399.895	0.69514823
400.109	0.69192757
400.322	0.68855472
400.536	0.68102318
400.749	0.6817425
400.962	0.67995497
401.176	0.67551846
401.389	0.67156433
401.602	0.6658614
401.816	0.66511941
402.029	0.66598906
402.242	0.6621464
402.456	0.65890056
402.669	0.65558621
402.882	0.64869672
403.095	0.65047302
403.309	0.64645864
403.522	0.64420924
403.735	0.64023379
403.948	0.63846612
404.161	0.64138027
404.375	0.64286212
404.588	0.64099731
404.801	0.63899957
405.014	0.63484337
405.227	0.63575467
405.44	0.63516112
405.653	0.63255987
405.866	0.62749402
406.079	0.6230878
406.293	0.62119202
406.506	0.61983733
406.719	0.6160395
406.932	0.61269025
407.145	0.60760653
407.358	0.60979676
407.571	0.6074734
407.784	0.60640761
407.996	0.60547078
408.209	0.60156841
408.422	0.59822138
408.635	0.5973953
408.848	0.59455764
409.061	0.59085145
409.274	0.58783915
409.487	0.58395503
409.7	0.58235466
409.912	0.58129714
410.125	0.57938781
410.338	0.57690629
410.551	0.57614575
410.764	0.57409428
410.976	0.57308141
411.189	0.57147202
411.402	0.56881804
411.615	0.5674309
411.827	0.56560552
412.04	0.56457338
412.253	0.5621601
412.465	0.55937624
412.678	0.55757865
412.891	0.5568177
413.103	0.55199565
413.316	0.54952291
413.529	0.54820611
413.741	0.54754334
413.954	0.54713202
414.166	0.54558969
414.379	0.54320814
414.591	0.54361989
414.804	0.54127763
415.016	0.53940017
415.229	0.53705627
415.441	0.53432957
415.654	0.53319653
415.866	0.53187003
416.079	0.53050153
416.291	0.52858181
416.504	0.5282573
416.716	0.52680921
416.928	0.5257144
417.141	0.52325441
417.353	0.52188296
417.566	0.51883485
417.778	0.51787638
417.99	0.51396905
418.203	0.51153331
418.415	0.50984914
418.627	0.50880929
418.839	0.50742707
419.052	0.50798104
419.264	0.50698632
419.476	0.50626466
419.688	0.50575801
419.901	0.50435104
420.113	0.50256518
420.325	0.50088795
420.537	0.49829219
420.749	0.497324
420.961	0.49622358
421.174	0.49448747
421.386	0.49272531
421.598	0.49156583
421.81	0.49016746
422.022	0.4885513
422.234	0.48655857
422.446	0.48471399
422.658	0.48321013
422.87	0.48232106
423.082	0.48092059
423.294	0.47937116
423.506	0.47868805
423.718	0.47756282
423.93	0.47581091
424.142	0.47428187
424.354	0.47251829
424.566	0.47110744
424.778	0.47032222
424.99	0.46867898
425.202	0.46699877
425.414	0.46645029
425.625	0.46607737
425.837	0.46444486
426.049	0.46385343
426.261	0.46229415
426.473	0.4608792
426.684	0.45992048
426.896	0.45895654
427.108	0.45700717
427.32	0.45678391
427.531	0.45504982
427.743	0.45380305
427.955	0.453597
428.167	0.45227969
428.378	0.45080694
428.59	0.45004228
428.802	0.44891471
429.013	0.44766499
429.225	0.44655052
429.436	0.44503139
429.648	0.44456689
429.86	0.44417915
430.071	0.44331552
430.283	0.44228234
430.494	0.44150219
430.706	0.4408989
430.917	0.43959065
431.129	0.43881896
431.34	0.4377624
431.552	0.43723344
431.763	0.43607393
431.975	0.43567864
432.186	0.43437947
432.398	0.43381853
432.609	0.43169229
432.821	0.43048391
433.032	0.42920612
433.243	0.42804855
433.455	0.42701403
433.666	0.42639972
433.877	0.42595029
434.089	0.42520022
434.3	0.4242627
434.511	0.42289247
434.723	0.42222396
434.934	0.42087189
435.145	0.41949825
435.356	0.41795464
435.568	0.41741156
435.779	0.41641457
435.99	0.41537046
436.201	0.41435808
436.412	0.41367611
436.624	0.41341343
436.835	0.41306667
437.046	0.41280726
437.257	0.41217378
437.468	0.41246199
437.679	0.41191501
437.89	0.41105543
438.101	0.41020559
438.312	0.40942953
438.523	0.40843937
438.734	0.40786159
438.945	0.40680005
439.156	0.40587422
439.367	0.40553784
439.578	0.40544644
439.789	0.40445544
440	0.40378155
440.211	0.40275975
440.422	0.40195855
440.633	0.40169833
440.844	0.40045109
441.055	0.39912739
441.266	0.39880429
441.477	0.39789372
441.687	0.39744645
441.898	0.39702699
442.109	0.39596051
442.32	0.39564321
442.531	0.39472866
442.741	0.3934443
442.952	0.39278847
443.163	0.39225433
443.374	0.39111744
443.584	0.39042474
443.795	0.38983148
444.006	0.38948081
444.216	0.3892708
444.427	0.38832629
444.638	0.38748207
444.848	0.38719629
445.059	0.38659842
445.27	0.38581085
445.48	0.38505941
445.691	0.38435902
445.901	0.38413264
446.112	0.38366456
446.323	0.38256693
446.533	0.38185927
446.744	0.38132162
446.954	0.38055112
447.165	0.37993404
447.375	0.37960502
447.586	0.37902897
447.796	0.37893224
448.006	0.37848254
448.217	0.3782543
448.427	0.37771391
448.638	0.37693149
448.848	0.37607809
449.058	0.37550381
449.269	0.37489742
449.479	0.37442329
449.689	0.37368479
449.9	0.37337716
450.11	0.37301122
450.32	0.37279759
450.531	0.37219553
450.741	0.37154237
450.951	0.37102934
451.161	0.37041984
451.372	0.36982087
451.582	0.3700397
451.792	0.36918835
452.002	0.36869492
452.212	0.36802551
452.422	0.36776226
452.633	0.36708657
452.843	0.36703188
453.053	0.36576171
453.263	0.36558441
453.473	0.36511009
453.683	0.36504021
453.893	0.36430995
454.103	0.36440371
454.313	0.36368031
454.523	0.36347544
454.733	0.36302015
454.943	0.36291455
455.153	0.36246762
455.363	0.36226962
455.573	0.36164681
455.783	0.36143466
455.993	0.36092329
456.203	0.3607552
456.413	0.36017663
456.623	0.35952686
456.833	0.35937343
457.042	0.35892077
457.252	0.35853432
457.462	0.35823135
457.672	0.35779354
457.882	0.35746403
458.091	0.35722114
458.301	0.35639877
458.511	0.35598189
458.721	0.35558663
458.931	0.35523572
459.14	0.35495274
459.35	0.3546791
459.56	0.35468234
459.769	0.35479885
459.979	0.3545603
460.189	0.35430706
460.398	0.35404276
460.608	0.35355965
460.817	0.35332805
461.027	0.35282214
461.237	0.35235827
461.446	0.35215614
461.656	0.35202828
461.865	0.35171857
462.075	0.35159423
462.284	0.35131187
462.494	0.35114712
462.703	0.35083451
462.913	0.35059908
463.122	0.34997106
463.332	0.34973056
463.541	0.34959315
463.751	0.34923195
463.96	0.34907878
464.169	0.34883424
464.379	0.34885076
464.588	0.34891059
464.797	0.34876847
465.007	0.34819486
465.216	0.34796499
465.425	0.34755179
465.635	0.34742501
465.844	0.34698018
466.053	0.34660483
466.263	0.34652969
466.472	0.34645625
466.681	0.34627312
466.89	0.34602573
467.099	0.34590722
467.309	0.345729
467.518	0.345779
467.727	0.34546007
467.936	0.34526082
468.145	0.3452613
468.354	0.34527277
468.563	0.34499279
468.772	0.34491911
468.982	0.34474491
469.191	0.34470419
469.4	0.34477664
469.609	0.34472543
469.818	0.34486158
470.027	0.34492739
470.236	0.34476281
470.445	0.3445997
470.654	0.34428134
470.863	0.34388054
471.072	0.34367996
471.28	0.34313626
471.489	0.34309838
471.698	0.34302743
471.907	0.34291603
472.116	0.34312104
472.325	0.34321325
472.534	0.34329063
472.743	0.34329954
472.951	0.34347009
473.16	0.34349783
473.369	0.34354351
473.578	0.34354333
473.786	0.34362691
473.995	0.3435908
474.204	0.34376105
474.413	0.34351037
474.621	0.34357445
474.83	0.34368666
475.039	0.34369277
475.247	0.34381288
475.456	0.34386826
475.665	0.34398644
475.873	0.34399784
476.082	0.34382572
476.291	0.34385248
476.499	0.34398154
476.708	0.34386392
476.916	0.34398089
477.125	0.34391817
477.333	0.34415677
477.542	0.34441804
477.75	0.34443176
477.959	0.34450499
478.167	0.34480412
478.376	0.34483153
478.584	0.34493631
478.793	0.34482561
479.001	0.34486597
479.209	0.34505995
479.418	0.34512945
479.626	0.34507467
479.834	0.34523126
480.043	0.34549504
480.251	0.34561259
480.459	0.34576446
480.668	0.34593425
480.876	0.3460165
481.084	0.34623209
481.293	0.34626787
481.501	0.34627066
481.709	0.34663605
481.917	0.3468457
482.125	0.34683865
482.334	0.34699826
482.542	0.34711276
482.75	0.34730794
482.958	0.34758342
483.166	0.34776143
483.374	0.34788855
483.583	0.34810611
483.791	0.34842065
483.999	0.34852245
484.207	0.3487381
484.415	0.34887678
484.623	0.34895123
484.831	0.3491528
485.039	0.34945676
485.247	0.34951525
485.455	0.34985438
485.663	0.35015608
485.871	0.35043894
486.079	0.35054492
486.287	0.35077338
486.495	0.350899
486.702	0.35116077
486.91	0.3513959
487.118	0.35151331
487.326	0.35174394
487.534	0.35206541
487.742	0.35233615
487.95	0.352625
488.157	0.35289387
488.365	0.3531615
488.573	0.3535304
488.781	0.35384413
488.988	0.35430027
489.196	0.3546981
489.404	0.35509846
489.612	0.35549022
489.819	0.35589593
490.027	0.35626365
490.235	0.35657986
490.442	0.35690373
490.65	0.3571921
490.857	0.35762009
491.065	0.35790187
491.273	0.3582353
491.48	0.35859486
491.688	0.35888384
491.895	0.35932678
492.103	0.35973307
492.31	0.35996767
492.518	0.36036774
492.725	0.36070049
492.933	0.361065
493.14	0.36155655
493.348	0.36178795
493.555	0.3621607
493.763	0.36256024
493.97	0.36297946
494.177	0.36336656
494.385	0.3638387
494.592	0.36423069
494.8	0.3645969
495.007	0.36502992
495.214	0.3654706
495.422	0.36589309
495.629	0.36633269
495.836	0.3666471
496.043	0.36710514
496.251	0.36769628
496.458	0.368063
496.665	0.36859529
496.872	0.36903947
497.08	0.3695076
497.287	0.36993816
497.494	0.37041156
497.701	0.37083362
497.908	0.37137422
498.115	0.37173726
498.322	0.37213122
498.53	0.37252295
498.737	0.37306608
498.944	0.37344799
499.151	0.37390807
499.358	0.37434979
499.565	0.3747985
499.772	0.37536269
499.979	0.37598966
500.186	0.37650689
500.393	0.3770508
500.6	0.377524
500.807	0.37802451
501.014	0.37856195
501.221	0.37903327
501.427	0.37940456
501.634	0.37987228
501.841	0.38041285
502.048	0.3809583
502.255	0.38141165
502.462	0.38200815
502.669	0.38263061
502.875	0.38322237
503.082	0.38373383
503.289	0.38418292
503.496	0.38473647
503.702	0.3853026
503.909	0.38577162
504.116	0.38617427
504.323	0.38674645
504.529	0.38741231
504.736	0.38806769
504.943	0.38856907
505.149	0.38928273
505.356	0.39000882
505.563	0.39065566
505.769	0.39124349
505.976	0.39177731
506.182	0.39237982
506.389	0.39303607
506.595	0.39368081
506.802	0.39421738
507.008	0.39488658
507.215	0.3954981
507.421	0.3960791
507.628	0.39662953
507.834	0.39720622
508.041	0.39768932
508.247	0.39819943
508.454	0.39877981
508.66	0.39936954
508.866	0.39999395
509.073	0.40066531
509.279	0.40134434
509.486	0.40204977
509.692	0.40273239
509.898	0.40348228
510.105	0.40419909
510.311	0.40485992
510.517	0.40553543
510.723	0.40614545
510.93	0.40672802
511.136	0.40742717
511.342	0.40797094
511.548	0.40851262
511.754	0.4092664
511.961	0.40996744
512.167	0.410602
512.373	0.41134479
512.579	0.41199117
512.785	0.412769
512.991	0.41354048
513.197	0.41416483
513.404	0.41480782
513.61	0.41553594
513.816	0.41620237
514.022	0.41695302
514.228	0.41753998
514.434	0.41814387
514.64	0.41878733
514.846	0.41945716
515.052	0.42019397
515.258	0.42087607
515.464	0.42143976
515.669	0.42213115
515.875	0.42287424
516.081	0.42361682
516.287	0.42443349
516.493	0.42518696
516.699	0.42584735
516.905	0.42664709
517.111	0.42736551
517.316	0.42816891
517.522	0.42894849
517.728	0.42964249
517.934	0.43034256
518.139	0.43112757
518.345	0.43179394
518.551	0.43266348
518.757	0.43340677
518.962	0.43410349
519.168	0.43482927
519.374	0.43548663
519.579	0.43617394
519.785	0.43702397
519.991	0.43772909
520.196	0.43843643
520.402	0.43920966
520.607	0.43993023
520.813	0.4407824
521.018	0.44160522
521.224	0.44225304
521.429	0.44301082
521.635	0.44377851
521.84	0.44447163
522.046	0.44525002
522.251	0.44589253
522.457	0.44662369
522.662	0.44751127
522.868	0.44826178
523.073	0.44896097
523.279	0.44968179
523.484	0.45037076
523.689	0.4512754
523.895	0.45213001
524.1	0.45291558
524.305	0.45371638
524.511	0.45453134
524.716	0.45535993
524.921	0.45618568
525.126	0.45690348
525.332	0.45758846
525.537	0.45835138
525.742	0.45921115
525.947	0.46006062
526.153	0.46080854
526.358	0.46173664
526.563	0.46257304
526.768	0.46344615
526.973	0.46427077
527.178	0.46496401
527.383	0.46574952
527.588	0.46665763
527.794	0.4673288
527.999	0.46815428
528.204	0.46893405
528.409	0.4696567
528.614	0.47046289
528.819	0.47126894
529.024	0.47202949
529.229	0.47281449
529.434	0.47358937
529.639	0.47436885
529.843	0.47514841
530.048	0.47589725
530.253	0.47669773
530.458	0.4775938
530.663	0.47842975
530.868	0.47929054
531.073	0.48004071
531.278	0.48084023
531.482	0.48169709
531.687	0.48249499
531.892	0.48322135
532.097	0.48395893
532.302	0.48476138
532.506	0.48557188
532.711	0.48634783
532.916	0.4871627
533.12	0.48790682
533.325	0.48866945
533.53	0.48957031
533.734	0.49024286
533.939	0.4910285
534.144	0.4918587
534.348	0.4926323
534.553	0.49342565
534.757	0.49419092
534.962	0.49498634
535.167	0.49590294
535.371	0.49668885
535.576	0.49758051
535.78	0.49845418
535.985	0.49934557
536.189	0.50018345
536.394	0.50106064
536.598	0.50177732
536.803	0.50265758
537.007	0.50341605
537.211	0.50422894
537.416	0.50498995
537.62	0.50578896
537.825	0.50650189
538.029	0.50741604
538.233	0.50811723
538.438	0.50894181
538.642	0.50957171
538.846	0.51033904
539.05	0.51106122
539.255	0.51181077
539.459	0.51245935
539.663	0.51326765
539.867	0.51394924
540.072	0.51485912
540.276	0.51565092
540.48	0.51659399
540.684	0.51736308
540.888	0.51831513
541.092	0.51910912
541.297	0.51995155
541.501	0.52066773
541.705	0.52146532
541.909	0.52209188
542.113	0.52286411
542.317	0.52357471
542.521	0.52438732
542.725	0.52514451
542.929	0.52591524
543.133	0.52670748
543.337	0.52758117
543.541	0.52832431
543.745	0.52893042
543.949	0.52966761
544.153	0.53037987
544.357	0.53114185
544.56	0.53185144
544.764	0.53261304
544.968	0.53329694
545.172	0.53405659
545.376	0.53482723
545.58	0.53553336
545.783	0.53633345
545.987	0.53696457
546.191	0.53757647
546.395	0.53832413
546.598	0.53914364
546.802	0.53984625
547.006	0.54058753
547.21	0.54112092
547.413	0.54196514
547.617	0.54274531
547.821	0.54351296
548.024	0.54415688
548.228	0.5447034
548.431	0.54538681
548.635	0.54614725
548.839	0.54670169
549.042	0.5473855
549.246	0.54790412
549.449	0.54856157
549.653	0.54931618
549.856	0.5499714
550.06	0.55055005
550.263	0.55128054
550.467	0.55191579
550.67	0.55269433
550.874	0.55324911
551.077	0.55391511
551.28	0.55460066
551.484	0.55534674
551.687	0.55598686
551.891	0.55662292
552.094	0.55715265
552.297	0.55783048
552.501	0.55849992
552.704	0.55911803
552.907	0.55971508
553.11	0.56027932
553.314	0.56090138
553.517	0.56144102
553.72	0.56201246
553.923	0.56254308
554.127	0.56310513
554.33	0.56355687
554.533	0.56414044
554.736	0.56458298
554.939	0.56522871
555.142	0.56588899
555.345	0.56650448
555.549	0.56715167
555.752	0.56785178
555.955	0.56846573
556.158	0.56930339
556.361	0.56996015
556.564	0.57051101
556.767	0.57107986
556.97	0.57167851
557.173	0.57218705
557.376	0.57277057
557.579	0.57314113
557.782	0.57368751
557.984	0.57429558
558.187	0.57482446
558.39	0.57522628
558.593	0.57588165
558.796	0.57631622
558.999	0.57676218
559.202	0.57717053
559.404	0.57749057
559.607	0.57789705
559.81	0.57830654
560.013	0.57867988
560.216	0.57910696
560.418	0.57969523
560.621	0.58022684
560.824	0.58083252
561.026	0.58133855
561.229	0.58181423
561.432	0.58227265
561.634	0.58279676
561.837	0.58311256
562.04	0.58358516
562.242	0.58402988
562.445	0.58443464
562.647	0.58484663
562.85	0.58506612
563.053	0.58535192
563.255	0.58576403
563.458	0.58611166
563.66	0.58644823
563.863	0.58692294
564.065	0.58732756
564.268	0.5878094
564.47	0.58824945
564.672	0.58860919
564.875	0.5890526
565.077	0.58936952
565.28	0.5896555
565.482	0.59005947
565.684	0.59044814
565.887	0.59081091
566.089	0.59127591
566.291	0.59158356
566.494	0.59189187
566.696	0.59215576
566.898	0.59240372
567.1	0.5926633
567.303	0.59294881
567.505	0.59315024
567.707	0.59329212
567.909	0.5935385
568.111	0.59389828
568.314	0.59422013
568.516	0.5944736
568.718	0.59468009
568.92	0.59490823
569.122	0.59521864
569.324	0.59558055
569.526	0.59572829
569.728	0.59601708
569.93	0.59626066
570.132	0.59645754
570.334	0.59663443
570.536	0.59677198
570.738	0.59689806
570.94	0.59708491
571.142	0.59724185
571.344	0.59731315
571.546	0.5975197
571.748	0.59775851
571.95	0.59793502
572.152	0.59812685
572.354	0.59831354
572.555	0.59857286
572.757	0.59894529
572.959	0.5990342
573.161	0.59909034
573.363	0.59922063
573.564	0.59942461
573.766	0.59953552
573.968	0.59960899
574.17	0.59958344
574.371	0.59980178
574.573	0.59997562
574.775	0.60007537
574.976	0.60010244
575.178	0.60025032
575.38	0.60020123
575.581	0.60024556
575.783	0.60029073
575.985	0.60042122
576.186	0.60059785
576.388	0.60058532
576.589	0.60056571
576.791	0.60069285
576.992	0.60087006
577.194	0.60092702
577.395	0.6009001
577.597	0.60098274
577.798	0.60113956
578	0.60121384
578.201	0.60125307
578.402	0.60122595
578.604	0.60122223
578.805	0.60137635
579.007	0.60138578
579.208	0.60137581
579.409	0.6013936
579.611	0.60137435
579.812	0.60142498
580.013	0.60142137
580.215	0.6011423
580.416	0.60106543
580.617	0.6009843
580.818	0.60098126
581.019	0.60091336
581.221	0.60082682
581.422	0.60076206
581.623	0.6009244
581.824	0.60075446
582.025	0.60076676
582.226	0.60067156
582.428	0.60068921
582.629	0.60061522
582.83	0.60059069
583.031	0.60042335
583.232	0.6005116
583.433	0.60052871
583.634	0.60049619
583.835	0.60040567
584.036	0.60025615
584.237	0.60011206
584.438	0.59994781
584.639	0.59967453
584.84	0.59950262
585.041	0.59928703
585.242	0.59919146
585.442	0.59914752
585.643	0.59916331
585.844	0.59909557
586.045	0.59912729
586.246	0.59891812
586.447	0.5987879
586.647	0.5986038
586.848	0.59847169
587.049	0.59827669
587.25	0.59814404
587.45	0.59781641
587.651	0.59767492
587.852	0.59754431
588.053	0.59748581
588.253	0.59732305
588.454	0.59720313
588.655	0.59697147
588.855	0.5968598
589.056	0.59669674
589.256	0.59659141
589.457	0.59629806
589.658	0.59612578
589.858	0.59590662
590.059	0.5958358
590.259	0.59578149
590.46	0.59567938
590.66	0.59545132
590.861	0.59539972
591.061	0.59522761
591.262	0.59518976
591.462	0.59512182
591.662	0.59503927
591.863	0.59490261
592.063	0.59488127
592.264	0.5946742
592.464	0.59446226
592.664	0.59417244
592.865	0.59399278
593.065	0.59356864
593.265	0.59347973
593.465	0.59321431
593.666	0.5930517
593.866	0.59287892
594.066	0.59273213
594.266	0.59239088
594.467	0.59217873
594.667	0.59181318
594.867	0.59166455
595.067	0.59136983
595.267	0.59126022
595.467	0.59103836
595.668	0.59082727
595.868	0.59072504
596.068	0.5905589
596.268	0.59026001
596.468	0.59017927
596.668	0.58995464
596.868	0.58972429
597.068	0.58960775
597.268	0.58939544
597.468	0.58905832
597.668	0.58878194
597.868	0.58843421
598.068	0.58820662
598.268	0.58805284
598.467	0.58792692
598.667	0.58767378
598.867	0.58752828
599.067	0.58744328
599.267	0.58730901
599.467	0.58706061
599.667	0.58669249
599.866	0.58645758
600.066	0.5863736
600.266	0.58616051
600.466	0.58587875
600.665	0.58571512
600.865	0.58549317
601.065	0.58535799
601.264	0.58503175
601.464	0.58475344
601.664	0.58472481
601.863	0.58466023
602.063	0.5845379
602.263	0.58424124
602.462	0.58417423
602.662	0.58407903
602.861	0.58396977
603.061	0.58369383
603.26	0.58345143
603.46	0.58311728
603.659	0.58313129
603.859	0.5829282
604.058	0.58274484
604.258	0.58264188
604.457	0.58263287
604.657	0.5823431
604.856	0.58216852
605.056	0.58207595
605.255	0.58192518
605.454	0.58188179
605.654	0.58157671
605.853	0.58127848
606.052	0.58121115
606.252	0.58112294
606.451	0.5808745
606.65	0.58078254
606.849	0.58038845
607.049	0.58024653
607.248	0.58001852
607.447	0.57986356
607.646	0.57972888
607.845	0.57947426
608.045	0.57906818
608.244	0.57902219
608.443	0.57888037
608.642	0.5788928
608.841	0.578759
609.04	0.57860636
609.239	0.57858471
609.438	0.57849911
609.637	0.57840834
609.836	0.57834612
610.035	0.57810517
610.234	0.57802813
610.433	0.57802149
610.632	0.57800049
610.831	0.57810776
611.03	0.57799811
611.229	0.57797298
611.428	0.57795248
611.627	0.57789295
611.826	0.5777861
612.025	0.57780659
612.224	0.57763743
612.422	0.57768315
612.621	0.57765374
612.82	0.57764983
613.019	0.57755465
613.218	0.57753214
613.416	0.5772852
613.615	0.57737809
613.814	0.57727561
614.012	0.57725266
614.211	0.57717325
614.41	0.57728298
614.608	0.57731876
614.807	0.57740874
615.006	0.577397
615.204	0.57730124
615.403	0.57730379
615.602	0.57735537
615.8	0.577367
615.999	0.57728336
616.197	0.57726899
616.396	0.57730243
616.594	0.57734944
616.793	0.57740071
616.991	0.57733606
617.19	0.57719559
617.388	0.57733257
617.586	0.57736559
617.785	0.57733864
617.983	0.5773714
618.182	0.57717677
618.38	0.57709103
618.578	0.57705995
618.777	0.5769388
618.975	0.57689907
619.173	0.5768447
619.372	0.57691998
619.57	0.57704496
619.768	0.5773064
619.966	0.57749126
620.165	0.57745481
620.363	0.57760112
620.561	0.57750461
620.759	0.57756938
620.957	0.57770946
621.155	0.57776263
621.354	0.57784265
621.552	0.5782723
621.75	0.57834362
621.948	0.57868039
622.146	0.57883765
622.344	0.57885832
622.542	0.57890571
622.74	0.57887669
622.938	0.57873288
623.136	0.57894784
623.334	0.57912176
623.532	0.57907253
623.73	0.57919084
623.928	0.57932445
624.126	0.57959911
624.324	0.57985044
624.522	0.57974917
624.719	0.57974279
624.917	0.58002005
625.115	0.58004522
625.313	0.58025109
625.511	0.58045755
625.708	0.58032988
625.906	0.58051014
626.104	0.58052444
626.302	0.58069451
626.499	0.58097008
626.697	0.58113124
626.895	0.58120953
627.093	0.5816229
627.29	0.58194013
627.488	0.58228877
627.686	0.58245592
627.883	0.58254071
628.081	0.58248487
628.278	0.58274554
628.476	0.5828063
628.673	0.58287953
628.871	0.58307588
629.068	0.5832913
629.266	0.58358357
629.463	0.58385935
629.661	0.58398661
629.858	0.58418382
630.056	0.58437249
630.253	0.58453671
630.451	0.58471499
630.648	0.58495672
630.845	0.58517162
631.043	0.58536249
631.24	0.58562759
631.438	0.58584177
631.635	0.58592128
631.832	0.58598882
632.029	0.58621131
632.227	0.58643745
632.424	0.58672991
632.621	0.58691923
632.818	0.58706962
633.016	0.58741236
633.213	0.58760819
633.41	0.58776641
633.607	0.58788239
633.804	0.58795353
634.001	0.58808914
634.199	0.58843202
634.396	0.58869321
634.593	0.58895591
634.79	0.58924434
634.987	0.58966759
635.184	0.59002656
635.381	0.59040461
635.578	0.59061688
635.775	0.59087313
635.972	0.59117496
636.169	0.59140599
636.366	0.59161008
636.563	0.5918348
636.76	0.59202068
636.957	0.59226322
637.153	0.59232019
637.35	0.59263761
637.547	0.59286559
637.744	0.59313819
637.941	0.5934519
638.138	0.59369123
638.334	0.59396381
638.531	0.59441828
638.728	0.59460816
638.925	0.59495449
639.121	0.59509136
639.318	0.59512737
639.515	0.59525615
639.711	0.59554909
639.908	0.59560355
640.105	0.59585827
640.301	0.59601219
640.498	0.59631052
640.695	0.59677956
640.891	0.59711979
641.088	0.5972934
641.284	0.59770152
641.481	0.59796
641.677	0.59817203
641.874	0.59843782
642.07	0.59866913
642.267	0.59923214
642.463	0.59953093
642.66	0.59988779
642.856	0.60004476
643.053	0.60015391
643.249	0.60039366
643.445	0.60053573
643.642	0.60063646
643.838	0.60099475
644.034	0.60116919
644.231	0.6016031
644.427	0.6020818
644.623	0.602405
644.82	0.60277703
645.016	0.6028819
645.212	0.60294381
645.408	0.60317243
645.604	0.60354802
645.801	0.60391645
645.997	0.60422925
646.193	0.60437571
646.389	0.60486915
646.585	0.60526387
646.781	0.60562543
646.977	0.60577538
647.173	0.60588998
647.37	0.60601156
647.566	0.60631022
647.762	0.60638419
647.958	0.60680904
648.154	0.60700367
648.35	0.60735704
648.546	0.60762583
648.742	0.6080905
648.937	0.60826039
649.133	0.60862008
649.329	0.60877712
649.525	0.60903148
649.721	0.60922533
649.917	0.60974045
650.113	0.60991726
650.309	0.61045706
650.504	0.61073979
650.7	0.61098028
650.896	0.61130118
651.092	0.61148954
651.287	0.61149773
651.483	0.61181624
651.679	0.61193309
651.875	0.61222795
652.07	0.61249895
652.266	0.61284838
652.462	0.61314852
652.657	0.6134484
652.853	0.61358886
653.048	0.6138161
653.244	0.61385338
653.44	0.61403931
653.635	0.61403132
653.831	0.61428528
654.026	0.61467384
654.222	0.61496807
654.417	0.61532582
654.613	0.61559189
654.808	0.61569343
655.004	0.61601341
655.199	0.61607234
655.394	0.61607874
655.59	0.61635979
655.785	0.61642351
655.98	0.61676987
656.176	0.61711483
656.371	0.61746525
656.566	0.61782146
656.762	0.61801438
656.957	0.61811399
657.152	0.61825886
657.348	0.61844702
657.543	0.6186733
657.738	0.61883073
657.933	0.61905337
658.128	0.61940225
658.324	0.61970943
658.519	0.62014527
658.714	0.62043347
658.909	0.62054894
659.104	0.62080421
659.299	0.62096879
659.494	0.62102993
659.689	0.62121755
659.884	0.62120884
660.079	0.62121399
660.274	0.62145851
660.469	0.62160437
660.664	0.6218919
660.859	0.62213691
661.054	0.62219609
661.249	0.62246437
661.444	0.62268403
661.639	0.62278468
661.834	0.62287294
662.029	0.62304955
662.224	0.62327313
662.418	0.62360231
662.613	0.62377931
662.808	0.62390435
663.003	0.6240609
663.198	0.62422634
663.392	0.62414046
663.587	0.62430805
663.782	0.6243072
663.977	0.6244288
664.171	0.62475939
664.366	0.62514569
664.561	0.62537687
664.755	0.62581193
664.95	0.62595974
665.144	0.62617306
665.339	0.62631887
665.534	0.6263061
665.728	0.62630493
665.923	0.62640415
666.117	0.62643703
666.312	0.62658618
666.506	0.62686303
666.701	0.62702837
666.895	0.6271793
667.09	0.62731988
667.284	0.62754557
667.479	0.62767012
667.673	0.62772985
667.867	0.62778843
668.062	0.62796027
668.256	0.6282737
668.45	0.62854677
668.645	0.62864137
668.839	0.62888604
669.033	0.62907364
669.228	0.62915728
669.422	0.62929898
669.616	0.6292851
669.81	0.62940136
670.004	0.62940306
670.199	0.62950938
670.393	0.62962212
670.587	0.62980437
670.781	0.63001124
670.975	0.63018616
671.169	0.63011263
671.363	0.63031111
671.558	0.6302585
671.752	0.63025986
671.946	0.63029212
672.14	0.63021336
672.334	0.63018515
672.528	0.63039893
672.722	0.6303548
672.916	0.63052066
673.11	0.63051473
673.304	0.63067345
673.497	0.63060662
673.691	0.6307716
673.885	0.63058241
674.079	0.63068215
674.273	0.63058885
674.467	0.6307557
674.661	0.6307339
674.854	0.63100613
675.048	0.63101361
675.242	0.63143602
675.436	0.63155931
675.629	0.63170578
675.823	0.63171502
676.017	0.6317615
676.211	0.63158433
676.404	0.63153733
676.598	0.6314149
676.792	0.63145296
676.985	0.63153895
677.179	0.6316717
677.372	0.63169122
677.566	0.63205028
677.76	0.63226412
677.953	0.63218649
678.147	0.63224355
678.34	0.63226782
678.534	0.63220787
678.727	0.63225453
678.921	0.63222022
679.114	0.63212665
679.307	0.63230387
679.501	0.63239416
679.694	0.63250068
679.888	0.63261753
680.081	0.63265008
680.274	0.6324662
680.468	0.63249831
680.661	0.63240363
680.854	0.63237176
681.048	0.63238035
681.241	0.63237244
681.434	0.63251932
681.627	0.63279028
681.821	0.63296412
682.014	0.63317697
682.207	0.63323147
682.4	0.63323059
682.593	0.63331274
682.786	0.63315
682.98	0.63302888
683.173	0.63297519
683.366	0.63286841
683.559	0.63278025
683.752	0.63279817
683.945	0.63269922
684.138	0.63288708
684.331	0.63287953
684.524	0.63296996
684.717	0.63291005
684.91	0.63297297
685.103	0.632933
685.296	0.63297205
685.489	0.63285785
685.682	0.63279834
685.874	0.6329591
686.067	0.63307103
686.26	0.63300902
686.453	0.63290083
686.646	0.6327923
686.839	0.63271083
687.031	0.63259691
687.224	0.63206851
687.417	0.63193573
687.61	0.63180706
687.802	0.63169806
687.995	0.63164453
688.188	0.63158458
688.38	0.63161992
688.573	0.6317783
688.766	0.63170691
688.958	0.63167408
689.151	0.6316049
689.343	0.6315847
689.536	0.63149079
689.729	0.63139085
689.921	0.63133554
690.114	0.63119942
690.306	0.63120175
690.499	0.63134824
690.691	0.63144003
690.884	0.63153371
691.076	0.63158853
691.268	0.63143607
691.461	0.63132454
691.653	0.63129477
691.846	0.63122074
692.038	0.63102522
692.23	0.63077682
692.423	0.63067739
692.615	0.63064408
692.807	0.63064621
692.999	0.63058446
693.192	0.63043004
693.384	0.63041949
693.576	0.6303515
693.768	0.63027316
693.961	0.63005882
694.153	0.62995857
694.345	0.62964423
694.537	0.62954514
694.729	0.62943749
694.921	0.62941225
695.113	0.62947552
695.305	0.62959144
695.498	0.62958444
695.69	0.62975218
695.882	0.62962985
696.074	0.62952445
696.266	0.62931611
696.458	0.62894488
696.65	0.62876212
696.842	0.6287253
697.033	0.62867256
697.225	0.62865804
697.417	0.62879261
697.609	0.62893328
697.801	0.62906801
697.993	0.62915731
698.185	0.62896659
698.376	0.62877577
698.568	0.6286197
698.76	0.62833794
698.952	0.62814533
699.144	0.62799994
699.335	0.62780976
699.527	0.62774538
699.719	0.62763832
699.91	0.62771878
700.102	0.62772182
700.294	0.6277498
700.485	0.62763267
700.677	0.62748274
700.869	0.62744843
701.06	0.62745115
701.252	0.62720134
701.443	0.62697315
701.635	0.62680098
701.826	0.6267662
702.018	0.62684471
702.209	0.62688138
702.401	0.62682311
702.592	0.6268775
702.784	0.62681501
702.975	0.62674438
703.166	0.62652847
703.358	0.62625023
703.549	0.62604622
703.741	0.62589507
703.932	0.62578061
704.123	0.62583159
704.315	0.62582103
704.506	0.62603669
704.697	0.62608696
704.888	0.62615035
705.08	0.62609013
705.271	0.62595246
705.462	0.62561861
705.653	0.62536583
705.844	0.62497275
706.035	0.62479091
706.227	0.62448014
706.418	0.62426509
706.609	0.62420948
706.8	0.62433765
706.991	0.62432041
707.182	0.62439061
707.373	0.62423441
707.564	0.62420749
707.755	0.62405101
707.946	0.62376173
708.137	0.62335068
708.328	0.62308754
708.519	0.62290337
708.71	0.6228323
708.901	0.62266649
709.092	0.62273332
709.283	0.6228344
709.473	0.62297056
709.664	0.62309011
709.855	0.6229936
710.046	0.62300683
710.237	0.62287888
710.427	0.62267937
710.618	0.62251231
710.809	0.62232491
711	0.62221607
711.19	0.62206417
711.381	0.62214234
711.572	0.62216754
711.762	0.62234144
711.953	0.62227493
712.144	0.6222669
712.334	0.62207072
712.525	0.62214311
712.715	0.62185832
712.906	0.62176702
713.097	0.62142156
713.287	0.62139705
713.478	0.62134311
713.668	0.62144967
713.859	0.62135581
714.049	0.62138073
714.239	0.62146971
714.43	0.62153295
714.62	0.62144246
714.811	0.62137777
715.001	0.62123254
715.191	0.62109349
715.382	0.62088034
715.572	0.62070497
715.762	0.62058069
715.953	0.62061023
716.143	0.62068943
716.333	0.62055382
716.523	0.62055471
716.714	0.6206248
716.904	0.62056656
717.094	0.62053871
717.284	0.62024633
717.474	0.61994528
717.664	0.61991905
717.855	0.61966697
718.045	0.61941182
718.235	0.61926123
718.425	0.61936855
718.615	0.61955721
718.805	0.61975372
718.995	0.6199766
719.185	0.62036005
719.375	0.62054985
719.565	0.62067064
719.755	0.62039077
719.945	0.6201622
720.135	0.61997233
720.325	0.61971463
720.515	0.61943918
720.704	0.61933451
720.894	0.61926059
721.084	0.61934163
721.274	0.61941647
721.464	0.61949849
721.654	0.61950592
721.843	0.61947632
722.033	0.6194383
722.223	0.61935773
722.413	0.61939601
722.602	0.61933407
722.792	0.61915299
722.982	0.61914738
723.171	0.61916698
723.361	0.61922604
723.55	0.61945133
723.74	0.61945646
723.93	0.61959895
724.119	0.61983814
724.309	0.61990225
724.498	0.61986229
724.688	0.61988863
724.877	0.6197348
725.067	0.61953568
725.256	0.61940554
725.446	0.61912687
725.635	0.61879261
725.825	0.61867208
726.014	0.61856294
726.203	0.61838918
726.393	0.61830375
726.582	0.61813521
726.771	0.61816659
726.961	0.61826405
727.15	0.61824531
727.339	0.61811305
727.529	0.61813208
727.718	0.61812511
727.907	0.6180406
728.096	0.61792377
728.286	0.61787024
728.475	0.61797125
728.664	0.61796597
728.853	0.61785946
729.042	0.61781875
729.231	0.61789402
729.42	0.61785908
729.609	0.61785093
729.799	0.61760159
729.988	0.61742528
730.177	0.61716707
730.366	0.61708043
730.555	0.61686601
730.744	0.61677386
730.933	0.61670099
731.122	0.61676204
731.31	0.61689697
731.499	0.61716363
731.688	0.61736489
731.877	0.61751431
732.066	0.61757547
732.255	0.61746382
732.444	0.61732997
732.632	0.61720506
732.821	0.61705748
733.01	0.61682851
733.199	0.61654204
733.388	0.6164621
733.576	0.61655212
733.765	0.61664218
733.954	0.61667044
734.142	0.61663579
734.331	0.61664661
734.52	0.61683826
734.708	0.61679212
734.897	0.61674654
735.086	0.61662916
735.274	0.61648901
735.463	0.61655781
735.651	0.61654578
735.84	0.61667305
736.028	0.61676461
736.217	0.61696725
736.405	0.61709818
736.594	0.61737673
736.782	0.61754822
736.971	0.61763111
737.159	0.61757095
737.347	0.61756019
737.536	0.61722128
737.724	0.61714893
737.912	0.61686775
738.101	0.61657619
738.289	0.6165946
738.477	0.61658666
738.666	0.61666711
738.854	0.61689837
739.042	0.61707541
739.23	0.61715373
739.418	0.61725672
739.607	0.61715393
739.795	0.6171131
739.983	0.61716678
740.171	0.61705976
740.359	0.61692042
740.547	0.61679302
740.735	0.61679232
740.923	0.6169878
741.112	0.61711939
741.3	0.617118
741.488	0.61710988
741.676	0.61737018
741.864	0.61758002
742.052	0.61781043
742.239	0.61770632
742.427	0.61762295
742.615	0.61754109
742.803	0.61764913
742.991	0.61737704
743.179	0.61738831
743.367	0.61727803
743.555	0.61745029
743.742	0.61758593
743.93	0.61781487
744.118	0.6179521
744.306	0.61820702
744.494	0.61831634
744.681	0.61841573
744.869	0.61839504
745.057	0.61840581
745.244	0.61834974
745.432	0.61845128
745.62	0.61842962
745.807	0.61852308
745.995	0.6184803
746.182	0.61835634
746.37	0.61841883
746.558	0.61838096
746.745	0.6181443
746.933	0.61812214
747.12	0.61811033
747.308	0.61825744
747.495	0.61821528
747.683	0.61812479
747.87	0.61805533
748.057	0.61820872
748.245	0.61830767
748.432	0.61828915
748.62	0.61814609
748.807	0.61836646
748.994	0.61850743
749.182	0.61869079
749.369	0.61880711
749.556	0.61897457
749.743	0.61906393
749.931	0.61921474
750.118	0.61930601
750.305	0.6192656
750.492	0.61916721
750.68	0.61915998
750.867	0.61900504
751.054	0.61912521
751.241	0.61908759
751.428	0.61907585
751.615	0.61914391
751.802	0.61939323
751.989	0.6194439
752.176	0.61968487
752.363	0.61980139
752.55	0.61990676
752.737	0.62005137
752.924	0.62004203
753.111	0.62002854
753.298	0.62005953
753.485	0.61997456
753.672	0.61980401
753.859	0.61997131
754.046	0.61999669
754.233	0.62013719
754.42	0.62036837
754.606	0.62056722
754.793	0.62069312
754.98	0.62103779
755.167	0.62097487
755.353	0.62113772
755.54	0.62129411
755.727	0.62125508
755.914	0.62115541
756.1	0.62114547
756.287	0.62089757
756.474	0.62096041
756.66	0.62098125
756.847	0.62114813
757.033	0.62117449
757.22	0.62137816
757.407	0.62177932
757.593	0.62222145
757.78	0.62243367
757.966	0.62266548
758.153	0.6226723
758.339	0.62272892
758.526	0.62270693
758.712	0.6223976
758.898	0.62233166
759.085	0.62219307
759.271	0.62193468
759.458	0.62189628
759.644	0.6220689
759.83	0.62218845
760.017	0.62249708
760.203	0.62262617
760.389	0.62298482
760.576	0.62335842
760.762	0.62359214
760.948	0.62364017
761.134	0.6237362
761.32	0.62366144
761.507	0.62348109
761.693	0.62358506
761.879	0.62352794
762.065	0.62357233
762.251	0.62361827
762.437	0.62378222
762.623	0.62392075
762.809	0.6241622
762.995	0.62418183
763.181	0.62420533
763.367	0.62435644
763.553	0.62455133
763.739	0.62474717
763.925	0.62488341
764.111	0.62509801
764.297	0.62530836
764.483	0.62544747
764.669	0.62533433
764.855	0.62531883
765.041	0.6252707
765.227	0.62527964
765.412	0.62537734
765.598	0.62540857
765.784	0.62560209
765.97	0.62596074
766.156	0.62621172
766.341	0.62645238
766.527	0.62659052
766.713	0.62663808
766.898	0.62671088
767.084	0.6267448
767.27	0.62650336
767.455	0.6263482
767.641	0.62625093
767.827	0.62619647
768.012	0.62615963
768.198	0.62626562
768.383	0.62630439
768.569	0.62664096
768.754	0.62693419
768.94	0.62708218
769.125	0.62723409
769.311	0.62729536
769.496	0.62726003
769.682	0.6273677
769.867	0.62746137
770.052	0.6274371
770.238	0.62749677
770.423	0.62767543
770.608	0.62792823
770.794	0.62804566
770.979	0.62815209
771.164	0.628233
771.35	0.62833497
771.535	0.62852342
771.72	0.62858818
771.905	0.62874772
772.09	0.6288343
772.276	0.62908776
772.461	0.62903524
772.646	0.62898595
772.831	0.62892609
773.016	0.62902316
773.201	0.62889932
773.386	0.62901863
773.571	0.62891496
773.756	0.62903428
773.941	0.62922094
774.126	0.62956927
774.311	0.6295977
774.496	0.62989475
774.681	0.63003262
774.866	0.63025065
775.051	0.63037345
775.236	0.63046865
775.421	0.63022625
775.606	0.63014856
775.791	0.62996806
775.976	0.62988643
776.16	0.62984264
776.345	0.62986708
776.53	0.63012477
776.715	0.63041591
776.899	0.63073519
777.084	0.63095257
777.269	0.63120034
777.454	0.63135791
777.638	0.63159099
777.823	0.63160648
778.008	0.63150239
778.192	0.6315121
778.377	0.63152863
778.561	0.63155287
778.746	0.6316117
778.931	0.6316228
779.115	0.63179853
779.3	0.63210031
779.484	0.63228019
779.669	0.63238033
779.853	0.63249943
780.037	0.63268118
780.222	0.63275722
780.406	0.63264903
780.591	0.63264412
780.775	0.63263548
780.959	0.63279323
781.144	0.63279819
781.328	0.63271769
781.512	0.63260368
781.697	0.63262275
781.881	0.63254826
782.065	0.63264909
782.249	0.63251606
782.434	0.63267638
782.618	0.63275878
782.802	0.63309302
782.986	0.63329081
783.17	0.63347089
783.354	0.63350737
783.539	0.63359252
783.723	0.63336797
783.907	0.6333266
784.091	0.63322826
784.275	0.63323055
784.459	0.6331728
784.643	0.63327783
784.827	0.63326443
785.011	0.63338647
785.195	0.63353982
785.379	0.63374695
785.563	0.63382822
785.747	0.63398851
785.93	0.63425555
786.114	0.63435943
786.298	0.63440053
786.482	0.63427228
786.666	0.63419225
786.85	0.63404438
787.033	0.63406943
787.217	0.63392019
787.401	0.6339365
787.585	0.63398784
787.768	0.63421403
787.952	0.6341153
788.136	0.63421772
788.319	0.63424763
788.503	0.63419525
788.687	0.63440084
788.87	0.63454137
789.054	0.63466529
789.237	0.63493195
789.421	0.63508037
789.605	0.63500487
789.788	0.63493767
789.972	0.63481902
790.155	0.63454148
790.338	0.63424768
790.522	0.6340909
790.705	0.63395685
790.889	0.63394214
791.072	0.63413294
791.256	0.6343028
791.439	0.63456932
791.622	0.63476738
791.806	0.63498713
791.989	0.6350555
792.172	0.6352063
792.355	0.63523034
792.539	0.63527519
792.722	0.63521172
792.905	0.63497371
793.088	0.63463763
793.271	0.63456525
793.455	0.63442398
793.638	0.63437813
793.821	0.63413988
794.004	0.63410062
794.187	0.63449692
794.37	0.63487061
794.553	0.63511451
794.736	0.635311
794.919	0.63536812
795.102	0.63553832
795.285	0.63575558
795.468	0.63561671
795.651	0.6354093
795.834	0.63542948
796.017	0.63536579
796.2	0.63522403
796.383	0.63510854
796.566	0.63522316
796.749	0.63530352
796.931	0.63545624
797.114	0.63534561
797.297	0.63551335
797.48	0.63563061
797.663	0.6360034
797.845	0.63608593
798.028	0.63634775
798.211	0.63643684
798.393	0.63640994
798.576	0.63629351
798.759	0.63604679
798.941	0.63563577
799.124	0.63536878
799.307	0.63510853
799.489	0.6349433
799.672	0.6348932
799.854	0.63478329
800.037	0.63486354
800.219	0.63497656
800.402	0.6350642
800.584	0.6349721
800.767	0.63506736
800.949	0.63525537
801.132	0.63551374
801.314	0.63560062
801.496	0.63573471
801.679	0.63564612
801.861	0.6356415
802.043	0.6352416
802.226	0.6350478
802.408	0.63479239
802.59	0.63479229
802.772	0.6347034
802.955	0.63470862
803.137	0.63467449
803.319	0.63495747
803.501	0.63496133
803.684	0.6351203
803.866	0.63504951
804.048	0.63505997
804.23	0.63512748
804.412	0.63533728
804.594	0.63524543
804.776	0.63555014
804.958	0.63529204
805.14	0.63533555
805.322	0.63521265
805.504	0.63511979
805.686	0.63480949
805.868	0.63469313
806.05	0.63431046
806.232	0.63440953
806.414	0.63455691
806.596	0.63463333
806.778	0.6345737
806.96	0.63482216
807.141	0.63487018
807.323	0.63490106
807.505	0.63474071
807.687	0.63460764
807.869	0.63448456
808.05	0.63426858
808.232	0.63388036
808.414	0.63375523
808.595	0.63357526
808.777	0.63342557
808.959	0.6332428
809.14	0.63315091
809.322	0.63320804
809.504	0.63327974
809.685	0.63356016
809.867	0.63359285
810.048	0.63373869
810.23	0.6338573
810.411	0.6338966
810.593	0.63380189
810.774	0.63364838
810.956	0.63331197
811.137	0.63309661
811.319	0.63289818
811.5	0.63259001
811.681	0.6323665
811.863	0.63235391
812.044	0.63239459
812.225	0.63256797
812.407	0.63265326
812.588	0.63269115
812.769	0.63268799
812.951	0.63278222
813.132	0.63285103
813.313	0.63309764
813.494	0.63293777
813.675	0.63305793
813.857	0.63305887
814.038	0.63310009
814.219	0.63285891
814.4	0.63245075
814.581	0.63220932
814.762	0.63182272
814.943	0.63156043
815.124	0.63135824
815.305	0.63128556
815.486	0.63145361
815.667	0.63172365
815.848	0.63147656
816.029	0.63160516
816.21	0.63168938
816.391	0.63184481
816.572	0.63166442
816.753	0.6316276
816.934	0.63137763
817.115	0.63133537
817.295	0.63128968
817.476	0.63085462
817.657	0.63051116
817.838	0.63054692
818.019	0.63015287
818.199	0.62993832
818.38	0.62975611
818.561	0.62958425
818.741	0.62958354
818.922	0.62955551
819.103	0.6294539
819.283	0.62970392
819.464	0.62998105
819.645	0.6301049
819.825	0.63016019
820.006	0.6302072
820.186	0.63021777
820.367	0.6300647
820.547	0.62955051
820.728	0.62911154
820.908	0.62874956
821.089	0.62868363
821.269	0.62854222
821.45	0.62851116
821.63	0.62826397
821.81	0.62843847
821.991	0.62868976
822.171	0.6288721
822.351	0.628802
822.532	0.62882677
822.712	0.62869389
822.892	0.62872617
823.072	0.62848056
823.253	0.62821115
823.433	0.62791788
823.613	0.62755091
823.793	0.62709949
823.973	0.62678035
824.154	0.6263523
824.334	0.62621546
824.514	0.62578589
824.694	0.62558328
824.874	0.62526688
825.054	0.6252809
825.234	0.62509712
825.414	0.62504218
825.594	0.62497517
825.774	0.62506902
825.954	0.62498248
826.134	0.62516166
826.314	0.62506382
826.494	0.62516599
826.674	0.6249144
826.854	0.62456602
827.033	0.62411074
827.213	0.62409297
827.393	0.62372023
827.573	0.62363845
827.753	0.62323382
827.932	0.62335348
828.112	0.62338606
828.292	0.62359151
828.472	0.62330643
828.651	0.62353026
828.831	0.62331071
829.011	0.62339096
829.19	0.62319545
829.37	0.62315774
829.549	0.6229598
829.729	0.62277241
829.909	0.62237978
830.088	0.62213268
830.268	0.62157954
830.447	0.6214207
830.627	0.62114972
830.806	0.62095302
830.986	0.62041684
831.165	0.62028455
831.344	0.62020877
831.524	0.62014801
831.703	0.62000482
831.883	0.61971398
832.062	0.61943188
832.241	0.61964062
832.421	0.61948783
832.6	0.61932499
832.779	0.61942951
832.958	0.61921637
833.138	0.61898194
833.317	0.61913031
833.496	0.6190675
833.675	0.61893814
833.854	0.618889
834.034	0.61858671
834.213	0.61829744
834.392	0.61825675
834.571	0.61770853
834.75	0.6173875
834.929	0.61709383
835.108	0.61671896
835.287	0.61662845
835.466	0.616515
835.645	0.61660053
835.824	0.61656733
836.003	0.61654762
836.182	0.61652192
836.361	0.61646252
836.54	0.61601905
836.719	0.61580347
836.897	0.61530485
837.076	0.61499324
837.255	0.61458625
837.434	0.61426605
837.613	0.61393321
837.791	0.6138358
837.97	0.61374369
838.149	0.61349371
838.328	0.61337337
838.506	0.61316127
838.685	0.61305956
838.864	0.61309254
839.042	0.61293536
839.221	0.61295009
839.4	0.61307492
839.578	0.61291281
839.757	0.61265752
839.935	0.61219279
840.114	0.61194591
840.292	0.61177149
840.471	0.61152213
840.649	0.61096242
840.828	0.61075918
841.006	0.61066841
841.185	0.61037879
841.363	0.61020516
841.541	0.60991397
841.72	0.60985363
841.898	0.61001756
842.076	0.61003114
842.255	0.60992761
842.433	0.61016531
842.611	0.60979688
842.789	0.60958503
842.968	0.60936604
843.146	0.60886196
843.324	0.60835488
843.502	0.60800558
843.68	0.60757734
843.859	0.60717851
844.037	0.60685253
844.215	0.60620159
844.393	0.60604195
844.571	0.60578609
844.749	0.60564333
844.927	0.60543119
845.105	0.60521377
845.283	0.60507921
845.461	0.60502658
845.639	0.60480069
845.817	0.6046192
845.995	0.60472282
846.173	0.60465546
846.351	0.60451196
846.529	0.60427705
846.706	0.60394892
846.884	0.60380293
847.062	0.60337527
847.24	0.60264778
847.418	0.60187365
847.595	0.60150517
847.773	0.60118209
847.951	0.60081836
848.129	0.600515
848.306	0.60071926
848.484	0.60075947
848.662	0.60113957
848.839	0.60150817
849.017	0.60157503
849.194	0.60153052
849.372	0.6012363
849.549	0.60074153
849.727	0.60052394
849.905	0.59985826
850.082	0.59912873
850.26	0.59871526
850.437	0.59820135
850.614	0.59801365
850.792	0.5976719
850.969	0.5973706
851.147	0.59744185
851.324	0.59738
851.501	0.59709888
851.679	0.59709478
851.856	0.59682762
852.033	0.59709492
852.211	0.59695512
852.388	0.5965434
852.565	0.59653791
852.742	0.59661292
852.92	0.59661185
853.097	0.59661735
853.274	0.59615385
853.451	0.5956924
853.628	0.59544164
853.805	0.59483194
853.982	0.59415703
854.159	0.59350424
854.336	0.59295198
854.514	0.59237552
854.691	0.59202864
854.868	0.59183263
855.045	0.5915485
855.221	0.59162891
855.398	0.59160698
855.575	0.59156828
855.752	0.59157148
855.929	0.59191452
856.106	0.59163469
856.283	0.59164661
856.46	0.59153544
856.637	0.59157655
856.813	0.59120921
856.99	0.59083769
857.167	0.59032761
857.344	0.58997256
857.52	0.58961698
857.697	0.5887165
857.874	0.58793295
858.05	0.58738571
858.227	0.58700524
858.404	0.58676901
858.58	0.58685857
858.757	0.58642524
858.933	0.58680025
859.11	0.58678903
859.287	0.58661072
859.463	0.58645788
859.64	0.58617368
859.816	0.58580561
859.993	0.58571239
860.169	0.58536052
860.345	0.58503536
860.522	0.58490102
860.698	0.58454815
860.875	0.58390977
861.051	0.58372911
861.227	0.58303235
861.404	0.58264053
861.58	0.58234696
861.756	0.58201773
861.932	0.58203851
862.109	0.58168599
862.285	0.58145227
862.461	0.5817858
862.637	0.58154718
862.813	0.58146741
862.99	0.58132581
863.166	0.58084072
863.342	0.58122078
863.518	0.58057616
863.694	0.5802039
863.87	0.57968323
864.046	0.57918087
864.222	0.57874774
864.398	0.57852703
864.574	0.57758561
864.75	0.57733406
864.926	0.57692818
865.102	0.57690863
865.278	0.57666084
865.454	0.57669306
865.63	0.57648113
865.805	0.57659022
865.981	0.57686354
866.157	0.5770314
866.333	0.57653873
866.509	0.57673141
866.684	0.57645972
866.86	0.57649915
867.036	0.57610425
867.212	0.57526332
867.387	0.57467814
867.563	0.57462541
867.739	0.57399168
867.914	0.57356088
868.09	0.57275203
868.265	0.57241587
868.441	0.57218457
868.617	0.571839
868.792	0.57161238
868.968	0.57130786
869.143	0.57132678
869.319	0.57165116
869.494	0.57142308
869.67	0.57139137
869.845	0.57134319
870.02	0.57129208
870.196	0.57132686
870.371	0.57091523
870.546	0.57037582
870.722	0.57045538
870.897	0.56996929
871.072	0.56953022
871.248	0.56899717
871.423	0.56829243
871.598	0.56816317
871.773	0.56744769
871.949	0.56680733
872.124	0.56675983
872.299	0.5662889
872.474	0.56591914
872.649	0.56575718
872.824	0.56521334
872.999	0.56534359
873.174	0.56549649
873.349	0.56551027
873.524	0.56576574
873.699	0.56597693
873.874	0.565835
874.049	0.56561645
874.224	0.56540366
874.399	0.56485032
874.574	0.56440806
874.749	0.56383969
874.924	0.5631269
875.099	0.56263122
875.274	0.56240924
875.449	0.56230534
875.623	0.56188989
875.798	0.56132152
875.973	0.56097205
876.148	0.5605304
876.322	0.56044875
876.497	0.56016231
876.672	0.55983021
876.846	0.55990069
877.021	0.55985614
877.196	0.55918438
877.37	0.55929751
877.545	0.55920837
877.72	0.55885053
877.894	0.5582125
878.069	0.55728934
878.243	0.55640099
878.418	0.55645993
878.592	0.5555729
878.767	0.55463713
878.941	0.55425471
879.116	0.55381022
879.29	0.55352367
879.464	0.55324443
879.639	0.55265975
879.813	0.55294674
879.987	0.55280115
880.162	0.5524377
880.336	0.55235631
880.51	0.5525514
880.685	0.55273269
880.859	0.55296261
881.033	0.55259908
881.207	0.55250222
881.381	0.55220712
881.556	0.5517956
881.73	0.55121608
881.904	0.55104496
882.078	0.55050274
882.252	0.54987892
882.426	0.54928325
882.6	0.54898303
882.774	0.54879997
882.948	0.5483731
883.122	0.54763043
883.296	0.54697748
883.47	0.54700554
883.644	0.54723681
883.818	0.54669027
883.992	0.5466753
884.166	0.54705153
884.34	0.54737122
884.514	0.54787874
884.687	0.54770555
884.861	0.54714085
885.035	0.54737986
885.209	0.54698316
885.382	0.54633809
885.556	0.54570111
885.73	0.54505078
885.904	0.5446086
886.077	0.54402596
886.251	0.54347619
886.425	0.5432211
886.598	0.54287743
886.772	0.54223104
886.945	0.54145023
887.119	0.54070174
887.292	0.54059353
887.466	0.54067309
887.64	0.54012744
887.813	0.53995428
887.986	0.54001281
888.16	0.54023447
888.333	0.53996714
888.507	0.53971077
888.68	0.53885782
888.854	0.53854408
889.027	0.53798646
889.2	0.53786601
889.374	0.53733324
889.547	0.53746931
889.72	0.53731639
889.893	0.53721537
890.067	0.53689067
890.24	0.53641923
890.413	0.5358684
890.586	0.53533779
890.759	0.53493834
890.933	0.53454647
891.106	0.53438011
891.279	0.5343602
891.452	0.53443396
891.625	0.53409844
891.798	0.53428358
891.971	0.53397233
892.144	0.53368304
892.317	0.53358023
892.49	0.53294722
892.663	0.53268996
892.836	0.53285275
893.009	0.53247133
893.182	0.53190801
893.355	0.53176172
893.527	0.53124756
893.7	0.53145483
893.873	0.53102566
894.046	0.53011486
894.219	0.53013062
894.391	0.53013888
894.564	0.53008031
894.737	0.52983205
894.91	0.52925746
895.082	0.52910389
895.255	0.52914234
895.428	0.52862175
895.6	0.52824602
895.773	0.52753225
895.945	0.52720532
896.118	0.52723512
896.291	0.52709157
896.463	0.52674799
896.636	0.52638691
896.808	0.52604897
896.981	0.52585761
897.153	0.525469
897.326	0.5249099
897.498	0.52421139
897.67	0.52397909
897.843	0.52368553
898.015	0.52385352
898.187	0.52382544
898.36	0.52323933
898.532	0.52267934
898.704	0.52294401
898.877	0.5226563
899.049	0.52251163
899.221	0.52231059
899.393	0.52212282
899.566	0.52241252
899.738	0.52299675
899.91	0.52284181
900.082	0.52279722
900.254	0.52264578
900.426	0.52220752
900.598	0.52176088
900.77	0.52101224
900.942	0.51999114
901.114	0.51900592
901.286	0.51825963
901.458	0.51752734
901.63	0.51698758
901.802	0.51664787
901.974	0.51684039
902.146	0.51669348
902.318	0.51674444
902.49	0.51667713
902.662	0.51641486
902.834	0.51615204
903.005	0.51635332
903.177	0.51604323
903.349	0.516096
903.521	0.51582488
903.693	0.51565901
903.864	0.515773
904.036	0.51550145
904.208	0.51447245
904.379	0.51403983
904.551	0.51374548
904.723	0.51341058
904.894	0.51294181
905.066	0.51240157
905.237	0.51235207
905.409	0.51224799
905.58	0.51222766
905.752	0.51164296
905.923	0.51124936
906.095	0.51076698
906.266	0.5104662
906.438	0.51021586
906.609	0.51013034
906.78	0.50983542
906.952	0.50985775
907.123	0.50969594
907.295	0.50997444
907.466	0.50998732
907.637	0.50989892
907.808	0.50947865
907.98	0.50880406
908.151	0.50812462
908.322	0.50793526
908.493	0.50711855
908.665	0.50657293
908.836	0.50570418
909.007	0.50538058
909.178	0.50485718
909.349	0.50446311
909.52	0.5043605
909.691	0.50403541
909.862	0.50392302
910.033	0.50394259
910.204	0.5041244
910.375	0.50459976
910.546	0.5047487
910.717	0.50437556
910.888	0.50486271
911.059	0.50468354
911.23	0.50438926
911.401	0.50359258
911.572	0.50282554
911.742	0.50201366
911.913	0.5015649
912.084	0.50075029
912.255	0.50039876
912.426	0.49991076
912.596	0.49952212
912.767	0.49960442
912.938	0.4998263
913.108	0.49962719
913.279	0.49930632
913.45	0.49898615
913.62	0.49877292
913.791	0.4989456
913.962	0.49870704
914.132	0.49821637
914.303	0.49790713
914.473	0.49783826
914.644	0.49752192
914.814	0.49724945
914.985	0.49677988
915.155	0.49641476
915.326	0.49608344
915.496	0.49570128
915.666	0.49515058
915.837	0.49524127
916.007	0.49448595
916.177	0.49390625
916.348	0.49368805
916.518	0.49368817
916.688	0.49366512
916.858	0.49360359
917.029	0.49287234
917.199	0.49299588
917.369	0.49312409
917.539	0.49294955
917.709	0.49271404
917.88	0.49205716
918.05	0.49160833
918.22	0.49138
918.39	0.49105433
918.56	0.49082968
918.73	0.4905954
918.9	0.49011944
919.07	0.49003847
919.24	0.4900508
919.41	0.4902014
919.58	0.48980159
919.75	0.48959139
919.92	0.48858631
920.09	0.48863654
920.26	0.48822442
920.429	0.48804333
920.599	0.48722658
920.769	0.48699449
920.939	0.48624835
921.109	0.48615944
921.278	0.48559218
921.448	0.48542048
921.618	0.48512514
921.787	0.48511755
921.957	0.48513633
922.127	0.48459313
922.296	0.48468963
922.466	0.48461463
922.636	0.48463355
922.805	0.48453755
922.975	0.48415602
923.144	0.48394818
923.314	0.48407956
923.483	0.48377491
923.653	0.48324613
923.822	0.48284277
923.992	0.48216136
924.161	0.48206688
924.331	0.48193761
924.5	0.48178386
924.669	0.48097614
924.839	0.48089881
925.008	0.48038782
925.177	0.47965124
925.347	0.47938528
925.516	0.47926067
925.685	0.47910204
925.854	0.47947471
926.023	0.47928972
926.193	0.47971737
926.362	0.47983281
926.531	0.47961904
926.7	0.47889714
926.869	0.47874928
927.038	0.47809531
927.207	0.4777239
927.376	0.47716477
927.545	0.47709181
927.715	0.47639152
927.884	0.47637069
928.052	0.47671404
928.221	0.47605473
928.39	0.47562498
928.559	0.47506975
928.728	0.47496913
928.897	0.4754727
929.066	0.47546507
929.235	0.47414573
929.404	0.4746759
929.572	0.4742662
929.741	0.47434327
929.91	0.47395432
930.079	0.47311681
930.247	0.47248362
930.416	0.47264294
930.585	0.47211054
930.753	0.47235609
930.922	0.47224396
931.091	0.47231839
931.259	0.47234872
931.428	0.47294976
931.596	0.4731242
931.765	0.47373616
931.934	0.47398634
932.102	0.47259311
932.27	0.47212492
932.439	0.47162256
932.607	0.47045719
932.776	0.47040893
932.944	0.46995665
933.113	0.4695008
933.281	0.46997795
933.449	0.46917178
933.618	0.46862246
933.786	0.46895911
933.954	0.46831485
934.123	0.46741597
934.291	0.46720822
934.459	0.46700362
934.627	0.46779393
934.795	0.46836007
934.964	0.46807552
935.132	0.46694026
935.3	0.46666545
935.468	0.46579431
935.636	0.46584
935.804	0.46464398
935.972	0.46392591
936.14	0.46326507
936.308	0.46365812
936.476	0.46454043
936.644	0.46446609
936.812	0.46410654
936.98	0.46412988
937.148	0.46381274
937.316	0.4627166
937.484	0.46335503
937.652	0.46071783
937.82	0.46151226
937.987	0.46050568
938.155	0.46024205
938.323	0.46066339
938.491	0.46006119
938.658	0.46056575
938.826	0.46126521
938.994	0.46029045
939.162	0.46132297
939.329	0.46278701
939.497	0.46427705
939.665	0.4657622
939.832	0.46632664
940	0.46840232
940.167	0.46840395
940.335	0.46693704
940.502	0.46530683
940.67	0.46356059
940.837	0.46445724
941.005	0.46162524
941.172	0.45993421
941.34	0.46147371
941.507	0.46782099
941.674	0.47216374
941.842	0.47277773
942.009	0.47532232
942.177	0.47181245
942.344	0.47503161
942.511	0.47462756
942.678	0.47153987
942.846	0.4671252
943.013	0.46760849
943.18	0.4641213
943.347	0.46961811
943.514	0.46856622
943.682	0.47165677
943.849	0.46811891
944.016	0.46455046
944.183	0.46328022
944.35	0.46432093
944.517	0.46570325
944.684	0.46720001
944.851	0.45475178
945.018	0.45374945
945.185	0.45520553
945.352	0.45415381
945.519	0.45257273
945.686	0.45004896
945.853	0.45380802
946.02	0.45692911
946.187	0.45678768
946.353	0.46112622
946.52	0.4614425
946.687	0.46074205
946.854	0.4612806
947.021	0.45564415
947.187	0.45685748
947.354	0.45559651
947.521	0.45399153
947.687	0.45159634
947.854	0.45215182
948.021	0.4496692
948.187	0.44817858
948.354	0.44734157
948.52	0.44841756
948.687	0.45045254
948.854	0.45438224
949.02	0.4505207
949.187	0.45133227
949.353	0.45295523
949.52	0.45120632
949.686	0.45067102
949.852	0.45006356
950.019	0.44958257
950.185	0.45339022
950.352	0.4529415
950.518	0.44970409
950.684	0.4527689
950.851	0.45480584
951.017	0.45061067
951.183	0.44873501
951.349	0.44737587
951.516	0.44309139
951.682	0.44421474
951.848	0.44135334
952.014	0.43822952
952.18	0.44046243
952.346	0.43981433
952.512	0.4395551
952.679	0.44420324
952.845	0.44307996
953.011	0.44344159
953.177	0.44487657
953.343	0.44183521
953.509	0.44261038
953.675	0.44140486
953.841	0.43913923
954.007	0.4414317
954.172	0.44382554
954.338	0.44084932
954.504	0.44025405
954.67	0.43700128
954.836	0.43871101
955.002	0.43846541
955.167	0.43670976
955.333	0.43316133
955.499	0.43460377
955.665	0.43441985
955.83	0.43606289
955.996	0.43560805
956.162	0.43519701
956.327	0.43470126
956.493	0.43456777
956.659	0.4356453
956.824	0.43615033
956.99	0.43464719
957.155	0.43403441
957.321	0.43462027
957.486	0.43451766
957.652	0.43494946
957.817	0.4350199
957.983	0.43472025
958.148	0.43542356
958.314	0.43431615
958.479	0.43190009
958.644	0.43200034
958.81	0.43233993
958.975	0.43098109
959.14	0.43009131
959.306	0.42884809
959.471	0.42779622
959.636	0.42699043
959.801	0.42842429
959.967	0.427816
960.132	0.42797985
960.297	0.4279106
960.462	0.42863683
960.627	0.42923799
960.792	0.42868393
960.957	0.42656853
961.123	0.42727538
961.288	0.42625951
961.453	0.42709558
961.618	0.4267683
961.783	0.42779797
961.948	0.4273688
962.113	0.42545073
962.277	0.42375736
962.442	0.423753
962.607	0.42359756
962.772	0.42352642
962.937	0.42112855
963.102	0.42210765
963.267	0.42320685
963.431	0.42307094
963.596	0.42193767
963.761	0.42034478
963.926	0.41878268
964.09	0.42010907
964.255	0.42095947
964.42	0.42122436
964.584	0.42216491
964.749	0.42158391
964.914	0.4214617
965.078	0.420979
965.243	0.41876581
965.407	0.41635797
965.572	0.41519218
965.736	0.41459657
965.901	0.41612927
966.065	0.4178895
966.23	0.41873806
966.394	0.42065581
966.559	0.42178526
966.723	0.4214033
966.887	0.42089653
967.052	0.41882674
967.216	0.41598149
967.38	0.41320066
967.545	0.4126961
967.709	0.41381014
967.873	0.41526173
968.037	0.41458593
968.202	0.41536856
968.366	0.41693678
968.53	0.42000883
968.694	0.41829322
968.858	0.41611074
969.022	0.41363511
969.187	0.41293486
969.351	0.41263346
969.515	0.41206483
969.679	0.41021981
969.843	0.40991255
970.007	0.40973857
970.171	0.4111161
970.335	0.41151964
970.499	0.41037989
970.662	0.41006839
970.826	0.41070414
970.99	0.41223113
971.154	0.41322981
971.318	0.41269581
971.482	0.41102005
971.645	0.41220047
971.809	0.41297335
971.973	0.41263789
972.137	0.41117457
972.3	0.41026346
972.464	0.41030048
972.628	0.41356944
972.791	0.41445931
972.955	0.41339989
973.119	0.41328622
973.282	0.413491
973.446	0.41369749
973.609	0.41307255
973.773	0.4105331
973.936	0.40926545
974.1	0.40913347
974.263	0.40888245
974.427	0.40979971
974.59	0.4087522
974.754	0.40825075
974.917	0.4081279
975.08	0.40759924
975.244	0.40652214
975.407	0.40657742
975.57	0.404438
975.734	0.40416734
975.897	0.4046504
976.06	0.40501045
976.223	0.40502411
976.387	0.40704356
976.55	0.40657973
976.713	0.40700661
976.876	0.40769868
977.039	0.40621051
977.202	0.40560626
977.365	0.40374376
977.528	0.40184085
977.692	0.40229272
977.855	0.40074063
978.018	0.4001586
978.181	0.40087718
978.344	0.40090722
978.506	0.40250111
978.669	0.40175222
978.832	0.39961055
978.995	0.4012528
979.158	0.40279252
979.321	0.40221969
979.484	0.40175271
979.646	0.4004971
979.809	0.40152836
979.972	0.4013909
980.135	0.40126355
980.297	0.39876695
980.46	0.39705653
980.623	0.39768898
980.786	0.39847211
980.948	0.39706483
981.111	0.39716384
981.273	0.39645999
981.436	0.39669436
981.599	0.39832257
981.761	0.39602217
981.924	0.39627241
982.086	0.39663846
982.249	0.39743498
982.411	0.39721826
982.573	0.39746541
982.736	0.40022779
982.898	0.40098373
983.061	0.40033131
983.223	0.4000691
983.385	0.39971384
983.548	0.40077581
983.71	0.40037472
983.872	0.39657284
984.034	0.39703467
984.197	0.39497175
984.359	0.39560249
984.521	0.39736025
984.683	0.39734426
984.845	0.39816904
985.008	0.39684692
985.17	0.39819859
985.332	0.40050775
985.494	0.39766398
985.656	0.39679813
985.818	0.39404236
985.98	0.39261437
986.142	0.39188749
986.304	0.38919574
986.466	0.38690375
986.628	0.38769504
986.79	0.38602255
986.952	0.38559744
987.113	0.38548048
987.275	0.38665905
987.437	0.38660217
987.599	0.38743841
987.761	0.38803323
987.922	0.38684259
988.084	0.38869245
988.246	0.38858868
988.408	0.38924133
988.569	0.38905289
988.731	0.38978952
988.893	0.39013861
989.054	0.39301216
989.216	0.39256272
989.377	0.39177971
989.539	0.39060443
989.701	0.38819177
989.862	0.38753419
990.024	0.38548229
990.185	0.38258294
990.347	0.38320204
990.508	0.38312892
990.669	0.38479709
990.831	0.38667516
990.992	0.38840157
991.154	0.38825742
991.315	0.39322115
991.476	0.39357618
991.638	0.39312018
991.799	0.39139103
991.96	0.39212528
992.121	0.3910699
992.283	0.39226601
992.444	0.38802294
992.605	0.3850794
992.766	0.38569488
992.927	0.38476221
993.088	0.38497842
993.249	0.38323068
993.41	0.38060224
993.572	0.3808333
993.733	0.38297197
993.894	0.38226751
994.055	0.37938936
994.216	0.37898831
994.376	0.37664188
994.537	0.38085282
994.698	0.3803014
994.859	0.37710752
995.02	0.3773088
995.181	0.37528495
995.342	0.37594513
995.503	0.37789629
995.663	0.37617218
995.824	0.37484016
995.985	0.38108608
996.146	0.3820111
996.306	0.38658933
996.467	0.38717382
996.628	0.3902414
996.788	0.39001764
996.949	0.39333745
997.11	0.38775522
997.27	0.38367638
997.431	0.38340023
997.591	0.37626624
997.752	0.36999029
997.912	0.37024823
998.073	0.36722222
998.233	0.36994401
998.394	0.37144937
998.554	0.37462443
998.714	0.37851649
998.875	0.37999906
999.035	0.37678202
999.196	0.37819359
999.356	0.37518058
999.516	0.377528
999.676	0.37810768
999.837	0.38086174
999.997	0.37979839
1000.157	0.38162984
1000.317	0.37664765
1000.477	0.37483699
1000.638	0.37230088
1000.798	0.37060099
1000.958	0.37034698
1001.118	0.37137311
1001.278	0.36987561
1001.438	0.37315215
1001.598	0.37415518
1001.758	0.37367622
1001.918	0.37219496
1002.078	0.36523701
1002.238	0.36621912
1002.398	0.3681536
1002.558	0.36624295
1002.718	0.36668421
1002.878	0.367658
1003.037	0.35967928
1003.197	0.36442109
1003.357	0.35953235
1003.517	0.36202048
1003.677	0.35949749
1003.836	0.35930992
1003.996	0.35680837
1004.156	0.36407919
1004.315	0.3667577
1004.475	0.37434559
1004.635	0.37429667
1004.794	0.38102379
1004.954	0.38099861
1005.114	0.38006316
1005.273	0.38272064
1005.433	0.37649608
1005.592	0.37439987
1005.752	0.37190236
1005.911	0.36947336
1006.071	0.36965941
1006.23	0.36939794
1006.389	0.36468364
1006.549	0.36608244
1006.708	0.36281077
1006.868	0.35878567
1007.027	0.36067008
1007.186	0.36281235
1007.345	0.37011053
1007.505	0.37217685
1007.664	0.37485315
1007.823	0.37581412
1007.982	0.38043837
1008.142	0.38050501
1008.301	0.37910762
1008.46	0.37164368
1008.619	0.36582812
1008.778	0.36414167
1008.937	0.36296158
1009.096	0.36117851
1009.255	0.36106121
1009.414	0.35152668
1009.573	0.35503658
1009.732	0.36167871
1009.891	0.36050006
1010.05	0.36456928
1010.209	0.36065416
1010.368	0.35851403
1010.527	0.3649542
1010.686	0.36856261
1010.845	0.36094552
1011.003	0.36225736
1011.162	0.36017644
1011.321	0.35473883
1011.48	0.35963668
1011.638	0.36038207
1011.797	0.3592069
1011.956	0.36441384
1012.115	0.36561082
1012.273	0.36333976
1012.432	0.37089888
1012.59	0.3593056
1012.749	0.35878586
1012.908	0.35325336
1013.066	0.35589458
1013.225	0.35303388
1013.383	0.35749025
1013.542	0.35515147
1013.7	0.36333775
1013.859	0.36790168
1014.017	0.37390004
1014.175	0.3652592
1014.334	0.37293652
1014.492	0.37486989
1014.65	0.37755314
1014.809	0.37953328
1014.967	0.37690821
1015.125	0.37455079
1015.284	0.38780382
1015.442	0.38411977
1015.6	0.37842424
1015.758	0.37640716
1015.916	0.36725668
1016.075	0.36274223
1016.233	0.35707728
1016.391	0.35842322
1016.549	0.3576761
1016.707	0.35929487
1016.865	0.36134699
1017.023	0.35796279
1017.181	0.36042643
1017.339	0.36540038
1017.497	0.35851441
1017.655	0.35642479
1017.813	0.35547386
1017.971	0.35635583
1018.129	0.36457582
1018.286	0.36787036
1018.444	0.35908027
1018.602	0.35950449
1018.76	0.3581323
1018.918	0.35937555
1019.075	0.35990952
1019.233	0.35685358
1019.391	0.35515295
1019.549	0.36501885
1019.706	0.36607658
1019.864	0.36831773
1020.022	0.37451375
1020.179	0.37894394
1020.337	0.38176872
1020.494	0.37651095
1020.652	0.37092843
1020.809	0.36842967
1020.967	0.36213315
1021.124	0.35141177
1021.282	0.35461338
1021.439	0.35393421
1021.597	0.36180186
1021.754	0.36603126
1021.911	0.372083
1022.069	0.36963484
1022.226	0.36784596
1022.384	0.35224789
1022.541	0.34826859
1022.698	0.34320829
1022.855	0.34220561
1023.013	0.34131152
1023.17	0.33914287
1023.327	0.34644733
1023.484	0.35740587
1023.641	0.35853158
1023.798	0.38395293
1023.956	0.39691589
1024.113	0.38115366
1024.27	0.38213649
1024.427	0.38410207
1024.584	0.37708023
1024.741	0.36947475
1024.898	0.34257287
1025.055	0.32468134
1025.212	0.32323777
1025.369	0.31521234
1025.525	0.30746369
1025.682	0.31784128
1025.839	0.32469999
1025.996	0.32396224
1026.153	0.33638458
1026.31	0.35546145
1026.466	0.37604462
1026.623	0.38377515
1026.78	0.3726808
1026.937	0.37286164
1027.093	0.38215765
1027.25	0.3982446
1027.407	0.38589016
1027.563	0.37663839
1027.72	0.3765926
1027.876	0.36651608
1028.033	0.37679677
1028.19	0.37428434
1028.346	0.34453252
1028.503	0.34867572
1028.659	0.35653457
1028.816	0.36051128
1028.972	0.37778001
1029.128	0.37784331
1029.285	0.36817318
1029.441	0.37164941
1029.598	0.35821329
1029.754	0.36970002
1029.91	0.36273596
1030.067	0.34724889
1030.223	0.34547068
1030.379	0.35670876
1030.535	0.37943822
1030.691	0.38032904
1030.848	0.3804153
1031.004	0.38076929
1031.16	0.40320463
1031.316	0.42668436
1031.472	0.44163978
1031.628	0.41341274
1031.784	0.42041749
1031.94	0.42486784
1032.096	0.44482523
1032.252	0.43947032
1032.408	0.43336048
1032.564	0.41416424
1032.72	0.44409017
1032.876	0.43037615
1033.032	0.40430862
1033.188	0.38214289
1033.344	0.38857036
1033.5	0.38303179
1033.655	0.38418311
1033.811	0.36704258
1033.967	0.39736206
