Data from 0_1_mm_pl_0pc_Absorbance__0__18-49-07-890.txt Node

Date: Wed Mar 01 18:49:07 CET 2023
User: Ange
Spectrometer: FLMT08341
Trigger mode: 0
Integration Time (sec): 1.000000E-2
Scans to average: 400
Electric dark correction enabled: true
Nonlinearity correction enabled: false
Boxcar width: 3
XAxis mode: Wavelengths
Number of Pixels in Spectrum: 3648
>>>>>Begin Spectral Data<<<<<
345.271	-0.02059132
345.487	-0.0170603
345.704	-0.02641636
345.921	-0.02594579
346.137	-0.03718854
346.354	-0.04142247
346.571	-0.04536275
346.787	-0.14438503
347.004	0.05170295
347.22	-0.00671713
347.437	0.02295308
347.653	-0.05852415
347.87	0.21227445
348.086	0.16564894
348.303	-0
348.519	0.02994272
348.736	0.03105972
348.952	0.0282788
349.169	0.03073159
349.385	0.03335075
349.601	0.03235519
349.818	0.03182319
350.034	0.03470131
350.251	0.03557203
350.467	0.03793395
350.683	0.03483299
350.9	0.03203671
351.116	0.03191887
351.332	0.03316172
351.549	0.03342505
351.765	0.03429568
351.981	0.0337925
352.197	0.03672756
352.414	0.03991972
352.63	0.04126918
352.846	0.04093271
353.062	0.03859754
353.278	0.03837813
353.495	0.03964843
353.711	0.04052148
353.927	0.03958674
354.143	0.03962183
354.359	0.03914375
354.575	0.04148411
354.792	0.04238769
355.008	0.0434098
355.224	0.04356985
355.44	0.04408355
355.656	0.04453196
355.872	0.04506468
356.088	0.04495982
356.304	0.04477552
356.52	0.04439412
356.736	0.0439737
356.952	0.04470819
357.168	0.04472357
357.384	0.04588968
357.6	0.04590848
357.816	0.04739288
358.032	0.04822478
358.248	0.05034376
358.464	0.05001653
358.679	0.05170508
358.895	0.05101674
359.111	0.05299636
359.327	0.052397
359.543	0.05319148
359.759	0.05274386
359.974	0.05410812
360.19	0.05356587
360.406	0.05470419
360.622	0.05492138
360.838	0.05426938
361.053	0.05440398
361.269	0.05525002
361.485	0.05459402
361.701	0.05600306
361.916	0.05668345
362.132	0.0562085
362.348	0.05663703
362.563	0.05670101
362.779	0.05627327
362.995	0.05761428
363.21	0.05808453
363.426	0.05678217
363.641	0.05767445
363.857	0.05804619
364.073	0.05887248
364.288	0.05859369
364.504	0.05926282
364.719	0.05875527
364.935	0.06023669
365.15	0.06049522
365.366	0.06074845
365.581	0.06021514
365.797	0.06202004
366.012	0.0614607
366.228	0.06155077
366.443	0.0628128
366.658	0.06314573
366.874	0.06333165
367.089	0.06451253
367.305	0.0651731
367.52	0.06529971
367.735	0.06601914
367.951	0.06504127
368.166	0.06581263
368.381	0.06768221
368.597	0.06741393
368.812	0.06849235
369.027	0.06890946
369.243	0.06945403
369.458	0.07070007
369.673	0.07074835
369.888	0.07010457
370.104	0.07077535
370.319	0.06971719
370.534	0.07010307
370.749	0.07017366
370.964	0.07016433
371.179	0.06918269
371.395	0.06988403
371.61	0.06970453
371.825	0.06936682
372.04	0.07015567
372.255	0.06975282
372.47	0.06959054
372.685	0.0702776
372.9	0.06965534
373.115	0.07011218
373.33	0.07039253
373.545	0.07113882
373.76	0.0725103
373.975	0.0728613
374.19	0.07325727
374.405	0.07348952
374.62	0.0734832
374.835	0.07460398
375.05	0.07436671
375.265	0.07489152
375.48	0.0751846
375.695	0.07666526
375.91	0.07698784
376.125	0.07702121
376.339	0.07668111
376.554	0.07672397
376.769	0.07651859
376.984	0.0769914
377.199	0.07665317
377.414	0.07744225
377.628	0.07844785
377.843	0.07898862
378.058	0.07862032
378.273	0.07931166
378.487	0.07897785
378.702	0.07971177
378.917	0.07949404
379.131	0.07965588
379.346	0.07911012
379.561	0.0799553
379.775	0.07911025
379.99	0.0798318
380.205	0.07985783
380.419	0.08003956
380.634	0.07954348
380.848	0.08052576
381.063	0.08038275
381.278	0.08231599
381.492	0.08275
381.707	0.08322624
381.921	0.08309681
382.136	0.08456649
382.35	0.08462516
382.565	0.08527383
382.779	0.08476332
382.994	0.08560476
383.208	0.08548375
383.422	0.0866967
383.637	0.08634821
383.851	0.08693979
384.066	0.0878525
384.28	0.08859742
384.494	0.08885325
384.709	0.08925107
384.923	0.08996117
385.137	0.09035259
385.352	0.09100259
385.566	0.09111272
385.78	0.09062858
385.995	0.0901233
386.209	0.0901095
386.423	0.09027873
386.637	0.09047526
386.852	0.08980702
387.066	0.09009077
387.28	0.09017675
387.494	0.09075235
387.708	0.09070057
387.923	0.09039308
388.137	0.09048763
388.351	0.09108053
388.565	0.09143533
388.779	0.09212488
388.993	0.09324217
389.207	0.09375817
389.421	0.09411522
389.635	0.09448837
389.85	0.09504628
390.064	0.09464321
390.278	0.09462483
390.492	0.09448951
390.706	0.0950943
390.92	0.09514319
391.134	0.0955641
391.348	0.09636092
391.561	0.09603117
391.775	0.09644582
391.989	0.09622431
392.203	0.09618686
392.417	0.09661467
392.631	0.09674037
392.845	0.09628749
393.059	0.09752227
393.273	0.09736374
393.486	0.09727231
393.7	0.09724539
393.914	0.09778588
394.128	0.09778836
394.342	0.09763373
394.555	0.09764762
394.769	0.09765463
394.983	0.09829269
395.197	0.09884678
395.41	0.09908316
395.624	0.09958574
395.838	0.1000623
396.051	0.10027117
396.265	0.10071765
396.479	0.10104501
396.692	0.10126118
396.906	0.10116423
397.12	0.10141285
397.333	0.10158771
397.547	0.10185666
397.76	0.10224435
397.974	0.10190462
398.187	0.1021891
398.401	0.10243181
398.614	0.10274232
398.828	0.10316671
399.041	0.10302811
399.255	0.1031589
399.468	0.10338337
399.682	0.1032662
399.895	0.10345863
400.109	0.10340416
400.322	0.10309084
400.536	0.10300403
400.749	0.10350127
400.962	0.10384424
401.176	0.1037186
401.389	0.10390015
401.602	0.10353734
401.816	0.10354583
402.029	0.10365284
402.242	0.10353779
402.456	0.10382019
402.669	0.10391159
402.882	0.10352312
403.095	0.10376373
403.309	0.10400853
403.522	0.10447893
403.735	0.10411839
403.948	0.10368363
404.161	0.10433022
404.375	0.10451173
404.588	0.10508235
404.801	0.10537151
405.014	0.10509125
405.227	0.10560988
405.44	0.10580797
405.653	0.10538026
405.866	0.10569187
406.079	0.1053355
406.293	0.10525314
406.506	0.10547088
406.719	0.1052527
406.932	0.10519328
407.145	0.10518866
407.358	0.10545847
407.571	0.10568836
407.784	0.10593738
407.996	0.10596474
408.209	0.10565735
408.422	0.10549063
408.635	0.1054344
408.848	0.10544934
409.061	0.10484188
409.274	0.10436329
409.487	0.10416027
409.7	0.10443259
409.912	0.10464139
410.125	0.10487982
410.338	0.10450538
410.551	0.10479263
410.764	0.10496505
410.976	0.10490143
411.189	0.10469347
411.402	0.10448149
411.615	0.10432198
411.827	0.10395957
412.04	0.10392579
412.253	0.10383854
412.465	0.10388394
412.678	0.10387645
412.891	0.10399141
413.103	0.10374206
413.316	0.10379381
413.529	0.10379051
413.741	0.10377743
413.954	0.10366201
414.166	0.10356442
414.379	0.10336977
414.591	0.10322841
414.804	0.10290055
415.016	0.10250774
415.229	0.10206321
415.441	0.10180645
415.654	0.10169771
415.866	0.10131458
416.079	0.1013606
416.291	0.10138039
416.504	0.10148871
416.716	0.10157137
416.928	0.10125659
417.141	0.10091625
417.353	0.10088533
417.566	0.10034607
417.778	0.10021399
417.99	0.09975804
418.203	0.09918952
418.415	0.09914601
418.627	0.09927842
418.839	0.09914487
419.052	0.09928619
419.264	0.09919859
419.476	0.09911216
419.688	0.09904076
419.901	0.09885135
420.113	0.09833797
420.325	0.09806157
420.537	0.09774566
420.749	0.09735945
420.961	0.09727674
421.174	0.09714161
421.386	0.09697233
421.598	0.09670521
421.81	0.09652375
422.022	0.09625671
422.234	0.09614932
422.446	0.09582865
422.658	0.09545652
422.87	0.09522872
423.082	0.09509567
423.294	0.09491685
423.506	0.0947184
423.718	0.09446998
423.93	0.09404401
424.142	0.09369855
424.354	0.09321422
424.566	0.09279746
424.778	0.09256284
424.99	0.09222055
425.202	0.09209771
425.414	0.09175187
425.625	0.09166963
425.837	0.09127514
426.049	0.0909863
426.261	0.09050107
426.473	0.09028844
426.684	0.08957001
426.896	0.08949879
427.108	0.08910097
427.32	0.08897183
427.531	0.08885812
427.743	0.08867801
427.955	0.08825034
428.167	0.08794499
428.378	0.08759702
428.59	0.08726823
428.802	0.0869335
429.013	0.08635281
429.225	0.08577166
429.436	0.08544889
429.648	0.08513202
429.86	0.08482084
430.071	0.08445603
430.283	0.08416671
430.494	0.08371867
430.706	0.08349521
430.917	0.08333867
431.129	0.08303098
431.34	0.08260147
431.552	0.08229676
431.763	0.08198468
431.975	0.08186248
432.186	0.0815331
432.398	0.08101002
432.609	0.08045148
432.821	0.07996261
433.032	0.07966247
433.243	0.07932596
433.455	0.07924259
433.666	0.07885467
433.877	0.07853683
434.089	0.07839533
434.3	0.07826069
434.511	0.07790118
434.723	0.0775823
434.934	0.07722171
435.145	0.07684437
435.356	0.07656784
435.568	0.07624777
435.779	0.07588952
435.99	0.07562059
436.201	0.07537825
436.412	0.07497209
436.624	0.07474224
436.835	0.07446038
437.046	0.0741711
437.257	0.07373619
437.468	0.07333601
437.679	0.07285636
437.89	0.07239818
438.101	0.07203747
438.312	0.07167659
438.523	0.07125409
438.734	0.07103063
438.945	0.07065754
439.156	0.07020085
439.367	0.0698362
439.578	0.06940987
439.789	0.06888076
440	0.06830749
440.211	0.06772816
440.422	0.06725423
440.633	0.06669318
440.844	0.06618168
441.055	0.06573412
441.266	0.06515449
441.477	0.06491367
441.687	0.06452233
441.898	0.06407829
442.109	0.06369292
442.32	0.06321812
442.531	0.06269241
442.741	0.06222911
442.952	0.06184368
443.163	0.06149989
443.374	0.06109117
443.584	0.06064641
443.795	0.06032588
444.006	0.05993018
444.216	0.05952779
444.427	0.05900854
444.638	0.05840936
444.848	0.0579375
445.059	0.05756349
445.27	0.05703884
445.48	0.05658547
445.691	0.05616673
445.901	0.05597666
446.112	0.05567057
446.323	0.05527966
446.533	0.05481426
446.744	0.05446208
446.954	0.05409705
447.165	0.05375393
447.375	0.05304607
447.586	0.05263191
447.796	0.05214824
448.006	0.05181359
448.217	0.0513839
448.427	0.05105276
448.638	0.05082335
448.848	0.05038003
449.058	0.04992046
449.269	0.04959538
449.479	0.04915488
449.689	0.04875688
449.9	0.04843049
450.11	0.04808049
450.32	0.04797069
450.531	0.04757731
450.741	0.04727038
450.951	0.04701815
451.161	0.04668169
451.372	0.04623484
451.582	0.04587013
451.792	0.04541703
452.002	0.04528838
452.212	0.0448677
452.422	0.04451646
452.633	0.04416975
452.843	0.0438163
453.053	0.04318645
453.263	0.04284035
453.473	0.04228953
453.683	0.04189521
453.893	0.04143175
454.103	0.04102725
454.313	0.04066541
454.523	0.04050731
454.733	0.0401425
454.943	0.03988265
455.153	0.03969132
455.363	0.03948894
455.573	0.03909152
455.783	0.03890856
455.993	0.03849405
456.203	0.0382609
456.413	0.03792298
456.623	0.03749003
456.833	0.03704474
457.042	0.03682627
457.252	0.03631329
457.462	0.03592396
457.672	0.03548081
457.882	0.03517543
458.091	0.03492815
458.301	0.03474889
458.511	0.03442207
458.721	0.03425229
458.931	0.03416785
459.14	0.03404554
459.35	0.03383073
459.56	0.03348741
459.769	0.03321225
459.979	0.03294834
460.189	0.03260374
460.398	0.03224254
460.608	0.03192454
460.817	0.0316451
461.027	0.03147822
461.237	0.03119511
461.446	0.03099491
461.656	0.03073843
461.865	0.03039979
462.075	0.03020125
462.284	0.02984228
462.494	0.02956147
462.703	0.02932936
462.913	0.02902453
463.122	0.02873647
463.332	0.0286214
463.541	0.02819136
463.751	0.02798547
463.96	0.02773179
464.169	0.02743755
464.379	0.02718946
464.588	0.0270043
464.797	0.02670397
465.007	0.02654105
465.216	0.02638481
465.425	0.02614723
465.635	0.02590224
465.844	0.02589098
466.053	0.02574734
466.263	0.02563322
466.472	0.02543492
466.681	0.02519418
466.89	0.02502122
467.099	0.02492124
467.309	0.02462576
467.518	0.02437728
467.727	0.02404529
467.936	0.0239109
468.145	0.0236579
468.354	0.02349937
468.563	0.02328419
468.772	0.02301789
468.982	0.02284003
469.191	0.02274855
469.4	0.02251495
469.609	0.02243426
469.818	0.0221905
470.027	0.02197737
470.236	0.02189872
470.445	0.02179753
470.654	0.02159603
470.863	0.02134001
471.072	0.02116151
471.28	0.02096276
471.489	0.02084852
471.698	0.02059096
471.907	0.02041664
472.116	0.02029379
472.325	0.02018424
472.534	0.0200255
472.743	0.0198884
472.951	0.01974866
473.16	0.0196409
473.369	0.01940133
473.578	0.01928406
473.786	0.01931945
473.995	0.01921794
474.204	0.01909704
474.413	0.01902193
474.621	0.01890661
474.83	0.01882196
475.039	0.01872734
475.247	0.0185028
475.456	0.01838457
475.665	0.01828541
475.873	0.01809701
476.082	0.01800801
476.291	0.01805794
476.499	0.01787592
476.708	0.01783101
476.916	0.01777173
477.125	0.01774258
477.333	0.0177132
477.542	0.01758099
477.75	0.01747198
477.959	0.01737894
478.167	0.01730071
478.376	0.01713058
478.584	0.01704533
478.793	0.01695129
479.001	0.01691689
479.209	0.01664519
479.418	0.01657542
479.626	0.01645923
479.834	0.01636841
480.043	0.01629876
480.251	0.01618837
480.459	0.016099
480.668	0.01616339
480.876	0.01612412
481.084	0.01606084
481.293	0.01601543
481.501	0.01593255
481.709	0.01583852
481.917	0.01580989
482.125	0.01574004
482.334	0.01571086
482.542	0.01565679
482.75	0.01564566
482.958	0.01562238
483.166	0.01561808
483.374	0.01559429
483.583	0.01551479
483.791	0.01539264
483.999	0.01535148
484.207	0.01534222
484.415	0.01522426
484.623	0.01515053
484.831	0.01508006
485.039	0.0150753
485.247	0.01507921
485.455	0.01501313
485.663	0.01492783
485.871	0.01494165
486.079	0.01491378
486.287	0.01484553
486.495	0.01483003
486.702	0.01481776
486.91	0.01480628
487.118	0.0147995
487.326	0.01477484
487.534	0.01477729
487.742	0.0147251
487.95	0.01461838
488.157	0.01460129
488.365	0.01465396
488.573	0.01459653
488.781	0.01457698
488.988	0.01458517
489.196	0.0146181
489.404	0.01466759
489.612	0.01464209
489.819	0.01460983
490.027	0.01470693
490.235	0.01476238
490.442	0.01478735
490.65	0.01477711
490.857	0.01472602
491.065	0.01469651
491.273	0.01466343
491.48	0.01455939
491.688	0.01450741
491.895	0.0144694
492.103	0.01442087
492.31	0.0144613
492.518	0.01447591
492.725	0.01442336
492.933	0.01442362
493.14	0.0144701
493.348	0.01445593
493.555	0.01448068
493.763	0.01452416
493.97	0.01451184
494.177	0.01454385
494.385	0.01458444
494.592	0.01457291
494.8	0.01456307
495.007	0.0145551
495.214	0.01454065
495.422	0.01458265
495.629	0.0146622
495.836	0.01467544
496.043	0.01469354
496.251	0.01468669
496.458	0.01478624
496.665	0.01480632
496.872	0.0148706
497.08	0.01490513
497.287	0.01493894
497.494	0.01493374
497.701	0.01497443
497.908	0.01494122
498.115	0.01497015
498.322	0.01497657
498.53	0.0149425
498.737	0.01502626
498.944	0.01506375
499.151	0.01513833
499.358	0.01520108
499.565	0.01523565
499.772	0.01526586
499.979	0.01535259
500.186	0.0153035
500.393	0.01529468
500.6	0.01538938
500.807	0.01546971
501.014	0.01554642
501.221	0.01561007
501.427	0.01561506
501.634	0.01569486
501.841	0.01583263
502.048	0.0157922
502.255	0.01579113
502.462	0.01581691
502.669	0.01580683
502.875	0.01590508
503.082	0.01596339
503.289	0.01601268
503.496	0.01612445
503.702	0.016237
503.909	0.01628182
504.116	0.01634191
504.323	0.0163073
504.529	0.01639045
504.736	0.01634029
504.943	0.01635089
505.149	0.01637416
505.356	0.01641867
505.563	0.01650246
505.769	0.01658629
505.976	0.016587
506.182	0.01669579
506.389	0.01679756
506.595	0.01681492
506.802	0.01687248
507.008	0.01693083
507.215	0.01695271
507.421	0.01701791
507.628	0.01707898
507.834	0.01709128
508.041	0.0172066
508.247	0.01726774
508.454	0.01728174
508.66	0.01738313
508.866	0.0174268
509.073	0.01750909
509.279	0.01758284
509.486	0.01757626
509.692	0.01763859
509.898	0.01777587
510.105	0.01784062
510.311	0.01796998
510.517	0.01806125
510.723	0.01816936
510.93	0.01831634
511.136	0.01841762
511.342	0.01844056
511.548	0.01854806
511.754	0.01855339
511.961	0.01861018
512.167	0.01868351
512.373	0.01873211
512.579	0.01882815
512.785	0.01896922
512.991	0.01904333
513.197	0.01917082
513.404	0.01929436
513.61	0.01934916
513.816	0.01945378
514.022	0.01945764
514.228	0.01951945
514.434	0.01961058
514.64	0.0196543
514.846	0.01971047
515.052	0.01975005
515.258	0.01979948
515.464	0.01995151
515.669	0.02004873
515.875	0.02014646
516.081	0.0203024
516.287	0.0203782
516.493	0.0205319
516.699	0.02061548
516.905	0.020701
517.111	0.02080548
517.316	0.02084221
517.522	0.02086757
517.728	0.02099145
517.934	0.02104269
518.139	0.02118018
518.345	0.02123557
518.551	0.02130694
518.757	0.02138727
518.962	0.02154644
519.168	0.02158989
519.374	0.02167481
519.579	0.02178054
519.785	0.02193345
519.991	0.02200897
520.196	0.02215703
520.402	0.02221397
520.607	0.02229399
520.813	0.02241587
521.018	0.02247759
521.224	0.0224842
521.429	0.0226138
521.635	0.02268794
521.84	0.02277362
522.046	0.02290861
522.251	0.02304998
522.457	0.02316328
522.662	0.02331785
522.868	0.02340402
523.073	0.02350138
523.279	0.02363345
523.484	0.02373835
523.689	0.02381872
523.895	0.02391092
524.1	0.02400156
524.305	0.02412408
524.511	0.02423259
524.716	0.02435406
524.921	0.02449478
525.126	0.02457922
525.332	0.02468212
525.537	0.0247984
525.742	0.024844
525.947	0.02497638
526.153	0.02503004
526.358	0.02507947
526.563	0.02519093
526.768	0.0252893
526.973	0.0253592
527.178	0.02551809
527.383	0.02561707
527.588	0.02574827
527.794	0.02588913
527.999	0.02602172
528.204	0.0261799
528.409	0.02630414
528.614	0.02641118
528.819	0.02649003
529.024	0.02661138
529.229	0.02668617
529.434	0.02678667
529.639	0.02684163
529.843	0.02698636
530.048	0.02709132
530.253	0.02727931
530.458	0.02741905
530.663	0.02761634
530.868	0.02773244
531.073	0.02787245
531.278	0.0279813
531.482	0.02807759
531.687	0.02818027
531.892	0.02827829
532.097	0.02837987
532.302	0.02854124
532.506	0.0287135
532.711	0.02887098
532.916	0.02903506
533.12	0.02915592
533.325	0.0292747
533.53	0.02937568
533.734	0.02950973
533.939	0.02961884
534.144	0.02975664
534.348	0.02984883
534.553	0.02995818
534.757	0.03010624
534.962	0.03026708
535.167	0.03038011
535.371	0.03047913
535.576	0.03058919
535.78	0.03077018
535.985	0.03089977
536.189	0.03103728
536.394	0.03114763
536.598	0.03123114
536.803	0.03135991
537.007	0.03150165
537.211	0.03161263
537.416	0.03174243
537.62	0.03183432
537.825	0.03196474
538.029	0.03211706
538.233	0.03226342
538.438	0.03238272
538.642	0.03251194
538.846	0.03264787
539.05	0.03280136
539.255	0.03290574
539.459	0.03305239
539.663	0.03314251
539.867	0.03328117
540.072	0.03341176
540.276	0.03359107
540.48	0.03373721
540.684	0.03388446
540.888	0.03399889
541.092	0.0341387
541.297	0.03426183
541.501	0.03444846
541.705	0.03455133
541.909	0.03465412
542.113	0.03482762
542.317	0.0349823
542.521	0.03515515
542.725	0.03528804
542.929	0.03541856
543.133	0.03557515
543.337	0.03575983
543.541	0.03591419
543.745	0.03602028
543.949	0.03616569
544.153	0.03631435
544.357	0.03644042
544.56	0.03657992
544.764	0.0366845
544.968	0.03677054
545.172	0.03695782
545.376	0.03709965
545.58	0.03724635
545.783	0.03737588
545.987	0.03750617
546.191	0.03769367
546.395	0.03785356
546.598	0.03795005
546.802	0.03809715
547.006	0.03823172
547.21	0.03836527
547.413	0.03847645
547.617	0.03859036
547.821	0.03873575
548.024	0.03887677
548.228	0.0389988
548.431	0.03913468
548.635	0.03926868
548.839	0.03944791
549.042	0.03958159
549.246	0.03970044
549.449	0.03986616
549.653	0.0400192
549.856	0.04020567
550.06	0.04038086
550.263	0.0405128
550.467	0.04062761
550.67	0.04075234
550.874	0.04089901
551.077	0.04107419
551.28	0.04119017
551.484	0.04131817
551.687	0.04141861
551.891	0.04159353
552.094	0.04173513
552.297	0.04191709
552.501	0.04206614
552.704	0.04217621
552.907	0.04230246
553.11	0.04249867
553.314	0.0426322
553.517	0.0427852
553.72	0.04284875
553.923	0.04296152
554.127	0.04315027
554.33	0.04327334
554.533	0.04338679
554.736	0.04353195
554.939	0.0436674
555.142	0.04382313
555.345	0.04393276
555.549	0.04407891
555.752	0.04420421
555.955	0.04432053
556.158	0.04443842
556.361	0.04458988
556.564	0.04474528
556.767	0.04486384
556.97	0.04496156
557.173	0.04508142
557.376	0.04528314
557.579	0.04544256
557.782	0.04560716
557.984	0.04575534
558.187	0.04599036
558.39	0.04614064
558.593	0.04637688
558.796	0.04650779
558.999	0.04662122
559.202	0.04674583
559.404	0.04685869
559.607	0.04697655
559.81	0.04714003
560.013	0.04724797
560.216	0.04740327
560.418	0.04757408
560.621	0.04774606
560.824	0.0479196
561.026	0.04806597
561.229	0.04820975
561.432	0.04834534
561.634	0.048449
561.837	0.04864564
562.04	0.04875034
562.242	0.04892824
562.445	0.04901625
562.647	0.04915707
562.85	0.04932562
563.053	0.0494821
563.255	0.04954343
563.458	0.04975679
563.66	0.04986739
563.863	0.05001274
564.065	0.05012932
564.268	0.05023148
564.47	0.05039212
564.672	0.05056897
564.875	0.05066042
565.077	0.05080657
565.28	0.05097155
565.482	0.05109838
565.684	0.05123125
565.887	0.05132699
566.089	0.05141714
566.291	0.05156669
566.494	0.05163893
566.696	0.05177168
566.898	0.05188277
567.1	0.05205225
567.303	0.05220902
567.505	0.05238205
567.707	0.05247043
567.909	0.05263203
568.111	0.05275877
568.314	0.05294339
568.516	0.05303988
568.718	0.05314316
568.92	0.05328068
569.122	0.05341321
569.324	0.05358393
569.526	0.05370187
569.728	0.05381035
569.93	0.05393865
570.132	0.05408362
570.334	0.05420512
570.536	0.0543073
570.738	0.05442148
570.94	0.05453656
571.142	0.05468827
571.344	0.05482113
571.546	0.05496123
571.748	0.05508924
571.95	0.05527191
572.152	0.05535346
572.354	0.05547817
572.555	0.05561098
572.757	0.05574334
572.959	0.05586144
573.161	0.05598952
573.363	0.05610669
573.564	0.0562677
573.766	0.05645228
573.968	0.05659112
574.17	0.0566794
574.371	0.05679073
574.573	0.05692079
574.775	0.05703185
574.976	0.05711709
575.178	0.0571619
575.38	0.05721304
575.581	0.05734087
575.783	0.05744695
575.985	0.05759213
576.186	0.05773964
576.388	0.05787664
576.589	0.05803019
576.791	0.05821635
576.992	0.05836405
577.194	0.0584968
577.395	0.05856751
577.597	0.05864941
577.798	0.05879457
578	0.05887131
578.201	0.0590039
578.402	0.05907249
578.604	0.05915347
578.805	0.05925925
579.007	0.05935232
579.208	0.0594517
579.409	0.05955724
579.611	0.05962415
579.812	0.05980115
580.013	0.05997621
580.215	0.06003772
580.416	0.06017185
580.617	0.06030872
580.818	0.06042222
581.019	0.06052009
581.221	0.06062408
581.422	0.06069806
581.623	0.0608757
581.824	0.0609435
582.025	0.06099785
582.226	0.06109031
582.428	0.06121896
582.629	0.06131119
582.83	0.06140378
583.031	0.06146083
583.232	0.0616049
583.433	0.061727
583.634	0.06185833
583.835	0.06193891
584.036	0.06201735
584.237	0.06214276
584.438	0.06223086
584.639	0.06227122
584.84	0.0623669
585.041	0.06244856
585.242	0.06253664
585.442	0.06259199
585.643	0.06268043
585.844	0.06279431
586.045	0.06291689
586.246	0.06299014
586.447	0.06304435
586.647	0.06312425
586.848	0.06322341
587.049	0.06329542
587.25	0.06335984
587.45	0.0634093
587.651	0.06347175
587.852	0.06356607
588.053	0.06367608
588.253	0.06373891
588.454	0.06383503
588.655	0.06391197
588.855	0.06403114
589.056	0.06407534
589.256	0.06416689
589.457	0.06420669
589.658	0.06426786
589.858	0.06428339
590.059	0.06438565
590.259	0.06448067
590.46	0.06461585
590.66	0.06470475
590.861	0.06480942
591.061	0.06494588
591.262	0.06508203
591.462	0.06518354
591.662	0.06518925
591.863	0.06525146
592.063	0.06535102
592.264	0.06538969
592.464	0.06544215
592.664	0.06550601
592.865	0.06558546
593.065	0.06567892
593.265	0.0657793
593.465	0.06576812
593.666	0.06582483
593.866	0.06587036
594.066	0.06591408
594.266	0.06592271
594.467	0.06592966
594.667	0.06595289
594.867	0.06606933
595.067	0.06612404
595.267	0.06614313
595.467	0.06616391
595.668	0.06619577
595.868	0.06630349
596.068	0.06633904
596.268	0.06632768
596.468	0.06641515
596.668	0.06651127
596.868	0.06656149
597.068	0.06660808
597.268	0.06666904
597.468	0.06672266
597.668	0.06677372
597.868	0.06678555
598.068	0.06680046
598.268	0.06685473
598.467	0.06693287
598.667	0.06692255
598.867	0.06692407
599.067	0.06701
599.267	0.06700325
599.467	0.06708189
599.667	0.06708594
599.866	0.06710785
600.066	0.06718016
600.266	0.06723529
600.466	0.06722742
600.665	0.06730047
600.865	0.06731653
601.065	0.06735814
601.264	0.06738393
601.464	0.06736007
601.664	0.06740685
601.863	0.06742707
602.063	0.06744589
602.263	0.06741006
602.462	0.06742576
602.662	0.06739183
602.861	0.06745811
603.061	0.06743609
603.26	0.06746474
603.46	0.06743218
603.659	0.06752428
603.859	0.06751239
604.058	0.06759897
604.258	0.06760039
604.457	0.06763529
604.657	0.06762782
604.856	0.06764638
605.056	0.06759015
605.255	0.06761021
605.454	0.06756348
605.654	0.06749452
605.853	0.06747781
606.052	0.06748039
606.252	0.06751007
606.451	0.06756152
606.65	0.06756847
606.849	0.06755649
607.049	0.06761585
607.248	0.06763501
607.447	0.06761629
607.646	0.06761551
607.845	0.06759027
608.045	0.06754887
608.244	0.06761715
608.443	0.06761055
608.642	0.06760964
608.841	0.067637
609.04	0.06761205
609.239	0.06761876
609.438	0.06759315
609.637	0.06758267
609.836	0.06755776
610.035	0.06753561
610.234	0.06751028
610.433	0.06751148
610.632	0.06744525
610.831	0.0674978
611.03	0.06743124
611.229	0.06747632
611.428	0.06748238
611.627	0.06752308
611.826	0.06752307
612.025	0.06758771
612.224	0.06756178
612.422	0.06754541
612.621	0.06751224
612.82	0.06747439
613.019	0.06740779
613.218	0.06741227
613.416	0.06733384
613.615	0.06736936
613.814	0.06738095
614.012	0.06731456
614.211	0.06726053
614.41	0.06728329
614.608	0.06722582
614.807	0.06722935
615.006	0.06716667
615.204	0.06709449
615.403	0.0671255
615.602	0.06716352
615.8	0.06713814
615.999	0.06705132
616.197	0.06697055
616.396	0.06696437
616.594	0.06695718
616.793	0.06690708
616.991	0.06680047
617.19	0.06667681
617.388	0.06670715
617.586	0.06669408
617.785	0.06660332
617.983	0.06656294
618.182	0.06651054
618.38	0.06650227
618.578	0.06649341
618.777	0.0664711
618.975	0.06646501
619.173	0.0664748
619.372	0.06642584
619.57	0.06635782
619.768	0.0663284
619.966	0.06631602
620.165	0.06623191
620.363	0.06617782
620.561	0.06606846
620.759	0.06605332
620.957	0.06600847
621.155	0.06596176
621.354	0.06587366
621.552	0.06586137
621.75	0.06578783
621.948	0.06578273
622.146	0.0657134
622.344	0.0656938
622.542	0.06563672
622.74	0.06560405
622.938	0.06549905
623.136	0.06548338
623.334	0.06543761
623.532	0.06534938
623.73	0.06529744
623.928	0.06527102
624.126	0.0651954
624.324	0.0652056
624.522	0.06509036
624.719	0.06499741
624.917	0.06494682
625.115	0.06484901
625.313	0.0647664
625.511	0.0647556
625.708	0.0646328
625.906	0.06459981
626.104	0.06453628
626.302	0.06453923
626.499	0.06452172
626.697	0.06440466
626.895	0.06429079
627.093	0.06423073
627.29	0.06419721
627.488	0.06415731
627.686	0.06406686
627.883	0.06394264
628.081	0.06389478
628.278	0.06390911
628.476	0.06381606
628.673	0.06370583
628.871	0.06361514
629.068	0.06354408
629.266	0.06352736
629.463	0.06345439
629.661	0.06334359
629.858	0.06326283
630.056	0.06317373
630.253	0.06307847
630.451	0.06302331
630.648	0.06290509
630.845	0.06280282
631.043	0.0627024
631.24	0.06266374
631.438	0.06263765
631.635	0.0625725
631.832	0.06243757
632.029	0.06237013
632.227	0.06233656
632.424	0.0622375
632.621	0.06213308
632.818	0.06198938
633.016	0.0619212
633.213	0.06181699
633.41	0.06173263
633.607	0.06163277
633.804	0.06156617
634.001	0.06149951
634.199	0.0614831
634.396	0.06138652
634.593	0.06132188
634.79	0.06126652
634.987	0.06124032
635.184	0.06116318
635.381	0.06109084
635.578	0.06103262
635.775	0.06094419
635.972	0.06084967
636.169	0.06073774
636.366	0.06059267
636.563	0.06047981
636.76	0.0603142
636.957	0.06017532
637.153	0.06006609
637.35	0.06000645
637.547	0.05990869
637.744	0.05980121
637.941	0.05972427
638.138	0.0597095
638.334	0.05957493
638.531	0.05949805
638.728	0.05936631
638.925	0.05931635
639.121	0.05923835
639.318	0.05916291
639.515	0.05905058
639.711	0.05900482
639.908	0.05891655
640.105	0.05882219
640.301	0.05867868
640.498	0.05859217
640.695	0.05850674
640.891	0.05840547
641.088	0.05828738
641.284	0.05816742
641.481	0.05804431
641.677	0.0579325
641.874	0.0578006
642.07	0.05768338
642.267	0.05757647
642.463	0.05745941
642.66	0.05738288
642.856	0.05729829
643.053	0.05715799
643.249	0.05709068
643.445	0.05698418
643.642	0.0568831
643.838	0.0567993
644.034	0.05667353
644.231	0.0565478
644.427	0.05647104
644.623	0.05633896
644.82	0.05624345
645.016	0.05615759
645.212	0.05601317
645.408	0.05592696
645.604	0.05585989
645.801	0.0557421
645.997	0.05562559
646.193	0.0554473
646.389	0.05531304
646.585	0.05518988
646.781	0.05506783
646.977	0.05492994
647.173	0.05479795
647.37	0.0546584
647.566	0.05461059
647.762	0.05447296
647.958	0.05440439
648.154	0.05425448
648.35	0.05414582
648.546	0.05406533
648.742	0.05401856
648.937	0.05381251
649.133	0.05369214
649.329	0.05356622
649.525	0.05349604
649.721	0.05336919
649.917	0.05326698
650.113	0.0531117
650.309	0.05305951
650.504	0.05294513
650.7	0.05281316
650.896	0.05270846
651.092	0.05259533
651.287	0.0524758
651.483	0.05238434
651.679	0.0522556
651.875	0.05218035
652.07	0.05205551
652.266	0.05190769
652.462	0.05179878
652.657	0.05165639
652.853	0.05150859
653.048	0.05136869
653.244	0.05118838
653.44	0.05106125
653.635	0.05089344
653.831	0.05076945
654.026	0.05067821
654.222	0.05055262
654.417	0.05048942
654.613	0.05040285
654.808	0.05026421
655.004	0.05017279
655.199	0.05002857
655.394	0.04990868
655.59	0.04983479
655.785	0.04966857
655.98	0.0495446
656.176	0.04945077
656.371	0.04938761
656.566	0.04930585
656.762	0.04913122
656.957	0.04898435
657.152	0.04888895
657.348	0.04878112
657.543	0.04863577
657.738	0.04851053
657.933	0.04832864
658.128	0.04820214
658.324	0.04805066
658.519	0.04787304
658.714	0.04773942
658.909	0.04763976
659.104	0.04750028
659.299	0.04744012
659.494	0.04734408
659.689	0.04722495
659.884	0.04713115
660.079	0.04695966
660.274	0.04683509
660.469	0.04669407
660.664	0.04654588
660.859	0.04638413
661.054	0.04626762
661.249	0.04615948
661.444	0.04603258
661.639	0.04589979
661.834	0.04574954
662.029	0.04560567
662.224	0.04549968
662.418	0.04533237
662.613	0.04517134
662.808	0.04508994
663.003	0.04495887
663.198	0.04481097
663.392	0.04465024
663.587	0.04456212
663.782	0.04447337
663.977	0.04434249
664.171	0.04418114
664.366	0.04405588
664.561	0.04394202
664.755	0.0438719
664.95	0.04371144
665.144	0.04359258
665.339	0.04348139
665.534	0.04340375
665.728	0.04328019
665.923	0.04317426
666.117	0.04302384
666.312	0.04289388
666.506	0.04278752
666.701	0.04261226
666.895	0.04245014
667.09	0.04229606
667.284	0.04217522
667.479	0.042031
667.673	0.04188751
667.867	0.04171881
668.062	0.04159812
668.256	0.04148493
668.45	0.04139793
668.645	0.04123294
668.839	0.04112934
669.033	0.04099071
669.228	0.04084534
669.422	0.04078987
669.616	0.04064239
669.81	0.04050764
670.004	0.04039697
670.199	0.04028665
670.393	0.04021423
670.587	0.04011238
670.781	0.03995691
670.975	0.03983294
671.169	0.03972578
671.363	0.03957703
671.558	0.03940924
671.752	0.03925542
671.946	0.03911958
672.14	0.03897546
672.334	0.03880644
672.528	0.03863954
672.722	0.03852896
672.916	0.03845353
673.11	0.03832174
673.304	0.03821936
673.497	0.03806628
673.691	0.03797605
673.885	0.03786248
674.079	0.03774353
674.273	0.03759989
674.467	0.03749859
674.661	0.03734759
674.854	0.03725296
675.048	0.03711056
675.242	0.03697197
675.436	0.03683047
675.629	0.03668564
675.823	0.03649638
676.017	0.03636606
676.211	0.03625284
676.404	0.03613196
676.598	0.03594809
676.792	0.03582577
676.985	0.03568767
677.179	0.03558894
677.372	0.03545608
677.566	0.03531196
677.76	0.0352418
677.953	0.03517684
678.147	0.03502563
678.34	0.03492647
678.534	0.03484301
678.727	0.03470195
678.921	0.03457286
679.114	0.03438445
679.307	0.03424503
679.501	0.03414763
679.694	0.03400633
679.888	0.03381835
680.081	0.03372199
680.274	0.0335892
680.468	0.03347091
680.661	0.03334985
680.854	0.03321337
681.048	0.03308783
681.241	0.03296664
681.434	0.03284995
681.627	0.03275713
681.821	0.03264405
682.014	0.03255375
682.207	0.03243778
682.4	0.03231101
682.593	0.03219415
682.786	0.03204894
682.98	0.03187961
683.173	0.03178379
683.366	0.03162569
683.559	0.03152544
683.752	0.03144205
683.945	0.03132816
684.138	0.03120972
684.331	0.03110738
684.524	0.03098519
684.717	0.03086996
684.91	0.03071893
685.103	0.03060181
685.296	0.03049951
685.489	0.03038757
685.682	0.03027502
685.874	0.03015232
686.067	0.03002351
686.26	0.02990438
686.453	0.02975319
686.646	0.0296336
686.839	0.02953558
687.031	0.02941508
687.224	0.02922573
687.417	0.02912576
687.61	0.02899528
687.802	0.02885583
687.995	0.02874364
688.188	0.0285784
688.38	0.02843459
688.573	0.02835592
688.766	0.02821867
688.958	0.02811711
689.151	0.02802337
689.343	0.02788454
689.536	0.02785706
689.729	0.02778327
689.921	0.02771974
690.114	0.02761429
690.306	0.02750956
690.499	0.02742464
690.691	0.02734872
690.884	0.02715838
691.076	0.02701423
691.268	0.02687668
691.461	0.02675744
691.653	0.02664049
691.846	0.02648335
692.038	0.02632368
692.23	0.02621105
692.423	0.0261309
692.615	0.02600219
692.807	0.02591
692.999	0.02576077
693.192	0.02565765
693.384	0.02557335
693.576	0.02544786
693.768	0.02529987
693.961	0.02516355
694.153	0.0250024
694.345	0.02492335
694.537	0.02481334
694.729	0.02470185
694.921	0.02461075
695.113	0.02452734
695.305	0.02441233
695.498	0.02432483
695.69	0.02422241
695.882	0.02411438
696.074	0.02401848
696.266	0.02392698
696.458	0.0238171
696.65	0.02379233
696.842	0.02369788
697.033	0.02360114
697.225	0.02346689
697.417	0.02333372
697.609	0.02322362
697.801	0.02312196
697.993	0.02294206
698.185	0.02284677
698.376	0.02268671
698.568	0.02259215
698.76	0.02249299
698.952	0.02235103
699.144	0.02219966
699.335	0.02211852
699.527	0.02200036
699.719	0.021956
699.91	0.02189049
700.102	0.0217834
700.294	0.02168991
700.485	0.02161728
700.677	0.02147611
700.869	0.02138956
701.06	0.02129722
701.252	0.02118791
701.443	0.02110527
701.635	0.02098385
701.826	0.02086935
702.018	0.02079887
702.209	0.02070235
702.401	0.02053642
702.592	0.02042418
702.784	0.02029718
702.975	0.02022171
703.166	0.02017613
703.358	0.02008783
703.549	0.01999347
703.741	0.01995597
703.932	0.01984146
704.123	0.01973408
704.315	0.01967087
704.506	0.01956997
704.697	0.01949673
704.888	0.01943595
705.08	0.0193099
705.271	0.01924243
705.462	0.01917123
705.653	0.01903515
705.844	0.01892306
706.035	0.01885523
706.227	0.0187226
706.418	0.01863724
706.609	0.01852421
706.8	0.01841042
706.991	0.01835206
707.182	0.0182879
707.373	0.01813494
707.564	0.01804995
707.755	0.01798411
707.946	0.01794921
708.137	0.01790454
708.328	0.01782982
708.519	0.01772796
708.71	0.01765106
708.901	0.0175489
709.092	0.01748509
709.283	0.0173946
709.473	0.01731958
709.664	0.01726575
709.855	0.01716216
710.046	0.01710167
710.237	0.01702366
710.427	0.0168957
710.618	0.01677865
710.809	0.01667781
711	0.01653316
711.19	0.01643745
711.381	0.01631025
711.572	0.0162279
711.762	0.01614495
711.953	0.01605351
712.144	0.0159672
712.334	0.01587617
712.525	0.01581539
712.715	0.01574651
712.906	0.01563146
713.097	0.01553999
713.287	0.01546761
713.478	0.01535909
713.668	0.01530608
713.859	0.01525567
714.049	0.01519058
714.239	0.01516077
714.43	0.01508514
714.62	0.01502301
714.811	0.01497612
715.001	0.01489875
715.191	0.01475648
715.382	0.01466752
715.572	0.01455737
715.762	0.0144511
715.953	0.01433112
716.143	0.01421943
716.333	0.01412702
716.523	0.01408194
716.714	0.01403928
716.904	0.01399272
717.094	0.01394869
717.284	0.01390565
717.474	0.01382422
717.664	0.01376719
717.855	0.01367277
718.045	0.01359252
718.235	0.0134857
718.425	0.01344242
718.615	0.01337772
718.805	0.0133313
718.995	0.01329238
719.185	0.01321483
719.375	0.0131425
719.565	0.01307989
719.755	0.01300049
719.945	0.01291645
720.135	0.01286841
720.325	0.01275505
720.515	0.01273083
720.704	0.01266028
720.894	0.01264467
721.084	0.01257434
721.274	0.01251145
721.464	0.01245259
721.654	0.01237893
721.843	0.01227832
722.033	0.01216928
722.223	0.01204267
722.413	0.01196019
722.602	0.01186867
722.792	0.01176142
722.982	0.0116635
723.171	0.01157192
723.361	0.01153049
723.55	0.01146831
723.74	0.01139743
723.93	0.01133741
724.119	0.0112982
724.309	0.01126988
724.498	0.01124287
724.688	0.01119966
724.877	0.01114015
725.067	0.01108577
725.256	0.01098757
725.446	0.01089864
725.635	0.01083051
725.825	0.01075626
726.014	0.01067271
726.203	0.01062158
726.393	0.01059215
726.582	0.01052903
726.771	0.01047969
726.961	0.01046483
727.15	0.0104248
727.339	0.01032598
727.529	0.01024429
727.718	0.01012575
727.907	0.01012928
728.096	0.01008012
728.286	0.00999539
728.475	0.00989536
728.664	0.00988754
728.853	0.00987656
729.042	0.00981056
729.231	0.00972533
729.42	0.00962115
729.609	0.00950252
729.799	0.00943975
729.988	0.00935513
730.177	0.00925272
730.366	0.00923705
730.555	0.00919909
730.744	0.00914039
730.933	0.00912703
731.122	0.00909041
731.31	0.00907135
731.499	0.00899361
731.688	0.00893135
731.877	0.008848
732.066	0.00886161
732.255	0.00879758
732.444	0.00876247
732.632	0.0086588
732.821	0.00861821
733.01	0.00857982
733.199	0.00851375
733.388	0.00840929
733.576	0.00838764
733.765	0.00833695
733.954	0.00833311
734.142	0.00829163
734.331	0.00819864
734.52	0.00818379
734.708	0.00810983
734.897	0.00803968
735.086	0.0079654
735.274	0.00784721
735.463	0.00779046
735.651	0.00774974
735.84	0.00769564
736.028	0.00768717
736.217	0.00762166
736.405	0.0075625
736.594	0.00755057
736.782	0.00747935
736.971	0.00742124
737.159	0.00734089
737.347	0.00724531
737.536	0.00719781
737.724	0.00713027
737.912	0.00706848
738.101	0.00708063
738.289	0.0070388
738.477	0.00697493
738.666	0.00692369
738.854	0.00682963
739.042	0.00681616
739.23	0.00678251
739.418	0.00669437
739.607	0.00666306
739.795	0.00670919
739.983	0.0067547
740.171	0.00676828
740.359	0.00672438
740.547	0.00667374
740.735	0.00664446
740.923	0.00659773
741.112	0.00651199
741.3	0.00642737
741.488	0.00635132
741.676	0.00636342
741.864	0.00635196
742.052	0.00631841
742.239	0.00621484
742.427	0.00613846
742.615	0.00604806
742.803	0.00605545
742.991	0.00595697
743.179	0.00587319
743.367	0.00582172
743.555	0.00588062
743.742	0.00588432
743.93	0.00588067
744.118	0.00582143
744.306	0.00574769
744.494	0.00571011
744.681	0.00565136
744.869	0.00551983
745.057	0.00544601
745.244	0.00543611
745.432	0.00539259
745.62	0.00539948
745.807	0.00536737
745.995	0.00531952
746.182	0.00535428
746.37	0.00532254
746.558	0.00527591
746.745	0.00526748
746.933	0.00523111
747.12	0.00519542
747.308	0.00518124
747.495	0.00517454
747.683	0.00515477
747.87	0.00513762
748.057	0.00506257
748.245	0.00499026
748.432	0.00495035
748.62	0.00490851
748.807	0.00479369
748.994	0.00477217
749.182	0.0047601
749.369	0.00476217
749.556	0.00481695
749.743	0.00481578
749.931	0.00479704
750.118	0.00481549
750.305	0.0047582
750.492	0.00464336
750.68	0.00456654
750.867	0.00447367
751.054	0.00440471
751.241	0.00435738
751.428	0.00429506
751.615	0.00426007
751.802	0.00425765
751.989	0.00425179
752.176	0.00421766
752.363	0.00423929
752.55	0.00422146
752.737	0.00418737
752.924	0.00418861
753.111	0.00415729
753.298	0.00411588
753.485	0.00409987
753.672	0.00400663
753.859	0.00397477
754.046	0.00396867
754.233	0.00391255
754.42	0.00389118
754.606	0.00383147
754.793	0.00378249
754.98	0.00376965
755.167	0.00372363
755.353	0.00372127
755.54	0.00370025
755.727	0.00367013
755.914	0.00366396
756.1	0.00364386
756.287	0.00365287
756.474	0.00370176
756.66	0.00364861
756.847	0.00362704
757.033	0.003585
757.22	0.00359257
757.407	0.00358335
757.593	0.00355603
757.78	0.00349214
757.966	0.00346076
758.153	0.00341767
758.339	0.00340885
758.526	0.00335833
758.712	0.00332638
758.898	0.00327432
759.085	0.00323244
759.271	0.00320023
759.458	0.00318017
759.644	0.00315202
759.83	0.00314748
760.017	0.00314027
760.203	0.00312093
760.389	0.00307321
760.576	0.0030326
760.762	0.00297606
760.948	0.00293249
761.134	0.00292175
761.32	0.00284595
761.507	0.0028114
761.693	0.00284832
761.879	0.00287355
762.065	0.00288221
762.251	0.00286178
762.437	0.0027943
762.623	0.00278912
762.809	0.002776
762.995	0.00274642
763.181	0.00268208
763.367	0.00269686
763.553	0.0026669
763.739	0.00266971
763.925	0.00265221
764.111	0.0026403
764.297	0.00255184
764.483	0.00253262
764.669	0.00241561
764.855	0.00239442
765.041	0.00235629
765.227	0.00233868
765.412	0.00233255
765.598	0.00233456
765.784	0.00235063
765.97	0.00240758
766.156	0.00238618
766.341	0.00237267
766.527	0.00237094
766.713	0.00230578
766.898	0.00229796
767.084	0.00225101
767.27	0.00220981
767.455	0.00215672
767.641	0.00213222
767.827	0.00213619
768.012	0.00214696
768.198	0.0021165
768.383	0.00211102
768.569	0.00202286
768.754	0.00203094
768.94	0.00201102
769.125	0.00191834
769.311	0.00187503
769.496	0.00182024
769.682	0.00181837
769.867	0.00185933
770.052	0.00188898
770.238	0.00191881
770.423	0.00192511
770.608	0.00191389
770.794	0.00194507
770.979	0.00189321
771.164	0.0018933
771.35	0.00183975
771.535	0.00176863
771.72	0.00173099
771.905	0.00173248
772.09	0.00178115
772.276	0.00177389
772.461	0.0017466
772.646	0.00174713
772.831	0.00172939
773.016	0.00170114
773.201	0.00164072
773.386	0.00153036
773.571	0.00153166
773.756	0.00149334
773.941	0.00141417
774.126	0.00140204
774.311	0.00137611
774.496	0.00139111
774.681	0.00139962
774.866	0.00132554
775.051	0.00129928
775.236	0.00135782
775.421	0.00131148
775.606	0.00132803
775.791	0.00125729
775.976	0.00125224
776.16	0.0012241
776.345	0.00122609
776.53	0.00122815
776.715	0.00123349
776.899	0.00122565
777.084	0.0012091
777.269	0.00116717
777.454	0.00114735
777.638	0.0010881
777.823	0.00102151
778.008	0.00103468
778.192	0.00100007
778.377	0.00101979
778.561	0.00106147
778.746	0.00110768
778.931	0.00111959
779.115	0.00112221
779.3	0.0011218
779.484	0.00111572
779.669	0.00108571
779.853	0.00102068
780.037	0.00099755
780.222	0.00103552
780.406	0.00102084
780.591	0.00096521
780.775	0.00100616
780.959	0.00101049
781.144	0.00103779
781.328	0.00104679
781.512	0.00094677
781.697	0.00089376
781.881	0.00088784
782.065	0.00086363
782.249	0.00081997
782.434	0.0008003
782.618	0.00079203
782.802	0.00086967
782.986	0.00092693
783.17	0.0008866
783.354	0.00086346
783.539	0.00089741
783.723	0.00083492
783.907	0.00083658
784.091	0.00080175
784.275	0.00070741
784.459	0.00073773
784.643	0.00072657
784.827	0.00071778
785.011	0.00076476
785.195	0.00075541
785.379	0.00075718
785.563	0.0007483
785.747	0.00071997
785.93	0.00068883
786.114	0.00066032
786.298	0.00058424
786.482	0.00047896
786.666	0.00047025
786.85	0.00051136
787.033	0.00053654
787.217	0.00052688
787.401	0.00055904
787.585	0.00061571
787.768	0.00062928
787.952	0.0005592
788.136	0.00051701
788.319	0.00045804
788.503	0.00045489
788.687	0.00040288
788.87	0.0003577
789.054	0.00037257
789.237	0.00042552
789.421	0.00046322
789.605	0.00050516
789.788	0.00050286
789.972	0.00046973
790.155	0.00050653
790.338	0.00048739
790.522	0.00042188
790.705	0.00037726
790.889	0.0003112
791.072	0.00033644
791.256	0.00037061
791.439	0.00031849
791.622	0.00034101
791.806	0.00034117
791.989	0.00034339
792.172	0.00034402
792.355	0.00026314
792.539	0.00024179
792.722	0.00019209
792.905	0.00013281
793.088	0.00019338
793.271	0.00020762
793.455	0.00021541
793.638	0.00021852
793.821	0.0002447
794.004	0.00031686
794.187	0.00043731
794.37	0.00038676
794.553	0.0003751
794.736	0.00042887
794.919	0.00044018
795.102	0.00040734
795.285	0.00039478
795.468	0.00030624
795.651	0.00029994
795.834	0.0002766
796.017	0.0002417
796.2	0.00024467
796.383	0.0002134
796.566	0.000122
796.749	0.00005922
796.931	0.00002962
797.114	-0.00000191
797.297	-0.00002311
797.48	-0.00004636
797.663	0.00001293
797.845	0.00007364
798.028	0.00009982
798.211	0.00013421
798.393	0.00020763
798.576	0.00020113
798.759	0.00020371
798.941	0.00018577
799.124	0.00015101
799.307	0.00016609
799.489	0.00012594
799.672	0.00008896
799.854	0.00013058
800.037	0.00014854
800.219	0.00008941
800.402	0.00012847
800.584	0.00013897
800.767	0.00015542
800.949	0.00008205
801.132	-0.00000826
801.314	-0.00008911
801.496	-0.00008864
801.679	-0.00014314
801.861	-0.00019106
802.043	-0.00015823
802.226	-0.00004904
802.408	-0.00005653
802.59	0.0000018
802.772	0.00000025
802.955	0.00005013
803.137	0.00009116
803.319	0.00003332
803.501	-0.00009379
803.684	-0.00009518
803.866	-0.00011264
804.048	-0.00014797
804.23	-0.00013721
804.412	-0.00022804
804.594	-0.00021081
804.776	-0.00012209
804.958	-0.00009515
805.14	-0.00009198
805.322	-0.00004844
805.504	-0.00009435
805.686	-0.00003642
805.868	-0.00005655
806.05	-0.00009256
806.232	-0.00012154
806.414	-0.0001471
806.596	-0.00022525
806.778	-0.00026701
806.96	-0.00026878
807.141	-0.00028483
807.323	-0.00023772
807.505	-0.00025951
807.687	-0.00025704
807.869	-0.00021063
808.05	-0.00016458
808.232	-0.00013048
808.414	-0.00009358
808.595	-0.00014517
808.777	-0.00015877
808.959	-0.00019581
809.14	-0.00017047
809.322	-0.00024915
809.504	-0.00034395
809.685	-0.0003994
809.867	-0.0003453
810.048	-0.00030792
810.23	-0.00028192
810.411	-0.00030823
810.593	-0.00025565
810.774	-0.0002209
810.956	-0.00020645
811.137	-0.00025367
811.319	-0.00026065
811.5	-0.00028922
811.681	-0.00028921
811.863	-0.00030527
812.044	-0.00026409
812.225	-0.00024893
812.407	-0.00028729
812.588	-0.00028774
812.769	-0.00027196
812.951	-0.00030135
813.132	-0.00030632
813.313	-0.00039342
813.494	-0.00048946
813.675	-0.00048674
813.857	-0.00047785
814.038	-0.00052561
814.219	-0.00051724
814.4	-0.00047759
814.581	-0.00047347
814.762	-0.0004293
814.943	-0.00046305
815.124	-0.00049095
815.305	-0.00046427
815.486	-0.00047418
815.667	-0.00054046
815.848	-0.00051912
816.029	-0.00043991
816.21	-0.00043531
816.391	-0.00043001
816.572	-0.00037908
816.753	-0.00029196
816.934	-0.00025183
817.115	-0.00020678
817.295	-0.00025337
817.476	-0.00019895
817.657	-0.0002549
817.838	-0.00023926
818.019	-0.00033211
818.199	-0.00042468
818.38	-0.00050706
818.561	-0.00048279
818.741	-0.00052461
818.922	-0.00043638
819.103	-0.0004653
819.283	-0.00050096
819.464	-0.00043359
819.645	-0.000424
819.825	-0.00047691
820.006	-0.00046515
820.186	-0.00051398
820.367	-0.00054105
820.547	-0.0004838
820.728	-0.00049071
820.908	-0.00047045
821.089	-0.0004291
821.269	-0.00043686
821.45	-0.00037655
821.63	-0.00035965
821.81	-0.00039597
821.991	-0.00038401
822.171	-0.00039582
822.351	-0.00042471
822.532	-0.00045472
822.712	-0.00053923
822.892	-0.00057837
823.072	-0.00052917
823.253	-0.00054471
823.433	-0.00055628
823.613	-0.00054072
823.793	-0.00050234
823.973	-0.00049782
824.154	-0.00050032
824.334	-0.00052624
824.514	-0.00056321
824.694	-0.00055278
824.874	-0.00059064
825.054	-0.00068844
825.234	-0.00065417
825.414	-0.00066265
825.594	-0.00069719
825.774	-0.00065649
825.954	-0.00065234
826.134	-0.00057611
826.314	-0.00045009
826.494	-0.00041851
826.674	-0.00038125
826.854	-0.00030082
827.033	-0.00032051
827.213	-0.00033948
827.393	-0.00047918
827.573	-0.0006064
827.753	-0.00064413
827.932	-0.00067415
828.112	-0.00068816
828.292	-0.00069982
828.472	-0.00069127
828.651	-0.00067665
828.831	-0.00052958
829.011	-0.00048944
829.19	-0.00047008
829.37	-0.00056672
829.549	-0.00060673
829.729	-0.00062147
829.909	-0.00059011
830.088	-0.00068641
830.268	-0.00073654
830.447	-0.00073142
830.627	-0.00060672
830.806	-0.00055924
830.986	-0.00050712
831.165	-0.00049961
831.344	-0.00054423
831.524	-0.00051413
831.703	-0.00051064
831.883	-0.00061994
832.062	-0.00067113
832.241	-0.00072322
832.421	-0.00071086
832.6	-0.0007148
832.779	-0.00080327
832.958	-0.00083721
833.138	-0.00079753
833.317	-0.0007095
833.496	-0.00066159
833.675	-0.0006654
833.854	-0.00062469
834.034	-0.00054966
834.213	-0.00051607
834.392	-0.00053566
834.571	-0.00059595
834.75	-0.00064797
834.929	-0.00072465
835.108	-0.00071982
835.287	-0.00078309
835.466	-0.00088428
835.645	-0.00084939
835.824	-0.00081847
836.003	-0.0007859
836.182	-0.00070739
836.361	-0.00073055
836.54	-0.00067204
836.719	-0.00062541
836.897	-0.00070226
837.076	-0.00069471
837.255	-0.00074438
837.434	-0.00081873
837.613	-0.00079477
837.791	-0.00086964
837.97	-0.00085741
838.149	-0.00076995
838.328	-0.00077569
838.506	-0.00075085
838.685	-0.00061693
838.864	-0.00056452
839.042	-0.0005631
839.221	-0.00055183
839.4	-0.00063762
839.578	-0.00068846
839.757	-0.00069376
839.935	-0.00080774
840.114	-0.00091381
840.292	-0.00090285
840.471	-0.00083505
840.649	-0.00070276
840.828	-0.00065012
841.006	-0.00061329
841.185	-0.00053975
841.363	-0.00049344
841.541	-0.00047897
841.72	-0.00052949
841.898	-0.00061661
842.076	-0.00064732
842.255	-0.00074358
842.433	-0.00073222
842.611	-0.00076315
842.789	-0.00076264
842.968	-0.00078433
843.146	-0.0007902
843.324	-0.00074923
843.502	-0.00062217
843.68	-0.00066334
843.859	-0.00055786
844.037	-0.00057646
844.215	-0.00060291
844.393	-0.00060997
844.571	-0.00072689
844.749	-0.00081917
844.927	-0.00083127
845.105	-0.00086983
845.283	-0.00085129
845.461	-0.00081099
845.639	-0.00076726
845.817	-0.0006411
845.995	-0.00054227
846.173	-0.00050456
846.351	-0.00053017
846.529	-0.00045679
846.706	-0.0005155
846.884	-0.00058353
847.062	-0.00067566
847.24	-0.000799
847.418	-0.00082762
847.595	-0.00086209
847.773	-0.0009017
847.951	-0.00089181
848.129	-0.00083572
848.306	-0.00079538
848.484	-0.00072799
848.662	-0.0007411
848.839	-0.00068971
849.017	-0.00068625
849.194	-0.00057468
849.372	-0.00059875
849.549	-0.00064557
849.727	-0.00070984
849.905	-0.00069875
850.082	-0.00068755
850.26	-0.00067524
850.437	-0.00074477
850.614	-0.00068974
850.792	-0.00064256
850.969	-0.00057008
851.147	-0.00059984
851.324	-0.000595
851.501	-0.00066988
851.679	-0.00072387
851.856	-0.0007939
852.033	-0.00085604
852.211	-0.00094252
852.388	-0.00092488
852.565	-0.00099173
852.742	-0.00097461
852.92	-0.00096804
853.097	-0.0009664
853.274	-0.00090855
853.451	-0.00084013
853.628	-0.0008448
853.805	-0.00078861
853.982	-0.00079097
854.159	-0.00073616
854.336	-0.00073206
854.514	-0.00075925
854.691	-0.00079752
854.868	-0.00078321
855.045	-0.00086009
855.221	-0.0008399
855.398	-0.00087209
855.575	-0.0008904
855.752	-0.00085985
855.929	-0.00081582
856.106	-0.00082146
856.283	-0.0008039
856.46	-0.00078653
856.637	-0.00077217
856.813	-0.00077152
856.99	-0.00074226
857.167	-0.00083449
857.344	-0.00084534
857.52	-0.000794
857.697	-0.0008358
857.874	-0.00087292
858.05	-0.00083655
858.227	-0.00090424
858.404	-0.00082524
858.58	-0.00080165
858.757	-0.00076754
858.933	-0.00072397
859.11	-0.00071341
859.287	-0.00074234
859.463	-0.00069056
859.64	-0.0007266
859.816	-0.00069998
859.993	-0.00076586
860.169	-0.00082531
860.345	-0.00084599
860.522	-0.0008179
860.698	-0.00086649
860.875	-0.00086072
861.051	-0.00090449
861.227	-0.00100084
861.404	-0.00100681
861.58	-0.00097073
861.756	-0.00102083
861.932	-0.00105675
862.109	-0.0010784
862.285	-0.00107094
862.461	-0.00096117
862.637	-0.00093234
862.813	-0.0009
862.99	-0.00083439
863.166	-0.00073281
863.342	-0.00067631
863.518	-0.00064265
863.694	-0.00062774
863.87	-0.00059545
864.046	-0.00065747
864.222	-0.00066039
864.398	-0.00066883
864.574	-0.00071215
864.75	-0.00079054
864.926	-0.00082022
865.102	-0.0008504
865.278	-0.00088108
865.454	-0.00094053
865.63	-0.00097462
865.805	-0.00097214
865.981	-0.00090521
866.157	-0.00088927
866.333	-0.00089644
866.509	-0.00076894
866.684	-0.00069718
866.86	-0.00078271
867.036	-0.0007882
867.212	-0.00081977
867.387	-0.0008362
867.563	-0.00087633
867.739	-0.00102368
867.914	-0.00114286
868.09	-0.00106146
868.265	-0.00111864
868.441	-0.00116796
868.617	-0.00113353
868.792	-0.00109896
868.968	-0.00103539
869.143	-0.00097234
869.319	-0.00100054
869.494	-0.00091113
869.67	-0.00082812
869.845	-0.00087678
870.02	-0.00088944
870.196	-0.00095525
870.371	-0.00098456
870.546	-0.00100007
870.722	-0.00103952
870.897	-0.00113288
871.072	-0.00112198
871.248	-0.00110527
871.423	-0.00101429
871.598	-0.00098835
871.773	-0.00090646
871.949	-0.00087689
872.124	-0.00067074
872.299	-0.00062867
872.474	-0.00062313
872.649	-0.00058732
872.824	-0.00055896
872.999	-0.00052806
873.174	-0.00054533
873.349	-0.00079108
873.524	-0.00080896
873.699	-0.00082444
873.874	-0.00089125
874.049	-0.00093584
874.224	-0.00095424
874.399	-0.00086963
874.574	-0.00065146
874.749	-0.00064543
874.924	-0.00057442
875.099	-0.00057343
875.274	-0.00053446
875.449	-0.00062238
875.623	-0.00069704
875.798	-0.00099822
875.973	-0.00109429
876.148	-0.00120577
876.322	-0.00123916
876.497	-0.00122034
876.672	-0.00119208
876.846	-0.0011852
877.021	-0.00104809
877.196	-0.00096404
877.37	-0.00077445
877.545	-0.00071084
877.72	-0.00067333
877.894	-0.00069693
878.069	-0.00066004
878.243	-0.00059282
878.418	-0.00068318
878.592	-0.0008421
878.767	-0.00085762
878.941	-0.00097949
879.116	-0.0010222
879.29	-0.00116153
879.464	-0.00121204
879.639	-0.00110717
879.813	-0.00111963
879.987	-0.00113234
880.162	-0.00109496
880.336	-0.00089534
880.51	-0.00073076
880.685	-0.00063169
880.859	-0.00074753
881.033	-0.00075839
881.207	-0.00079046
881.381	-0.00075377
881.556	-0.0009963
881.73	-0.0011956
881.904	-0.00131287
882.078	-0.00122641
882.252	-0.00117078
882.426	-0.00108444
882.6	-0.00099149
882.774	-0.00072145
882.948	-0.00058448
883.122	-0.00042218
883.296	-0.00041003
883.47	-0.00039652
883.644	-0.00037513
883.818	-0.00050229
883.992	-0.00061486
884.166	-0.00063564
884.34	-0.00071194
884.514	-0.00073783
884.687	-0.00081841
884.861	-0.0007734
885.035	-0.00064681
885.209	-0.00072358
885.382	-0.00064147
885.556	-0.00062139
885.73	-0.00063751
885.904	-0.0005112
886.077	-0.00066226
886.251	-0.00078819
886.425	-0.00090959
886.598	-0.00104129
886.772	-0.00113192
886.945	-0.00106772
887.119	-0.00122071
887.292	-0.00117766
887.466	-0.00119744
887.64	-0.00109009
887.813	-0.00100503
887.986	-0.00091615
888.16	-0.00093077
888.333	-0.00080819
888.507	-0.00068648
888.68	-0.00061661
888.854	-0.00047143
889.027	-0.00051053
889.2	-0.00059699
889.374	-0.00066108
889.547	-0.00077199
889.72	-0.00092955
889.893	-0.00105011
890.067	-0.0011695
890.24	-0.00116037
890.413	-0.00109899
890.586	-0.00114367
890.759	-0.00102157
890.933	-0.00090161
891.106	-0.00085673
891.279	-0.00069309
891.452	-0.00069744
891.625	-0.00066952
891.798	-0.00055407
891.971	-0.00067848
892.144	-0.00071794
892.317	-0.00070413
892.49	-0.00086997
892.663	-0.00089209
892.836	-0.0009098
893.009	-0.00097268
893.182	-0.00090259
893.355	-0.00083523
893.527	-0.00076414
893.7	-0.00070458
893.873	-0.00055215
894.046	-0.00047484
894.219	-0.00039451
894.391	-0.00033564
894.564	-0.00047402
894.737	-0.00057979
894.91	-0.0006039
895.082	-0.0007817
895.255	-0.00092306
895.428	-0.0010824
895.6	-0.00117047
895.773	-0.00119171
895.945	-0.00115618
896.118	-0.00113543
896.291	-0.00105816
896.463	-0.00105322
896.636	-0.0009213
896.808	-0.00076847
896.981	-0.00061587
897.153	-0.00050284
897.326	-0.00055487
897.498	-0.00062357
897.67	-0.00066628
897.843	-0.00078461
898.015	-0.00092947
898.187	-0.00102703
898.36	-0.00109042
898.532	-0.00096057
898.704	-0.00093395
898.877	-0.00083605
899.049	-0.00080325
899.221	-0.00066585
899.393	-0.0006634
899.566	-0.0006579
899.738	-0.00078059
899.91	-0.00080906
900.082	-0.00079116
900.254	-0.00081048
900.426	-0.00095108
900.598	-0.00100336
900.77	-0.00108606
900.942	-0.00109564
901.114	-0.00116797
901.286	-0.001327
901.458	-0.00129042
901.63	-0.00131329
901.802	-0.00123943
901.974	-0.00123619
902.146	-0.00118819
902.318	-0.00094477
902.49	-0.00081827
902.662	-0.00074872
902.834	-0.00080354
903.005	-0.00076458
903.177	-0.00070066
903.349	-0.00082145
903.521	-0.00104842
903.693	-0.00106316
903.864	-0.00116764
904.036	-0.00106708
904.208	-0.00115152
904.379	-0.0011409
904.551	-0.00099965
904.723	-0.00079089
904.894	-0.00072172
905.066	-0.00060176
905.237	-0.00052506
905.409	-0.00046311
905.58	-0.00037487
905.752	-0.00037072
905.923	-0.00041358
906.095	-0.00050162
906.266	-0.0005419
906.438	-0.0005933
906.609	-0.00068235
906.78	-0.00076732
906.952	-0.00080173
907.123	-0.00079066
907.295	-0.00078881
907.466	-0.00076597
907.637	-0.00071046
907.808	-0.00069329
907.98	-0.00066113
908.151	-0.00057804
908.322	-0.00052454
908.493	-0.00059123
908.665	-0.00061531
908.836	-0.0006793
909.007	-0.00062448
909.178	-0.00067637
909.349	-0.00075564
909.52	-0.00098607
909.691	-0.00097957
909.862	-0.00100171
910.033	-0.00099528
910.204	-0.00100737
910.375	-0.00101498
910.546	-0.00093767
910.717	-0.00075984
910.888	-0.0006785
911.059	-0.00070649
911.23	-0.00060011
911.401	-0.00060767
911.572	-0.00052334
911.742	-0.00071129
911.913	-0.00077157
912.084	-0.00081689
912.255	-0.00078552
912.426	-0.00101019
912.596	-0.00103939
912.767	-0.00117503
912.938	-0.00109708
913.108	-0.00110752
913.279	-0.00113835
913.45	-0.00103741
913.62	-0.00090535
913.791	-0.00081101
913.962	-0.00069231
914.132	-0.00055094
914.303	-0.00039716
914.473	-0.00024762
914.644	-0.00031146
914.814	-0.00029441
914.985	-0.00030012
915.155	-0.00035883
915.326	-0.00058948
915.496	-0.0008065
915.666	-0.00085114
915.837	-0.00095627
916.007	-0.00106508
916.177	-0.0012275
916.348	-0.00123347
916.518	-0.00111228
916.688	-0.00107868
916.858	-0.00120726
917.029	-0.00104926
917.199	-0.00101348
917.369	-0.00089884
917.539	-0.00086038
917.709	-0.00078375
917.88	-0.00090055
918.05	-0.00083395
918.22	-0.00092712
918.39	-0.0008575
918.56	-0.00086362
918.73	-0.00092416
918.9	-0.00112452
919.07	-0.00096767
919.24	-0.0009067
919.41	-0.00083234
919.58	-0.00083478
919.75	-0.00094301
919.92	-0.00090319
920.09	-0.00084443
920.26	-0.0008587
920.429	-0.00078999
920.599	-0.00079381
920.769	-0.0009246
920.939	-0.00086233
921.109	-0.00094349
921.278	-0.0009524
921.448	-0.00103294
921.618	-0.00118313
921.787	-0.00126494
921.957	-0.00115693
922.127	-0.00104466
922.296	-0.00085449
922.466	-0.00083218
922.636	-0.00064741
922.805	-0.00061558
922.975	-0.00060871
923.144	-0.00065503
923.314	-0.00076256
923.483	-0.00086022
923.653	-0.00082951
923.822	-0.00084454
923.992	-0.0008919
924.161	-0.00093886
924.331	-0.00099388
924.5	-0.00095785
924.669	-0.00107172
924.839	-0.00116172
925.008	-0.00125552
925.177	-0.00124376
925.347	-0.0011455
925.516	-0.00106967
925.685	-0.00101083
925.854	-0.00084149
926.023	-0.00071857
926.193	-0.00054987
926.362	-0.0004558
926.531	-0.00055273
926.7	-0.00056634
926.869	-0.00074678
927.038	-0.00080018
927.207	-0.00074942
927.376	-0.00094962
927.545	-0.0010562
927.715	-0.00091926
927.884	-0.00093167
928.052	-0.000831
928.221	-0.00084008
928.39	-0.00085425
928.559	-0.00081639
928.728	-0.00076465
928.897	-0.00090383
929.066	-0.00076859
929.235	-0.00069701
929.404	-0.00079701
929.572	-0.00088675
929.741	-0.00081196
929.91	-0.00088388
930.079	-0.00079898
930.247	-0.00086628
930.416	-0.000912
930.585	-0.00080025
930.753	-0.00072726
930.922	-0.00065013
931.091	-0.00058804
931.259	-0.00054668
931.428	-0.00049065
931.596	-0.00037756
931.765	-0.00041752
931.934	-0.0004844
932.102	-0.0004618
932.27	-0.00052053
932.439	-0.00045506
932.607	-0.00046267
932.776	-0.00070221
932.944	-0.00082524
933.113	-0.00074745
933.281	-0.00082006
933.449	-0.000753
933.618	-0.00095755
933.786	-0.00101744
933.954	-0.00104319
934.123	-0.0009471
934.291	-0.00099688
934.459	-0.00113979
934.627	-0.0009681
934.795	-0.00078926
934.964	-0.00066416
935.132	-0.00036698
935.3	-0.00027305
935.468	-0.00017863
935.636	0.00003661
935.804	0.00003914
935.972	0.00005372
936.14	0.00005406
936.308	-0.00000351
936.476	0.00014057
936.644	0.00017555
936.812	0.00010306
936.98	0.00011718
937.148	0.00007254
937.316	0.00003453
937.484	0.00004187
937.652	0.00022782
937.82	0.00018915
937.987	0.00017081
938.155	0.00000372
938.323	0.00024249
938.491	0.00034986
938.658	0.00008639
938.826	-0.00026118
938.994	0.0001962
939.162	-0.00002331
939.329	-0.00019297
939.497	-0.00039761
939.665	-0.00078681
939.832	-0.00056419
940	-0.00095233
940.167	-0.00143195
940.335	-0.00115028
940.502	-0.00041391
940.67	-0.00041199
940.837	-0.00057846
941.005	-0.00024752
941.172	0.00009025
941.34	-0.00002558
941.507	0.00007352
941.674	-0.00069238
941.842	-0.00161155
942.009	-0.00118229
942.177	-0.00104736
942.344	-0.00073572
942.511	-0.00074115
942.678	-0.00094044
942.846	0.00021099
943.013	0.00157369
943.18	0.00213006
943.347	0.00176257
943.514	0.0020221
943.682	0.0015832
943.849	0.00225399
944.016	0.00178189
944.183	0.00191339
944.35	0.00197536
944.517	0.00200502
944.684	0.00178119
944.851	0.00306346
945.018	0.002704
945.185	0.0024805
945.352	0.00282947
945.519	0.00264573
945.686	0.00249885
945.853	0.00159536
946.02	0.00079723
946.187	0.00022177
946.353	-0.00046334
946.52	-0.0012454
946.687	-0.00181994
946.854	-0.00100412
947.021	0.00007812
947.187	0.00017627
947.354	0.00037703
947.521	0.00105933
947.687	0.00170379
947.854	0.00158754
948.021	0.0010685
948.187	0.00048441
948.354	0.00083738
948.52	0.00084105
948.687	0.00093575
948.854	0.00057954
949.02	0.00095455
949.187	0.00063729
949.353	0.00107135
949.52	0.00082346
949.686	0.00098267
949.852	0.00071499
950.019	0.00152515
950.185	0.001886
950.352	0.00265724
950.518	0.00273709
950.684	0.00220186
950.851	0.00153671
951.017	0.00112035
951.183	0.00000055
951.349	-0.0005085
951.516	-0.00129878
951.682	-0.00137988
951.848	-0.00124391
952.014	-0.00140804
952.18	-0.00140788
952.346	-0.00098609
952.512	-0.0003836
952.679	-0.00044116
952.845	-0.00039415
953.011	-0.0005007
953.177	0.00028499
953.343	0.00061526
953.509	0.00039744
953.675	-0.00001721
953.841	0.00023514
954.007	-0.00004097
954.172	0.00071528
954.338	0.00049787
954.504	0.00037581
954.67	0.00052144
954.836	-0.00005478
955.002	-0.00054923
955.167	-0.00040366
955.333	-0.00059058
955.499	-0.00080565
955.665	-0.00061152
955.83	-0.00104965
955.996	-0.0001439
956.162	0.00015063
956.327	0.00001304
956.493	-0.00020122
956.659	0.00006985
956.824	-0.00038877
956.99	-0.00053782
957.155	-0.0009909
957.321	-0.00087711
957.486	-0.0006933
957.652	-0.0009529
957.817	-0.00158607
957.983	-0.00116387
958.148	-0.00098189
958.314	-0.00123727
958.479	-0.00150382
958.644	-0.0015932
958.81	-0.00136582
958.975	-0.00105193
959.14	-0.00142148
959.306	-0.00146053
959.471	-0.00111538
959.636	-0.0006884
959.801	-0.00077372
959.967	-0.00089644
960.132	-0.00097976
960.297	-0.00081631
960.462	-0.00053259
960.627	-0.00082893
960.792	-0.00091192
960.957	-0.00081977
961.123	-0.00094016
961.288	-0.00065676
961.453	-0.00058483
961.618	-0.00058106
961.783	-0.00066035
961.948	-0.00089481
962.113	-0.00104839
962.277	-0.00081878
962.442	-0.00093325
962.607	-0.00075322
962.772	-0.00083569
962.937	-0.00037001
963.102	-0.00001108
963.267	-0.00015797
963.431	-0.00059145
963.596	-0.00061007
963.761	-0.00077615
963.926	-0.00077227
964.09	-0.00144332
964.255	-0.00178251
964.42	-0.00160095
964.584	-0.00116869
964.749	-0.00102239
964.914	-0.00110978
965.078	-0.00112854
965.243	-0.00089687
965.407	-0.00096454
965.572	-0.00132055
965.736	-0.0016342
965.901	-0.00202182
966.065	-0.00167108
966.23	-0.00185357
966.394	-0.00156282
966.559	-0.00145925
966.723	-0.00132306
966.887	-0.00128281
967.052	-0.00078329
967.216	-0.0011375
967.38	-0.00109733
967.545	-0.00144138
967.709	-0.00161454
967.873	-0.00128323
968.037	-0.00124359
968.202	-0.00139711
968.366	-0.00137167
968.53	-0.00138135
968.694	-0.00132039
968.858	-0.00102472
969.022	-0.0013255
969.187	-0.00120873
969.351	-0.00110054
969.515	-0.00097255
969.679	-0.00109833
969.843	-0.00069711
970.007	-0.00067071
970.171	-0.00063145
970.335	-0.00056987
970.499	-0.0007569
970.662	-0.00087769
970.826	-0.00090877
970.99	-0.00118917
971.154	-0.00122217
971.318	-0.00101677
971.482	-0.00083938
971.645	-0.00096139
971.809	-0.00110506
971.973	-0.00084239
972.137	-0.0010055
972.3	-0.00104766
972.464	-0.00120854
972.628	-0.00125165
972.791	-0.00074265
972.955	-0.00079018
973.119	-0.00093544
973.282	-0.00073105
973.446	-0.00035551
973.609	-0.00013337
973.773	-0.00028326
973.936	-0.00066564
974.1	-0.00059753
974.263	-0.00058277
974.427	-0.00067826
974.59	-0.00093466
974.754	-0.00108891
974.917	-0.0009987
975.08	-0.0008527
975.244	-0.00049166
975.407	-0.00047704
975.57	-0.0002565
975.734	-0.00030254
975.897	-0.00003206
976.06	-0.00020321
976.223	-0.00031666
976.387	-0.00037157
976.55	-0.00025269
976.713	0.00012323
976.876	-0.00022206
977.039	-0.00065341
977.202	-0.00067383
977.365	-0.00078075
977.528	-0.00069811
977.692	-0.00067864
977.855	-0.00080895
978.018	-0.00064807
978.181	-0.0002848
978.344	-0.00042277
978.506	-0.00004619
978.669	-0.00033916
978.832	-0.0005291
978.995	-0.0011284
979.158	-0.00097358
979.321	-0.00118931
979.484	-0.00099192
979.646	-0.00121346
979.809	-0.00110606
979.972	-0.00062082
980.135	-0.00052446
980.297	-0.00081274
980.46	-0.00099267
980.623	-0.0010417
980.786	-0.00114072
980.948	-0.00139135
981.111	-0.00169411
981.273	-0.00118139
981.436	-0.00084663
981.599	-0.00063732
981.761	-0.0003091
981.924	-0.00031711
982.086	-0.00015453
982.249	0.00000573
982.411	-0.00025115
982.573	-0.00046056
982.736	-0.00035838
982.898	-0.0002584
983.061	-0.00029303
983.223	-0.00030462
983.385	-0.00045434
983.548	-0.00066532
983.71	-0.00050929
983.872	-0.00005189
984.034	-0.00014332
984.197	-0.00013168
984.359	0.0000512
984.521	-0.00018004
984.683	0.00010772
984.845	0.0002361
985.008	-0.00039119
985.17	-0.00053949
985.332	-0.00046215
985.494	-0.00034755
985.656	0.00017003
985.818	0.00009628
985.98	0.00026742
986.142	0.00031506
986.304	0.00042009
986.466	0.00071185
986.628	0.00040012
986.79	0.00000845
986.952	-0.00015783
987.113	-0.00039206
987.275	-0.000723
987.437	-0.00057377
987.599	-0.00099234
987.761	-0.00128725
987.922	-0.00055452
988.084	-0.00039008
988.246	-0.00051147
988.408	-0.00017114
988.569	-0.00075727
988.731	-0.00040272
988.893	-0.00010889
989.054	-0.00063664
989.216	-0.00077327
989.377	-0.0010579
989.539	-0.00054375
989.701	-0.00017822
989.862	-0.00072701
990.024	-0.00034443
990.185	-0.00081083
990.347	0.00005189
990.508	-0.0001907
990.669	-0.00040612
990.831	-0.00066591
990.992	-0.00031553
991.154	-0.00077005
991.315	-0.000437
991.476	-0.00159433
991.638	-0.00088183
991.799	-0.00078833
991.96	-0.0007517
992.121	-0.00063975
992.283	-0.00045498
992.444	-0.00068421
992.605	-0.00024435
992.766	-0.00051592
992.927	-0.00106702
993.088	-0.00102221
993.249	-0.00136339
993.41	-0.00169902
993.572	-0.00163537
993.733	-0.00195028
993.894	-0.00183837
994.055	-0.00148336
994.216	-0.001521
994.376	-0.00125655
994.537	-0.00069642
994.698	0.00008613
994.859	0.00047799
995.02	0.00074725
995.181	0.00056231
995.342	0.00030353
995.503	0.00071766
995.663	0.00069788
995.824	0.00027817
995.985	-0.00003268
996.146	0.00043095
996.306	0.00073732
996.467	0.00154724
996.628	0.001372
996.788	0.00160508
996.949	0.00167763
997.11	0.00185465
997.27	0.00099561
997.431	0.00022742
997.591	-0.00016462
997.752	-0.00082615
997.912	-0.00090969
998.073	-0.00188532
998.233	-0.00177043
998.394	-0.00260272
998.554	-0.00227256
998.714	-0.00177077
998.875	-0.00099839
999.035	-0.0013663
999.196	-0.00122787
999.356	-0.00129857
999.516	0.00028614
999.676	0.00057581
999.837	-0.00007697
999.997	0.00001966
1000.157	0.00035714
1000.317	0.00180993
1000.477	0.0015014
1000.638	0.00156177
1000.798	0.0012825
1000.958	0.00138756
1001.118	0.00157829
1001.278	0.0008862
1001.438	0.00019916
1001.598	0.00082434
1001.758	0.00010625
1001.918	0.0002815
1002.078	-0.00040795
1002.238	-0.00170746
1002.398	-0.000539
1002.558	-0.00088849
1002.718	-0.00068649
1002.878	-0.00021577
1003.037	-0.00028393
1003.197	-0.00007983
1003.357	0.00046659
1003.517	-0.00009947
1003.677	-0.00052778
1003.836	-0.00188899
1003.996	-0.00225762
1004.156	-0.00228843
1004.315	-0.00072158
1004.475	-0.00033446
1004.635	-0.00113287
1004.794	-0.00085433
1004.954	0.00037415
1005.114	-0.00069392
1005.273	-0.0011359
1005.433	-0.00165629
1005.592	-0.00228899
1005.752	-0.00075844
1005.911	0.00062853
1006.071	0.00010118
1006.23	0.00135314
1006.389	0.00247993
1006.549	0.00218651
1006.708	0.00236739
1006.868	0.0011686
1007.027	0.00116802
1007.186	0.00147559
1007.345	0.00077277
1007.505	0.00047177
1007.664	-0.00018778
1007.823	-0.00015982
1007.982	0.0010879
1008.142	-0.0003918
1008.301	-0.00084484
1008.46	-0.00028645
1008.619	-0.00000184
1008.778	0.00011489
1008.937	0.00068939
1009.096	0.00039604
1009.255	0.00163103
1009.414	0.00248509
1009.573	0.00346947
1009.732	0.00310643
1009.891	0.00382925
1010.05	0.00230861
1010.209	0.00067187
1010.368	0.00001124
1010.527	-0.00105323
1010.686	-0.00244141
1010.845	-0.00284663
1011.003	-0.00258171
1011.162	-0.00099711
1011.321	-0.00020326
1011.48	-0.00131545
1011.638	-0.00096305
1011.797	-0.00026361
1011.956	-0.00089009
1012.115	-0.00156051
1012.273	-0.00199252
1012.432	-0.00041627
1012.59	0.00209791
1012.749	0.00095509
1012.908	0.00172448
1013.066	0.00347614
1013.225	0.00414768
1013.383	0.00403229
1013.542	0.00217195
1013.7	-0.0006529
1013.859	0.00130402
1014.017	-0.00088861
1014.175	-0.00056023
1014.334	-0.00115681
1014.492	-0.00101256
1014.65	-0.00125829
1014.809	0.00023108
1014.967	-0.00084274
1015.125	0.00112569
1015.284	-0.00037736
1015.442	0.00102113
1015.6	-0.0003962
1015.758	0.00139228
1015.916	0.00099555
1016.075	0.00016798
1016.233	0.00014654
1016.391	0.00060714
1016.549	-0.00248506
1016.707	-0.00048882
1016.865	-0.00259549
1017.023	-0.00149213
1017.181	-0.00015267
1017.339	-0.00058316
1017.497	-0.00070995
1017.655	0.00148746
1017.813	0.00151618
1017.971	0.00233492
1018.129	0.0010835
1018.286	0.0021486
1018.444	0.00025514
1018.602	-0.0004542
1018.76	-0.00146676
1018.918	-0.00242243
1019.075	-0.00246623
1019.233	-0.00061857
1019.391	-0.00180731
1019.549	-0.00020955
1019.706	0.00118846
1019.864	0.00137877
1020.022	0.00315055
1020.179	0.00315036
1020.337	-0.0006457
1020.494	0.0002794
1020.652	-0.00020387
1020.809	0.00082234
1020.967	-0.00016364
1021.124	-0.00197116
1021.282	-0.00224375
1021.439	-0.00056506
1021.597	-0.00136444
1021.754	-0.00174893
1021.911	-0.00414299
1022.069	-0.00211922
1022.226	-0.00204
1022.384	-0.00200844
1022.541	0.00155383
1022.698	-0.00144329
1022.855	0.00128308
1023.013	0.00265026
1023.17	-0.00004429
1023.327	-0.00210193
1023.484	-0.00266787
1023.641	-0.005835
1023.798	-0.00153703
1023.956	-0.00336031
1024.113	-0.00367165
1024.27	-0.00392571
1024.427	0.00129202
1024.584	0.00049935
1024.741	-0.00122918
1024.898	-0.00365317
1025.055	-0.00393374
1025.212	-0.00313749
1025.369	0.00015669
1025.525	0.00040135
1025.682	0.00249718
1025.839	0.00374037
1025.996	0.0049934
1026.153	0.00737982
1026.31	0.00591214
1026.466	0.00100655
1026.623	-0.00258686
1026.78	-0.00150934
1026.937	-0.0020965
1027.093	-0.0000748
1027.25	-0.00240948
1027.407	-0.00030163
1027.563	0.00295946
1027.72	0.00623556
1027.876	0.00432541
1028.033	0.00891926
1028.19	0.00790112
1028.346	0.00533213
1028.503	0.00675323
1028.659	0.00430017
1028.816	0.00387831
1028.972	0.00486794
1029.128	-0.00012162
1029.285	0.00139356
1029.441	0.00691089
1029.598	0.00129375
1029.754	0.00784225
1029.91	0.00785769
1030.067	0.00913768
1030.223	0.01025536
1030.379	0.00927828
1030.535	0.00823386
1030.691	0.01167737
1030.848	0.01030675
1031.004	0.00922579
1031.16	0.01008522
1031.316	0.00408913
1031.472	0.00059595
1031.628	-0.00269217
1031.784	-0.01186772
1031.94	-0.01466797
1032.096	-0.01818016
1032.252	-0.01905384
1032.408	-0.01004452
1032.564	-0.00823323
1032.72	-0.00615316
1032.876	0.00724445
1033.032	0.0068019
1033.188	0.0093707
1033.344	0.00411327
1033.5	-0.00184974
1033.655	-0.00136041
1033.811	-0.0038651
1033.967	-0.01297112
