Data from 0_1_mm_pl_100pc_Absorbance__0__18-57-13-153.txt Node

Date: Wed Mar 01 18:57:13 CET 2023
User: Ange
Spectrometer: FLMT08341
Trigger mode: 0
Integration Time (sec): 1.000000E-2
Scans to average: 400
Electric dark correction enabled: true
Nonlinearity correction enabled: false
Boxcar width: 3
XAxis mode: Wavelengths
Number of Pixels in Spectrum: 3648
>>>>>Begin Spectral Data<<<<<
345.271	0.00846701
345.487	0.00669765
345.704	0.00340586
345.921	0.00571877
346.137	0.00084373
346.354	0.00468478
346.571	-0.02425369
346.787	-0.11303153
347.004	0.00571006
347.22	0.01314222
347.437	-0.0626308
347.653	-0.10758705
347.87	-0.01164324
348.086	0.27030568
348.303	-0
348.519	0.03939627
348.736	0.02720645
348.952	0.02287001
349.169	0.02909668
349.385	0.03088434
349.601	0.03139182
349.818	0.02938149
350.034	0.02799086
350.251	0.02842793
350.467	0.02829679
350.683	0.0246863
350.9	0.02278108
351.116	0.02210264
351.332	0.02116897
351.549	0.02325892
351.765	0.02458495
351.981	0.02321573
352.197	0.0234631
352.414	0.02504559
352.63	0.02429442
352.846	0.02486943
353.062	0.02219784
353.278	0.02160869
353.495	0.02223072
353.711	0.02405261
353.927	0.02420451
354.143	0.02432697
354.359	0.02333534
354.575	0.02297097
354.792	0.02271265
355.008	0.02270309
355.224	0.02074363
355.44	0.02106258
355.656	0.02044534
355.872	0.02106975
356.088	0.02279381
356.304	0.02267965
356.52	0.02242493
356.736	0.02285028
356.952	0.02102334
357.168	0.02034749
357.384	0.01882101
357.6	0.01673619
357.816	0.01561037
358.032	0.01491269
358.248	0.01562042
358.464	0.01545563
358.679	0.01506876
358.895	0.01508433
359.111	0.01696984
359.327	0.01580622
359.543	0.01703002
359.759	0.0156756
359.974	0.0151989
360.19	0.01639033
360.406	0.01708537
360.622	0.01570463
360.838	0.01739134
361.053	0.01635413
361.269	0.01734137
361.485	0.01714485
361.701	0.01619583
361.916	0.01575642
362.132	0.01583567
362.348	0.01459496
362.563	0.01531167
362.779	0.01384425
362.995	0.01408448
363.21	0.01464588
363.426	0.0146239
363.641	0.01407461
363.857	0.01405666
364.073	0.01301715
364.288	0.01289784
364.504	0.01235184
364.719	0.01179318
364.935	0.01175503
365.15	0.01243203
365.366	0.01207766
365.581	0.01177578
365.797	0.01181955
366.012	0.01241478
366.228	0.01195854
366.443	0.01121668
366.658	0.0100667
366.874	0.010678
367.089	0.0112692
367.305	0.01188372
367.52	0.01201186
367.735	0.01142038
367.951	0.01153043
368.166	0.01248031
368.381	0.01221178
368.597	0.01148657
368.812	0.01073287
369.027	0.00980219
369.243	0.01059076
369.458	0.01006485
369.673	0.00983578
369.888	0.00977288
370.104	0.00976383
370.319	0.00853893
370.534	0.00859934
370.749	0.00829571
370.964	0.00842548
371.179	0.00793588
371.395	0.00753175
371.61	0.00702908
371.825	0.0076071
372.04	0.00819089
372.255	0.00801595
372.47	0.00801757
372.685	0.00747569
372.9	0.00769168
373.115	0.00792456
373.33	0.00798253
373.545	0.00765761
373.76	0.00730484
373.975	0.00741004
374.19	0.00783207
374.405	0.00773461
374.62	0.00856347
374.835	0.00865166
375.05	0.00833208
375.265	0.00974313
375.48	0.01091083
375.695	0.01106633
375.91	0.01140387
376.125	0.01140379
376.339	0.01107179
376.554	0.01107141
376.769	0.01019043
376.984	0.00944618
377.199	0.00945027
377.414	0.00907132
377.628	0.00897188
377.843	0.00871311
378.058	0.00838735
378.273	0.00743724
378.487	0.0066353
378.702	0.00629555
378.917	0.00620482
379.131	0.00491411
379.346	0.00597303
379.561	0.00604836
379.775	0.00650728
379.99	0.00665991
380.205	0.0071612
380.419	0.00704643
380.634	0.00721366
380.848	0.00650104
381.063	0.00657599
381.278	0.00647543
381.492	0.00613211
381.707	0.00507442
381.921	0.00496835
382.136	0.00521523
382.35	0.00530874
382.565	0.00514062
382.779	0.00544732
382.994	0.0058456
383.208	0.00675904
383.422	0.00595579
383.637	0.00601946
383.851	0.0060436
384.066	0.00649225
384.28	0.00575815
384.494	0.00609802
384.709	0.00583561
384.923	0.00629942
385.137	0.00601311
385.352	0.00599351
385.566	0.0052137
385.78	0.00530522
385.995	0.00477549
386.209	0.00447752
386.423	0.00475399
386.637	0.005147
386.852	0.00431112
387.066	0.00481817
387.28	0.00514416
387.494	0.00562157
387.708	0.00534204
387.923	0.0050954
388.137	0.00450274
388.351	0.00456146
388.565	0.00451356
388.779	0.00417669
388.993	0.00347642
389.207	0.0036013
389.421	0.00357728
389.635	0.00389581
389.85	0.00424291
390.064	0.00391131
390.278	0.00389276
390.492	0.00392602
390.706	0.00379439
390.92	0.00366293
391.134	0.00364451
391.348	0.00367414
391.561	0.0039964
391.775	0.00405316
391.989	0.00418095
392.203	0.00468488
392.417	0.00470245
392.631	0.00426418
392.845	0.00451938
393.059	0.00379299
393.273	0.00402374
393.486	0.00393681
393.7	0.0035152
393.914	0.00360896
394.128	0.00403719
394.342	0.00386767
394.555	0.00417354
394.769	0.00364707
394.983	0.00336968
395.197	0.0034124
395.41	0.00325457
395.624	0.00335815
395.838	0.00309928
396.051	0.00304839
396.265	0.0029955
396.479	0.00354297
396.692	0.00399972
396.906	0.00416
397.12	0.00398271
397.333	0.00406219
397.547	0.00400978
397.76	0.00422602
397.974	0.00380038
398.187	0.00301729
398.401	0.0028829
398.614	0.0025552
398.828	0.00227629
399.041	0.00206216
399.255	0.00221509
399.468	0.0023774
399.682	0.00282649
399.895	0.00296317
400.109	0.00318206
400.322	0.00351845
400.536	0.00363215
400.749	0.00351838
400.962	0.00336094
401.176	0.00330465
401.389	0.00335396
401.602	0.00306117
401.816	0.0030696
402.029	0.00309066
402.242	0.00344037
402.456	0.00340369
402.669	0.00299582
402.882	0.00248567
403.095	0.00231929
403.309	0.00233892
403.522	0.00228371
403.735	0.00187055
403.948	0.00197569
404.161	0.00212929
404.375	0.00254834
404.588	0.00252278
404.801	0.00222164
405.014	0.00212963
405.227	0.00210327
405.44	0.00191181
405.653	0.00172875
405.866	0.00157099
406.079	0.00188378
406.293	0.00205254
406.506	0.00228705
406.719	0.00223539
406.932	0.00221846
407.145	0.00224384
407.358	0.002204
407.571	0.00221567
407.784	0.00216994
407.996	0.00212164
408.209	0.00210933
408.422	0.0022237
408.635	0.00207066
408.848	0.00183503
409.061	0.00139912
409.274	0.00139978
409.487	0.00160493
409.7	0.00166784
409.912	0.00177189
410.125	0.00192316
410.338	0.00216723
410.551	0.00252005
410.764	0.00259496
410.976	0.00223396
411.189	0.00206569
411.402	0.00156615
411.615	0.00174448
411.827	0.001702
412.04	0.00150637
412.253	0.001126
412.465	0.00082498
412.678	0.00077655
412.891	0.00123413
413.103	0.00099617
413.316	0.00115373
413.529	0.00122325
413.741	0.00141803
413.954	0.0015317
414.166	0.00150167
414.379	0.001435
414.591	0.00141508
414.804	0.00116221
415.016	0.00100429
415.229	0.00101977
415.441	0.00115256
415.654	0.00119383
415.866	0.0010746
416.079	0.00129775
416.291	0.00141033
416.504	0.00159925
416.716	0.00153053
416.928	0.00149583
417.141	0.00164514
417.353	0.00155603
417.566	0.00137844
417.778	0.00123246
417.99	0.00126766
418.203	0.00110271
418.415	0.00105443
418.627	0.00097907
418.839	0.00110856
419.052	0.00113384
419.264	0.00107973
419.476	0.00102512
419.688	0.00118067
419.901	0.00122876
420.113	0.00127999
420.325	0.00108811
420.537	0.00093672
420.749	0.00104679
420.961	0.00119647
421.174	0.00103649
421.386	0.00081605
421.598	0.00058878
421.81	0.00066019
422.022	0.00076582
422.234	0.00089153
422.446	0.00056634
422.658	0.00073937
422.87	0.00095784
423.082	0.00094421
423.294	0.00093142
423.506	0.00086844
423.718	0.00073727
423.93	0.00082928
424.142	0.00082953
424.354	0.00078107
424.566	0.00090742
424.778	0.00101415
424.99	0.00094749
425.202	0.00074283
425.414	0.00055879
425.625	0.00047279
425.837	0.00052147
426.049	0.00044497
426.261	0.00039662
426.473	0.00047941
426.684	0.00063969
426.896	0.00088037
427.108	0.00090857
427.32	0.00105092
427.531	0.001005
427.743	0.00099498
427.955	0.00108196
428.167	0.00110348
428.378	0.00089391
428.59	0.00076462
428.802	0.000442
429.013	0.0005167
429.225	0.00048237
429.436	0.00056266
429.648	0.00060386
429.86	0.00075075
430.071	0.00074306
430.283	0.0008676
430.494	0.00089999
430.706	0.00077243
430.917	0.00053245
431.129	0.00043923
431.34	0.00023741
431.552	0.00032002
431.763	0.00047126
431.975	0.00047216
432.186	0.00056364
432.398	0.0006676
432.609	0.00072867
432.821	0.00104793
433.032	0.00095472
433.243	0.00071832
433.455	0.00074848
433.666	0.00069883
433.877	0.00076886
434.089	0.00071795
434.3	0.00057248
434.511	0.00058974
434.723	0.00058587
434.934	0.00044451
435.145	0.00041456
435.356	0.0001755
435.568	0.00015727
435.779	0.00015174
435.99	0.00011034
436.201	0.00014158
436.412	0.00018697
436.624	0.00036038
436.835	0.00049344
437.046	0.00052086
437.257	0.00047991
437.468	0.00056235
437.679	0.00072578
437.89	0.00065632
438.101	0.00052755
438.312	0.00034495
438.523	0.00030254
438.734	0.00035197
438.945	0.00026616
439.156	0.00010521
439.367	0.00006848
439.578	0.00001995
439.789	0.00007614
440	0.00008487
440.211	-0.00000318
440.422	0.00010255
440.633	0.00007124
440.844	0.00017254
441.055	0.00027212
441.266	0.00031834
441.477	0.0004114
441.687	0.00049432
441.898	0.00059687
442.109	0.00066329
442.32	0.00056507
442.531	0.00062625
442.741	0.00064413
442.952	0.00037772
443.163	0.00035848
443.374	0.00027113
443.584	0.00027407
443.795	0.00029173
444.006	0.00013269
444.216	0.00003086
444.427	0.00016994
444.638	0.00011774
444.848	0.00011684
445.059	0.00011746
445.27	0.00004168
445.48	0.00001063
445.691	0.00018201
445.901	0.00036165
446.112	0.0003951
446.323	0.00045798
446.533	0.00045308
446.744	0.00071645
446.954	0.00071036
447.165	0.00059355
447.375	0.00040841
447.586	0.00036187
447.796	0.00026537
448.006	0.00031594
448.217	0.0002157
448.427	0.00024553
448.638	0.00023512
448.848	0.00028114
449.058	0.0003787
449.269	0.00039758
449.479	0.00022937
449.689	0.00019458
449.9	0.00019597
450.11	0.0003179
450.32	0.0004414
450.531	0.00033248
450.741	0.00029922
450.951	0.00037822
451.161	0.00038331
451.372	0.00035423
451.582	0.00025045
451.792	0.00008081
452.002	0.00018821
452.212	0.00020606
452.422	0.0000592
452.633	0.00000946
452.843	0.00009032
453.053	0.00017154
453.263	0.00014046
453.473	0.00013162
453.683	0.00012766
453.893	0.00025145
454.103	0.00016285
454.313	0.00018954
454.523	0.00018638
454.733	0.00024568
454.943	0.00021105
455.153	0.00019523
455.363	0.00020203
455.573	0.0002711
455.783	0.00022649
455.993	0.00033274
456.203	0.00024519
456.413	0.00019721
456.623	0.00024191
456.833	0.00031871
457.042	0.00038122
457.252	0.00035033
457.462	0.00037999
457.672	0.00042934
457.882	0.00038438
458.091	0.00036474
458.301	0.00028799
458.511	0.00023952
458.721	0.00039314
458.931	0.00016961
459.14	0.00011651
459.35	0.00022891
459.56	0.00014439
459.769	0.00007908
459.979	0.0001944
460.189	0.00006763
460.398	0.00022109
460.608	0.00025895
460.817	0.00027631
461.027	0.00034972
461.237	0.00043677
461.446	0.00043279
461.656	0.00047381
461.865	0.00035054
462.075	0.00040428
462.284	0.00040696
462.494	0.00037567
462.703	0.00043566
462.913	0.00039532
463.122	0.00035212
463.332	0.00037799
463.541	0.00041205
463.751	0.00037943
463.96	0.0003925
464.169	0.00036893
464.379	0.00040963
464.588	0.00044186
464.797	0.00048984
465.007	0.0005145
465.216	0.00044481
465.425	0.00046503
465.635	0.00049099
465.844	0.00045926
466.053	0.00045019
466.263	0.00041259
466.472	0.00030512
466.681	0.00027554
466.89	0.00033959
467.099	0.00030689
467.309	0.00023279
467.518	0.00023581
467.727	0.00022059
467.936	0.00022316
468.145	0.00020597
468.354	0.00010306
468.563	0.00010844
468.772	0.00023213
468.982	0.00029601
469.191	0.00036285
469.4	0.00043595
469.609	0.00056351
469.818	0.00060916
470.027	0.00066602
470.236	0.00060235
470.445	0.00057787
470.654	0.00052163
470.863	0.0005604
471.072	0.00057871
471.28	0.0005958
471.489	0.00048282
471.698	0.00046477
471.907	0.00047015
472.116	0.00049848
472.325	0.00042416
472.534	0.00045925
472.743	0.00052311
472.951	0.00065123
473.16	0.00061096
473.369	0.00056629
473.578	0.00059373
473.786	0.00060028
473.995	0.00049208
474.204	0.00039939
474.413	0.00037294
474.621	0.00048091
474.83	0.00054811
475.039	0.00051798
475.247	0.00060989
475.456	0.00073102
475.665	0.00074565
475.873	0.00074834
476.082	0.0007646
476.291	0.00071489
476.499	0.0007042
476.708	0.00059632
476.916	0.00061243
477.125	0.0006267
477.333	0.00059179
477.542	0.00054235
477.75	0.00051684
477.959	0.0006104
478.167	0.00069428
478.376	0.00063322
478.584	0.00069785
478.793	0.00069534
479.001	0.00071764
479.209	0.00082021
479.418	0.0008254
479.626	0.00078045
479.834	0.00082171
480.043	0.00076656
480.251	0.00086834
480.459	0.00092287
480.668	0.00081744
480.876	0.00082128
481.084	0.00089643
481.293	0.00092394
481.501	0.00103092
481.709	0.00099561
481.917	0.00098492
482.125	0.00106782
482.334	0.00101442
482.542	0.00106622
482.75	0.0010531
482.958	0.00099408
483.166	0.00106036
483.374	0.0010893
483.583	0.0010978
483.791	0.00113167
483.999	0.00111427
484.207	0.00108835
484.415	0.00106997
484.623	0.00101872
484.831	0.00097355
485.039	0.00102091
485.247	0.0010808
485.455	0.00108593
485.663	0.00113393
485.871	0.00118331
486.079	0.00121414
486.287	0.00123418
486.495	0.00129142
486.702	0.00129427
486.91	0.00130439
487.118	0.00130541
487.326	0.0013562
487.534	0.00136035
487.742	0.00141482
487.95	0.00136578
488.157	0.0013223
488.365	0.00130487
488.573	0.00132874
488.781	0.00133366
488.988	0.00136724
489.196	0.0013474
489.404	0.00140155
489.612	0.00144795
489.819	0.00143945
490.027	0.00154546
490.235	0.00153948
490.442	0.00156668
490.65	0.00164834
490.857	0.00165274
491.065	0.00171345
491.273	0.00173752
491.48	0.00169728
491.688	0.00172456
491.895	0.00171493
492.103	0.00173394
492.31	0.00176848
492.518	0.00179203
492.725	0.00183356
492.933	0.00187149
493.14	0.00189335
493.348	0.00198119
493.555	0.00192656
493.763	0.00191918
493.97	0.00192519
494.177	0.00195232
494.385	0.0018712
494.592	0.00191335
494.8	0.00184146
495.007	0.00189781
495.214	0.00188643
495.422	0.001878
495.629	0.00194181
495.836	0.00205064
496.043	0.00204439
496.251	0.0020721
496.458	0.0020587
496.665	0.0021205
496.872	0.00214461
497.08	0.00215943
497.287	0.00217047
497.494	0.00219842
497.701	0.0022528
497.908	0.00225557
498.115	0.00225607
498.322	0.00231719
498.53	0.00234092
498.737	0.00231342
498.944	0.00234907
499.151	0.00238027
499.358	0.00244955
499.565	0.00247259
499.772	0.00248502
499.979	0.00243918
500.186	0.00251385
500.393	0.00252049
500.6	0.00255152
500.807	0.00257875
501.014	0.00258915
501.221	0.00260514
501.427	0.00271811
501.634	0.00275047
501.841	0.00276709
502.048	0.00274318
502.255	0.00277566
502.462	0.00278791
502.669	0.00284205
502.875	0.00283172
503.082	0.00285825
503.289	0.00292106
503.496	0.00299169
503.702	0.00297849
503.909	0.00299333
504.116	0.00296817
504.323	0.00295936
504.529	0.00295638
504.736	0.0029143
504.943	0.002955
505.149	0.00308448
505.356	0.00316899
505.563	0.00318115
505.769	0.00324159
505.976	0.00327881
506.182	0.00337733
506.389	0.00335288
506.595	0.00331284
506.802	0.00330796
507.008	0.00341037
507.215	0.00339947
507.421	0.0034799
507.628	0.00347577
507.834	0.00350024
508.041	0.0035237
508.247	0.00354279
508.454	0.00354027
508.66	0.00359109
508.866	0.00357145
509.073	0.00359856
509.279	0.00370763
509.486	0.00373999
509.692	0.00381109
509.898	0.00383008
510.105	0.00384713
510.311	0.00390679
510.517	0.00395914
510.723	0.00397042
510.93	0.00404003
511.136	0.00404527
511.342	0.0041178
511.548	0.00420668
511.754	0.00423396
511.961	0.00426913
512.167	0.00430076
512.373	0.00432364
512.579	0.00435993
512.785	0.00437546
512.991	0.00438168
513.197	0.00442596
513.404	0.0045088
513.61	0.00453263
513.816	0.00455996
514.022	0.00465943
514.228	0.00470585
514.434	0.00475016
514.64	0.00482705
514.846	0.00481619
515.052	0.00484491
515.258	0.00489132
515.464	0.00488286
515.669	0.00488661
515.875	0.00491678
516.081	0.00490847
516.287	0.00495106
516.493	0.00500781
516.699	0.00504435
516.905	0.00512148
517.111	0.00519058
517.316	0.00529608
517.522	0.00538137
517.728	0.00550499
517.934	0.00556117
518.139	0.00564894
518.345	0.00565986
518.551	0.00571578
518.757	0.00573433
518.962	0.00573464
519.168	0.00572446
519.374	0.00576491
519.579	0.00574316
519.785	0.00581168
519.991	0.00589323
520.196	0.00593947
520.402	0.00602245
520.607	0.00604643
520.813	0.00608645
521.018	0.00617122
521.224	0.00624783
521.429	0.00625301
521.635	0.00629712
521.84	0.00631254
522.046	0.00636396
522.251	0.00646153
522.457	0.00656425
522.662	0.00661757
522.868	0.00666977
523.073	0.00674385
523.279	0.00682081
523.484	0.00692624
523.689	0.00694845
523.895	0.00699697
524.1	0.00704409
524.305	0.00709625
524.511	0.00711163
524.716	0.0071238
524.921	0.00713342
525.126	0.00718932
525.332	0.00718433
525.537	0.00726053
525.742	0.00731075
525.947	0.00738641
526.153	0.00750682
526.358	0.00755168
526.563	0.00759783
526.768	0.00768906
526.973	0.00774825
527.178	0.00782086
527.383	0.00787565
527.588	0.00787125
527.794	0.00793966
527.999	0.00797384
528.204	0.00809497
528.409	0.00816205
528.614	0.00822125
528.819	0.00832412
529.024	0.00842283
529.229	0.00849849
529.434	0.00860271
529.639	0.00863821
529.843	0.00863297
530.048	0.00871658
530.253	0.00876791
530.458	0.00882544
530.663	0.00891333
530.868	0.00900041
531.073	0.00901299
531.278	0.0091196
531.482	0.00918162
531.687	0.00925453
531.892	0.00932723
532.097	0.00937179
532.302	0.00942947
532.506	0.00955032
532.711	0.00962051
532.916	0.00969689
533.12	0.00976648
533.325	0.00984615
533.53	0.0099255
533.734	0.00999051
533.939	0.01008827
534.144	0.01014645
534.348	0.01022773
534.553	0.01028406
534.757	0.01036293
534.962	0.01044827
535.167	0.01048605
535.371	0.01049868
535.576	0.01059748
535.78	0.01069631
535.985	0.0108061
536.189	0.01088105
536.394	0.01094486
536.598	0.01105502
536.803	0.01113628
537.007	0.01119053
537.211	0.01122789
537.416	0.0112938
537.62	0.01134353
537.825	0.01144538
538.029	0.01149189
538.233	0.01159119
538.438	0.01166376
538.642	0.01176989
538.846	0.01180766
539.05	0.01189053
539.255	0.01193046
539.459	0.01204175
539.663	0.01210809
539.867	0.01222204
540.072	0.01230342
540.276	0.01241329
540.48	0.01249715
540.684	0.01261301
540.888	0.01275133
541.092	0.01283129
541.297	0.01291601
541.501	0.01296805
541.705	0.0130557
541.909	0.01321541
542.113	0.01334278
542.317	0.01343185
542.521	0.01355231
542.725	0.01365695
542.929	0.01379304
543.133	0.01394259
543.337	0.01401773
543.541	0.01407383
543.745	0.01414074
543.949	0.01427449
544.153	0.0143678
544.357	0.01450058
544.56	0.01452804
544.764	0.01458329
544.968	0.01471662
545.172	0.01481566
545.376	0.01493094
545.58	0.0150405
545.783	0.01514914
545.987	0.01530246
546.191	0.01544537
546.395	0.01553735
546.598	0.01562994
546.802	0.01569357
547.006	0.01578605
547.21	0.01584523
547.413	0.01598263
547.617	0.01613624
547.821	0.01626189
548.024	0.01645203
548.228	0.01652463
548.431	0.01665808
548.635	0.01680025
548.839	0.01688817
549.042	0.01697831
549.246	0.01707312
549.449	0.0171539
549.653	0.01731752
549.856	0.01743167
550.06	0.01756521
550.263	0.01769401
550.467	0.01777701
550.67	0.01789836
550.874	0.01801118
551.077	0.01812842
551.28	0.01826624
551.484	0.01834386
551.687	0.01843044
551.891	0.0186022
552.094	0.01874043
552.297	0.01886607
552.501	0.01899788
552.704	0.01907686
552.907	0.01919089
553.11	0.01932975
553.314	0.0194536
553.517	0.01955857
553.72	0.01961628
553.923	0.01975316
554.127	0.01987869
554.33	0.02001355
554.533	0.02012049
554.736	0.02022468
554.939	0.02039161
555.142	0.0205917
555.345	0.02069877
555.549	0.0208547
555.752	0.02101221
555.955	0.02113013
556.158	0.02126606
556.361	0.02134794
556.564	0.02149906
556.767	0.02164031
556.97	0.02175221
557.173	0.02186244
557.376	0.02203766
557.579	0.02217139
557.782	0.02232837
557.984	0.02244729
558.187	0.02257608
558.39	0.02275646
558.593	0.02286989
558.796	0.02301604
558.999	0.02318654
559.202	0.02334174
559.404	0.02343866
559.607	0.0235554
559.81	0.02372062
560.013	0.02393687
560.216	0.02404603
560.418	0.02416701
560.621	0.02430746
560.824	0.02447969
561.026	0.02467036
561.229	0.0247611
561.432	0.02489431
561.634	0.02508903
561.837	0.0252365
562.04	0.02541964
562.242	0.02556324
562.445	0.02572275
562.647	0.02589651
562.85	0.02600133
563.053	0.02617287
563.255	0.02634975
563.458	0.02648013
563.66	0.02666475
563.863	0.02682898
564.065	0.02703209
564.268	0.0272082
564.47	0.02732548
564.672	0.02746891
564.875	0.02761446
565.077	0.02778405
565.28	0.02794515
565.482	0.02808823
565.684	0.02826934
565.887	0.02843782
566.089	0.02859622
566.291	0.02875199
566.494	0.02887838
566.696	0.02903278
566.898	0.02920831
567.1	0.02933994
567.303	0.02952391
567.505	0.02972607
567.707	0.02992682
567.909	0.03012732
568.111	0.03028016
568.314	0.03045023
568.516	0.03065168
568.718	0.03085211
568.92	0.03098452
569.122	0.03114361
569.324	0.03132992
569.526	0.03151073
569.728	0.03169157
569.93	0.03187562
570.132	0.03201585
570.334	0.0322235
570.536	0.03241519
570.738	0.03257098
570.94	0.03272875
571.142	0.03287619
571.344	0.03303598
571.546	0.03317944
571.748	0.03331994
571.95	0.03347841
572.152	0.03365504
572.354	0.03382751
572.555	0.03400027
572.757	0.03421342
572.959	0.03439085
573.161	0.03459535
573.363	0.03477266
573.564	0.0349682
573.766	0.03516401
573.968	0.03534666
574.17	0.03550229
574.371	0.03568067
574.573	0.03582458
574.775	0.0360182
574.976	0.0361665
575.178	0.03635834
575.38	0.03654256
575.581	0.03670034
575.783	0.03691217
575.985	0.03712066
576.186	0.03734251
576.388	0.03754703
576.589	0.03772519
576.791	0.03792543
576.992	0.03816071
577.194	0.03836598
577.395	0.03856965
577.597	0.03870863
577.798	0.03893213
578	0.03913151
578.201	0.03934516
578.402	0.03950313
578.604	0.0396687
578.805	0.03984715
579.007	0.04004137
579.208	0.0401846
579.409	0.04032664
579.611	0.04049663
579.812	0.04071225
580.013	0.04095094
580.215	0.0411111
580.416	0.04126428
580.617	0.04143118
580.818	0.04163521
581.019	0.0417913
581.221	0.04200279
581.422	0.04214848
581.623	0.04235605
581.824	0.0425569
582.025	0.04277563
582.226	0.04296239
582.428	0.04320297
582.629	0.04335441
582.83	0.04358301
583.031	0.0437858
583.232	0.04400879
583.433	0.04420263
583.634	0.04444381
583.835	0.04462906
584.036	0.04480157
584.237	0.0449798
584.438	0.04516899
584.639	0.04537053
584.84	0.04561317
585.041	0.04583431
585.242	0.04600943
585.442	0.04625631
585.643	0.04645914
585.844	0.04669428
586.045	0.04691071
586.246	0.04708025
586.447	0.04720248
586.647	0.04737325
586.848	0.0475794
587.049	0.04777774
587.25	0.04795908
587.45	0.04817553
587.651	0.04840254
587.852	0.0485993
588.053	0.04887559
588.253	0.04906611
588.454	0.04922674
588.655	0.0494215
588.855	0.04958796
589.056	0.04976247
589.256	0.05000252
589.457	0.05014534
589.658	0.05034212
589.858	0.05061641
590.059	0.05084579
590.259	0.05104742
590.46	0.05125715
590.66	0.05141918
590.861	0.05166214
591.061	0.05185812
591.262	0.05203476
591.462	0.05223157
591.662	0.05244795
591.863	0.05263141
592.063	0.05287957
592.264	0.05305832
592.464	0.05328852
592.664	0.0534938
592.865	0.05369573
593.065	0.05386999
593.265	0.0541217
593.465	0.05435144
593.666	0.05458775
593.866	0.05475054
594.066	0.05497187
594.266	0.05515044
594.467	0.05541902
594.667	0.05557784
594.867	0.05577887
595.067	0.05594398
595.267	0.05613537
595.467	0.05631381
595.668	0.0564911
595.868	0.05669335
596.068	0.05690288
596.268	0.05709282
596.468	0.05733252
596.668	0.05752575
596.868	0.05772474
597.068	0.05792033
597.268	0.05806075
597.468	0.05825731
597.668	0.05844921
597.868	0.05866508
598.068	0.05893884
598.268	0.05913187
598.467	0.05939727
598.667	0.05958579
598.867	0.05977932
599.067	0.06000127
599.267	0.06018025
599.467	0.06031995
599.667	0.06050511
599.866	0.06066985
600.066	0.06087763
600.266	0.06106054
600.466	0.06125267
600.665	0.06142341
600.865	0.06164319
601.065	0.06187547
601.264	0.06205534
601.464	0.06227463
601.664	0.0625092
601.863	0.06267756
602.063	0.06288825
602.263	0.06303184
602.462	0.06321863
602.662	0.06345363
602.861	0.06366554
603.061	0.06383575
603.26	0.06404433
603.46	0.06417875
603.659	0.06442375
603.859	0.06459557
604.058	0.06472585
604.258	0.06489699
604.457	0.06511071
604.657	0.06526937
604.856	0.06545474
605.056	0.06560869
605.255	0.06577932
605.454	0.06600087
605.654	0.06616499
605.853	0.06630897
606.052	0.0665103
606.252	0.06674133
606.451	0.06696746
606.65	0.06719295
606.849	0.0673571
607.049	0.06757435
607.248	0.06780524
607.447	0.06796911
607.646	0.06817244
607.845	0.06834462
608.045	0.06845163
608.244	0.06866179
608.443	0.06881809
608.642	0.06900202
608.841	0.06918978
609.04	0.06930127
609.239	0.06945823
609.438	0.06961975
609.637	0.06979505
609.836	0.06998948
610.035	0.0701493
610.234	0.07037492
610.433	0.0705925
610.632	0.07078188
610.831	0.07108651
611.03	0.07125035
611.229	0.0714804
611.428	0.07163343
611.627	0.07179651
611.826	0.07200136
612.025	0.07223968
612.224	0.07238006
612.422	0.07258588
612.621	0.07273648
612.82	0.07294099
613.019	0.07312243
613.218	0.07329923
613.416	0.0734175
613.615	0.07361883
613.814	0.07382354
614.012	0.07400472
614.211	0.07416549
614.41	0.07439846
614.608	0.07458166
614.807	0.07476383
615.006	0.07494994
615.204	0.07511459
615.403	0.07531188
615.602	0.07549576
615.8	0.07567413
615.999	0.07582418
616.197	0.07600586
616.396	0.07620965
616.594	0.07638927
616.793	0.07657544
616.991	0.07676361
617.19	0.07686371
617.388	0.07709721
617.586	0.0773146
617.785	0.07744004
617.983	0.07758137
618.182	0.077703
618.38	0.07784994
618.578	0.07802332
618.777	0.07813672
618.975	0.07828566
619.173	0.07844418
619.372	0.07865214
619.57	0.07880766
619.768	0.07902394
619.966	0.07921626
620.165	0.07938213
620.363	0.07956673
620.561	0.07970214
620.759	0.07986848
620.957	0.08006077
621.155	0.08022311
621.354	0.0803566
621.552	0.08055483
621.75	0.08070963
621.948	0.08095801
622.146	0.08112031
622.344	0.0812721
622.542	0.08147316
622.74	0.08165175
622.938	0.08176408
623.136	0.08195322
623.334	0.08209673
623.532	0.08220215
623.73	0.08236756
623.928	0.08254555
624.126	0.08274039
624.324	0.08295761
624.522	0.08305238
624.719	0.08317664
624.917	0.08337056
625.115	0.08348256
625.313	0.08361124
625.511	0.08378295
625.708	0.08389309
625.906	0.08403459
626.104	0.08416594
626.302	0.08437346
626.499	0.08459462
626.697	0.08473744
626.895	0.08485382
627.093	0.08503939
627.29	0.0852677
627.488	0.08549372
627.686	0.08562303
627.883	0.08570297
628.081	0.08580756
628.278	0.08607946
628.476	0.08621635
628.673	0.08636132
628.871	0.08653061
629.068	0.0867316
629.266	0.08694397
629.463	0.08710498
629.661	0.08718203
629.858	0.08733968
630.056	0.08748002
630.253	0.08757771
630.451	0.08767571
630.648	0.08782081
630.845	0.08795821
631.043	0.08806355
631.24	0.08824866
631.438	0.08841509
631.635	0.08856752
631.832	0.08869808
632.029	0.08888036
632.227	0.08905496
632.424	0.0892633
632.621	0.08940796
632.818	0.08950288
633.016	0.08966264
633.213	0.08979747
633.41	0.0899429
633.607	0.09008106
633.804	0.09018076
634.001	0.09028815
634.199	0.09053339
634.396	0.09069442
634.593	0.09083338
634.79	0.0909599
634.987	0.09114842
635.184	0.09132144
635.381	0.09151804
635.578	0.09164026
635.775	0.09175941
635.972	0.09197741
636.169	0.09216882
636.366	0.09227662
636.563	0.0924348
636.76	0.09250628
636.957	0.09262024
637.153	0.09272001
637.35	0.09281856
637.547	0.09287371
637.744	0.09302373
637.941	0.09311081
638.138	0.09327862
638.334	0.09335538
638.531	0.09353584
638.728	0.09366839
638.925	0.09389048
639.121	0.09398695
639.318	0.09414169
639.515	0.09425591
639.711	0.09447345
639.908	0.09458202
640.105	0.09471115
640.301	0.09481323
640.498	0.09497676
640.695	0.09514087
640.891	0.09527593
641.088	0.09541649
641.284	0.09559721
641.481	0.09573887
641.677	0.09587298
641.874	0.09601138
642.07	0.09614118
642.267	0.09635787
642.463	0.0964625
642.66	0.09659793
642.856	0.09670393
643.053	0.09680988
643.249	0.09693625
643.445	0.09708765
643.642	0.0971934
643.838	0.09738739
644.034	0.09755931
644.231	0.09771088
644.427	0.09788379
644.623	0.09800908
644.82	0.09814815
645.016	0.09821036
645.212	0.09824612
645.408	0.09832748
645.604	0.09855024
645.801	0.09870143
645.997	0.09885138
646.193	0.09895247
646.389	0.09919793
646.585	0.09936146
646.781	0.09953566
646.977	0.09958723
647.173	0.09966648
647.37	0.09979505
647.566	0.09995925
647.762	0.10004053
647.958	0.10018737
648.154	0.10028619
648.35	0.10045461
648.546	0.10057072
648.742	0.10075039
648.937	0.100783
649.133	0.10088487
649.329	0.10106279
649.525	0.1011761
649.721	0.10126588
649.917	0.10148186
650.113	0.10154707
650.309	0.10174177
650.504	0.10188544
650.7	0.10197088
650.896	0.10218026
651.092	0.10232521
651.287	0.1024145
651.483	0.1026246
651.679	0.1027712
651.875	0.10294022
652.07	0.10304841
652.266	0.10314005
652.462	0.10325313
652.657	0.10340151
652.853	0.10349412
653.048	0.10359394
653.244	0.10367913
653.44	0.10382255
653.635	0.10390786
653.831	0.10414222
654.026	0.1043042
654.222	0.10445866
654.417	0.1046665
654.613	0.10486909
654.808	0.10500938
655.004	0.10516754
655.199	0.1052025
655.394	0.10527956
655.59	0.10545064
655.785	0.10552912
655.98	0.10562919
656.176	0.10574729
656.371	0.10590194
656.566	0.10604506
656.762	0.10615413
656.957	0.10624802
657.152	0.10631497
657.348	0.10644352
657.543	0.10660905
657.738	0.10675862
657.933	0.10686072
658.128	0.10700578
658.324	0.10708419
658.519	0.10725971
658.714	0.10736125
658.909	0.10749015
659.104	0.10760135
659.299	0.10777265
659.494	0.10786185
659.689	0.10801848
659.884	0.10815007
660.079	0.10829544
660.274	0.10844981
660.469	0.10863365
660.664	0.10878017
660.859	0.1089547
661.054	0.10908551
661.249	0.10924004
661.444	0.10940019
661.639	0.10947056
661.834	0.10952514
662.029	0.10966338
662.224	0.10986664
662.418	0.1100527
662.613	0.11017253
662.808	0.11029192
663.003	0.11046475
663.198	0.11064683
663.392	0.11076121
663.587	0.11091604
663.782	0.11101355
663.977	0.11115794
664.171	0.11129045
664.366	0.11141481
664.561	0.11150657
664.755	0.11169265
664.95	0.1117387
665.144	0.11182929
665.339	0.11199021
665.534	0.11212658
665.728	0.1122585
665.923	0.11241327
666.117	0.11250548
666.312	0.11260505
666.506	0.11281269
666.701	0.1129347
666.895	0.11307188
667.09	0.11319953
667.284	0.11337177
667.479	0.11349343
667.673	0.11366468
667.867	0.11382639
668.062	0.1139802
668.256	0.11411158
668.45	0.11435033
668.645	0.11439027
668.839	0.11453974
669.033	0.1147031
669.228	0.11483934
669.422	0.11501095
669.616	0.11515038
669.81	0.11522485
670.004	0.11543307
670.199	0.11558512
670.393	0.11572558
670.587	0.11585888
670.781	0.11595201
670.975	0.11615802
671.169	0.1162694
671.363	0.11636142
671.558	0.11650135
671.752	0.11665167
671.946	0.11679774
672.14	0.11696744
672.334	0.11705821
672.528	0.11729329
672.722	0.11749877
672.916	0.11769553
673.11	0.11781931
673.304	0.11805496
673.497	0.11819443
673.691	0.11840796
673.885	0.11849655
674.079	0.11867959
674.273	0.11877745
674.467	0.11898651
674.661	0.11906026
674.854	0.11919254
675.048	0.11931582
675.242	0.11947274
675.436	0.1195578
675.629	0.1197252
675.823	0.11981036
676.017	0.11998558
676.211	0.12011085
676.404	0.12020548
676.598	0.12031985
676.792	0.12046766
676.985	0.12060812
677.179	0.12083818
677.372	0.12092485
677.566	0.12114405
677.76	0.12137596
677.953	0.12157277
678.147	0.12179173
678.34	0.12196477
678.534	0.12204962
678.727	0.12226593
678.921	0.12244935
679.114	0.12252122
679.307	0.12272955
679.501	0.12290735
679.694	0.12310346
679.888	0.12327788
680.081	0.12343942
680.274	0.12354344
680.468	0.12382041
680.661	0.12392877
680.854	0.1241201
681.048	0.12427056
681.241	0.12446514
681.434	0.12457392
681.627	0.12479521
681.821	0.12494575
682.014	0.12518864
682.207	0.1252971
682.4	0.1254502
682.593	0.12566734
682.786	0.12584363
682.98	0.12596145
683.173	0.12610147
683.366	0.12621777
683.559	0.12638712
683.752	0.12654669
683.945	0.12668731
684.138	0.12690864
684.331	0.12708876
684.524	0.12727258
684.717	0.12740671
684.91	0.12762516
685.103	0.12780905
685.296	0.12798403
685.489	0.12811192
685.682	0.12827304
685.874	0.12843612
686.067	0.12863448
686.26	0.1287609
686.453	0.12891193
686.646	0.12905332
686.839	0.12921928
687.031	0.12941417
687.224	0.12954603
687.417	0.12972462
687.61	0.12986635
687.802	0.13003184
687.995	0.13020345
688.188	0.1304134
688.38	0.1305801
688.573	0.13075953
688.766	0.13092989
688.958	0.13110387
689.151	0.13131144
689.343	0.13149793
689.536	0.13162125
689.729	0.13177076
689.921	0.13196489
690.114	0.1321036
690.306	0.13232791
690.499	0.1324918
690.691	0.13267676
690.884	0.13287971
691.076	0.13306704
691.268	0.13321645
691.461	0.13337754
691.653	0.13352772
691.846	0.13374482
692.038	0.13390917
692.23	0.13404358
692.423	0.13424065
692.615	0.13441524
692.807	0.13457869
692.999	0.13479018
693.192	0.13491566
693.384	0.13512264
693.576	0.13531978
693.768	0.13550493
693.961	0.13568301
694.153	0.13591683
694.345	0.13605603
694.537	0.13621683
694.729	0.1363296
694.921	0.13647727
695.113	0.13662485
695.305	0.13682837
695.498	0.13695977
695.69	0.13718111
695.882	0.13734711
696.074	0.13756388
696.266	0.13778719
696.458	0.13797696
696.65	0.13812648
696.842	0.13834108
697.033	0.1384886
697.225	0.13868222
697.417	0.1389055
697.609	0.13911657
697.801	0.13930558
697.993	0.13955419
698.185	0.13973084
698.376	0.1399259
698.568	0.14013833
698.76	0.14030238
698.952	0.14042985
699.144	0.14057729
699.335	0.14075639
699.527	0.14091892
699.719	0.14112072
699.91	0.14134647
700.102	0.14146192
700.294	0.14168859
700.485	0.14192569
700.677	0.14208258
700.869	0.14229745
701.06	0.14246627
701.252	0.14259007
701.443	0.14281326
701.635	0.14297844
701.826	0.14316513
702.018	0.14334169
702.209	0.14353844
702.401	0.14364813
702.592	0.14384213
702.784	0.14400879
702.975	0.14421844
703.166	0.14438381
703.358	0.14456751
703.549	0.1447628
703.741	0.14501481
703.932	0.14519151
704.123	0.14537187
704.315	0.1455058
704.506	0.14567948
704.697	0.14585328
704.888	0.14606925
705.08	0.14625613
705.271	0.14645747
705.462	0.14660727
705.653	0.14683343
705.844	0.14698025
706.035	0.14718769
706.227	0.14728595
706.418	0.14746485
706.609	0.14765136
706.8	0.14793757
706.991	0.14811925
707.182	0.14835206
707.373	0.14852888
707.564	0.14873635
707.755	0.14889626
707.946	0.14904652
708.137	0.14916901
708.328	0.1493237
708.519	0.14952063
708.71	0.14965788
708.901	0.14982719
709.092	0.1500747
709.283	0.15023923
709.473	0.15044925
709.664	0.15066025
709.855	0.15078883
710.046	0.15109326
710.237	0.15133697
710.427	0.15148989
710.618	0.15176634
710.809	0.15194154
711	0.15215007
711.19	0.15234386
711.381	0.15248423
711.572	0.15264751
711.762	0.15291481
711.953	0.15304638
712.144	0.15323277
712.334	0.15342402
712.525	0.15362321
712.715	0.1538479
712.906	0.15401586
713.097	0.15408175
713.287	0.15424792
713.478	0.15438622
713.668	0.15451114
713.859	0.15473082
714.049	0.15484864
714.239	0.15503407
714.43	0.1552651
714.62	0.15548008
714.811	0.15574941
715.001	0.15598515
715.191	0.15614032
715.382	0.15628884
715.572	0.15646803
715.762	0.15656217
715.953	0.15668627
716.143	0.15677904
716.333	0.15691767
716.523	0.15707654
716.714	0.15731163
716.904	0.15749046
717.094	0.15772894
717.284	0.15795186
717.474	0.1581475
717.664	0.15835427
717.855	0.15852451
718.045	0.15867705
718.235	0.15886814
718.425	0.15908266
718.615	0.15926857
718.805	0.15950666
718.995	0.15967731
719.185	0.15993487
719.375	0.16013121
719.565	0.16030646
719.755	0.16044643
719.945	0.16064682
720.135	0.16083241
720.325	0.16105181
720.515	0.16124026
720.704	0.16142372
720.894	0.16166238
721.084	0.16186375
721.274	0.16207438
721.464	0.16227308
721.654	0.16245869
721.843	0.1626285
722.033	0.16284316
722.223	0.1630065
722.413	0.16327694
722.602	0.16341648
722.792	0.16362081
722.982	0.16381139
723.171	0.16397562
723.361	0.16413507
723.55	0.1643669
723.74	0.1644776
723.93	0.16469587
724.119	0.16484053
724.309	0.16498061
724.498	0.16514381
724.688	0.16533487
724.877	0.16546841
725.067	0.16563042
725.256	0.16573356
725.446	0.16592983
725.635	0.16612979
725.825	0.16632785
726.014	0.16647792
726.203	0.16663333
726.393	0.16677461
726.582	0.16697368
726.771	0.16711033
726.961	0.16722814
727.15	0.1673405
727.339	0.16746177
727.529	0.16761853
727.718	0.16772978
727.907	0.16785855
728.096	0.16795729
728.286	0.16805757
728.475	0.16822248
728.664	0.16833302
728.853	0.16845018
729.042	0.16860859
729.231	0.16876562
729.42	0.16886785
729.609	0.1689872
729.799	0.16910058
729.988	0.16926763
730.177	0.16934114
730.366	0.16947554
730.555	0.16955769
730.744	0.16969652
730.933	0.16985262
731.122	0.16997015
731.31	0.17008304
731.499	0.17014613
731.688	0.17029649
731.877	0.17044796
732.066	0.17058912
732.255	0.17071154
732.444	0.17082638
732.632	0.17094402
732.821	0.1710818
733.01	0.17118486
733.199	0.17124188
733.388	0.17135722
733.576	0.17149633
733.765	0.17160764
733.954	0.17175515
734.142	0.17194118
734.331	0.17203994
734.52	0.17220217
734.708	0.17234997
734.897	0.17245042
735.086	0.17256642
735.274	0.1726405
735.463	0.17275495
735.651	0.17293028
735.84	0.17304948
736.028	0.17320131
736.217	0.17334983
736.405	0.17347506
736.594	0.17360343
736.782	0.17375358
736.971	0.1738449
737.159	0.17397105
737.347	0.17406027
737.536	0.17413409
737.724	0.17426236
737.912	0.17437186
738.101	0.17440848
738.289	0.17451176
738.477	0.17463325
738.666	0.17470336
738.854	0.1748106
739.042	0.17485628
739.23	0.17495872
739.418	0.17510194
739.607	0.17517596
739.795	0.17526584
739.983	0.17540542
740.171	0.17550389
740.359	0.17566415
740.547	0.17575732
740.735	0.17590061
740.923	0.17604247
741.112	0.17612854
741.3	0.17618224
741.488	0.17626314
741.676	0.17640427
741.864	0.17651619
742.052	0.17665373
742.239	0.17670089
742.427	0.17676976
742.615	0.17691078
742.803	0.17703947
742.991	0.17707005
743.179	0.17716733
743.367	0.17717815
743.555	0.17732301
743.742	0.17747398
743.93	0.1776089
744.118	0.17769165
744.306	0.17779552
744.494	0.1778535
744.681	0.17789675
744.869	0.17791054
745.057	0.17799614
745.244	0.17799103
745.432	0.17806776
745.62	0.1781907
745.807	0.17829311
745.995	0.17839229
746.182	0.17853233
746.37	0.17856939
746.558	0.17867048
746.745	0.17872804
746.933	0.17874886
747.12	0.17880541
747.308	0.17892142
747.495	0.17899416
747.683	0.17908841
747.87	0.17917386
748.057	0.1792683
748.245	0.17938716
748.432	0.17949774
748.62	0.17956799
748.807	0.179609
748.994	0.17967425
749.182	0.17973008
749.369	0.17974811
749.556	0.17978302
749.743	0.17985145
749.931	0.17985232
750.118	0.17994322
750.305	0.18004411
750.492	0.18009494
750.68	0.18023192
750.867	0.1802844
751.054	0.18035719
751.241	0.18047631
751.428	0.18058088
751.615	0.18059212
751.802	0.18064355
751.989	0.18069049
752.176	0.18073505
752.363	0.18075074
752.55	0.1808289
752.737	0.18082998
752.924	0.1808887
753.111	0.18097151
753.298	0.18097565
753.485	0.181072
753.672	0.18115293
753.859	0.18116492
754.046	0.18120908
754.233	0.18123268
754.42	0.18126942
754.606	0.18133061
754.793	0.18135976
754.98	0.18137914
755.167	0.18141728
755.353	0.1814601
755.54	0.18156439
755.727	0.18159588
755.914	0.18164805
756.1	0.18164925
756.287	0.18170181
756.474	0.18169055
756.66	0.1817471
756.847	0.18171451
757.033	0.18172048
757.22	0.18175215
757.407	0.18183021
757.593	0.18188553
757.78	0.18195998
757.966	0.18193313
758.153	0.18198034
758.339	0.182027
758.526	0.18203851
758.712	0.18199804
758.898	0.18202505
759.085	0.1820199
759.271	0.18205868
759.458	0.18206887
759.644	0.18210162
759.83	0.18215581
760.017	0.18225107
760.203	0.18222634
760.389	0.18222544
760.576	0.18226034
760.762	0.18229734
760.948	0.18231427
761.134	0.18227319
761.32	0.18225017
761.507	0.18225294
761.693	0.1823133
761.879	0.18230678
762.065	0.18230114
762.251	0.18230989
762.437	0.18237985
762.623	0.18239173
762.809	0.18238024
762.995	0.18237279
763.181	0.18237872
763.367	0.18234724
763.553	0.18233258
763.739	0.18231264
763.925	0.18227148
764.111	0.18228781
764.297	0.18229942
764.483	0.18228975
764.669	0.18225207
764.855	0.18227781
765.041	0.18224258
765.227	0.18215978
765.412	0.1821737
765.598	0.18216091
765.784	0.18215245
765.97	0.18223392
766.156	0.18213852
766.341	0.1820847
766.527	0.18213172
766.713	0.1820809
766.898	0.18201006
767.084	0.18200652
767.27	0.18195811
767.455	0.18195752
767.641	0.18198006
767.827	0.18198051
768.012	0.18201135
768.198	0.18205256
768.383	0.18201172
768.569	0.18194197
768.754	0.18193459
768.94	0.1818752
769.125	0.18186873
769.311	0.18183383
769.496	0.18183177
769.682	0.18182173
769.867	0.18182438
770.052	0.18183255
770.238	0.18186375
770.423	0.18184042
770.608	0.18176295
770.794	0.18166216
770.979	0.18155432
771.164	0.18152808
771.35	0.18147087
771.535	0.18142073
771.72	0.18130925
771.905	0.18128781
772.09	0.18126385
772.276	0.18132255
772.461	0.181297
772.646	0.18121519
772.831	0.18115284
773.016	0.18115875
773.201	0.18107389
773.386	0.18101791
773.571	0.1808761
773.756	0.18083941
773.941	0.18076328
774.126	0.1806987
774.311	0.18058239
774.496	0.18054243
774.681	0.18049832
774.866	0.18039733
775.051	0.18023346
775.236	0.18018319
775.421	0.18003703
775.606	0.17997935
775.791	0.17985034
775.976	0.1797133
776.16	0.17965692
776.345	0.17961552
776.53	0.17956
776.715	0.17960714
776.899	0.17951619
777.084	0.17951391
777.269	0.17946064
777.454	0.17940463
777.638	0.17931694
777.823	0.17924382
778.008	0.17907948
778.192	0.17908287
778.377	0.17896612
778.561	0.17893137
778.746	0.17889382
778.931	0.17883664
779.115	0.17878535
779.3	0.17874793
779.484	0.1786119
779.669	0.17855143
779.853	0.17841585
780.037	0.17834306
780.222	0.17828844
780.406	0.17814499
780.591	0.17803609
780.775	0.17791271
780.959	0.17780289
781.144	0.17768083
781.328	0.17755759
781.512	0.17740884
781.697	0.17731657
781.881	0.17717363
782.065	0.17703879
782.249	0.17689268
782.434	0.17683506
782.618	0.17665876
782.802	0.17657317
782.986	0.17649007
783.17	0.17646982
783.354	0.17637111
783.539	0.17625913
783.723	0.1761249
783.907	0.17597941
784.091	0.17582456
784.275	0.17566197
784.459	0.17546213
784.643	0.17540205
784.827	0.17531079
785.011	0.17522661
785.195	0.17518127
785.379	0.17509442
785.563	0.17500565
785.747	0.17491472
785.93	0.17483109
786.114	0.17464626
786.298	0.17447931
786.482	0.17434535
786.666	0.17421463
786.85	0.17410764
787.033	0.17403534
787.217	0.17390945
787.401	0.17389289
787.585	0.17379235
787.768	0.17372341
787.952	0.17355521
788.136	0.17336792
788.319	0.17323739
788.503	0.17303134
788.687	0.17285438
788.87	0.17273413
789.054	0.17257126
789.237	0.17249879
789.421	0.17235561
789.605	0.172208
789.788	0.1720885
789.972	0.17193429
790.155	0.17174586
790.338	0.17154852
790.522	0.17138852
790.705	0.17128974
790.889	0.17111255
791.072	0.17098798
791.256	0.17087108
791.439	0.17072913
791.622	0.17063976
791.806	0.17051771
791.989	0.17032944
792.172	0.17016994
792.355	0.16993611
792.539	0.16976704
792.722	0.16960848
792.905	0.16942643
793.088	0.16923066
793.271	0.16906149
793.455	0.16894696
793.638	0.16893085
793.821	0.16877853
794.004	0.16871212
794.187	0.16861043
794.37	0.16847862
794.553	0.16833257
794.736	0.16810389
794.919	0.16785834
795.102	0.16772773
795.285	0.16753445
795.468	0.16730988
795.651	0.16713473
795.834	0.16703811
796.017	0.16693826
796.2	0.16687061
796.383	0.16673828
796.566	0.16660322
796.749	0.16646067
796.931	0.16634368
797.114	0.16614957
797.297	0.16602845
797.48	0.16577543
797.663	0.16562643
797.845	0.16543074
798.028	0.16530715
798.211	0.16510461
798.393	0.16496885
798.576	0.16479318
798.759	0.16465721
798.941	0.16444516
799.124	0.16432889
799.307	0.16410274
799.489	0.1639172
799.672	0.16365457
799.854	0.16340085
800.037	0.16323601
800.219	0.16307351
800.402	0.16287623
800.584	0.162782
800.767	0.16266484
800.949	0.16257109
801.132	0.16244572
801.314	0.16224555
801.496	0.16199107
801.679	0.1617917
801.861	0.16159134
802.043	0.16132852
802.226	0.16117701
802.408	0.16101765
802.59	0.16091002
802.772	0.1608203
802.955	0.16065457
803.137	0.16044792
803.319	0.16029453
803.501	0.16004739
803.684	0.1598118
803.866	0.15950465
804.048	0.15923332
804.23	0.15903211
804.412	0.15882218
804.594	0.15862182
804.776	0.15850448
804.958	0.15831736
805.14	0.15814545
805.322	0.15796304
805.504	0.15774538
805.686	0.15755044
805.868	0.1573877
806.05	0.15709035
806.232	0.15687945
806.414	0.15669997
806.596	0.15655098
806.778	0.15635314
806.96	0.15616633
807.141	0.15591228
807.323	0.15579772
807.505	0.15558836
807.687	0.15542234
807.869	0.15518352
808.05	0.15496036
808.232	0.15473743
808.414	0.15454192
808.595	0.15426917
808.777	0.15401721
808.959	0.15377326
809.14	0.15354852
809.322	0.15334757
809.504	0.15313528
809.685	0.15294098
809.867	0.15275537
810.048	0.15258541
810.23	0.15242367
810.411	0.15226798
810.593	0.15210835
810.774	0.15192355
810.956	0.15171445
811.137	0.15149239
811.319	0.15132285
811.5	0.15107949
811.681	0.15080567
811.863	0.15058446
812.044	0.15038192
812.225	0.15018189
812.407	0.14999253
812.588	0.14972564
812.769	0.14952471
812.951	0.14936884
813.132	0.14911212
813.313	0.14884903
813.494	0.14863638
813.675	0.1483978
813.857	0.14821266
814.038	0.1480308
814.219	0.14781489
814.4	0.14759949
814.581	0.14739478
814.762	0.14712709
814.943	0.14689424
815.124	0.14669087
815.305	0.14638027
815.486	0.1461137
815.667	0.14587122
815.848	0.14562106
816.029	0.14537124
816.21	0.14513306
816.391	0.14487276
816.572	0.14469048
816.753	0.14448063
816.934	0.14424532
817.115	0.14407688
817.295	0.14389187
817.476	0.14361585
817.657	0.1433626
817.838	0.14312653
818.019	0.14291215
818.199	0.14272593
818.38	0.142436
818.561	0.14221529
818.741	0.14201766
818.922	0.14186181
819.103	0.14169719
819.283	0.14148273
819.464	0.14122627
819.645	0.14099642
819.825	0.14081542
820.006	0.14057843
820.186	0.14032642
820.367	0.14003971
820.547	0.13972755
820.728	0.13946723
820.908	0.13926618
821.089	0.13903977
821.269	0.13887922
821.45	0.13868353
821.63	0.13839518
821.81	0.13818338
821.991	0.13795597
822.171	0.13772984
822.351	0.13741592
822.532	0.13714926
822.712	0.13680682
822.892	0.13663985
823.072	0.13643542
823.253	0.13616399
823.433	0.13588764
823.613	0.13567166
823.793	0.13539068
823.973	0.13519394
824.154	0.13492474
824.334	0.13462181
824.514	0.13438645
824.694	0.13415359
824.874	0.1339172
825.054	0.13368787
825.234	0.13340782
825.414	0.13314258
825.594	0.13294202
825.774	0.13279196
825.954	0.13261432
826.134	0.13239215
826.314	0.1322447
826.494	0.13209395
826.674	0.1317857
826.854	0.13156396
827.033	0.13127712
827.213	0.13102788
827.393	0.13071508
827.573	0.13044865
827.753	0.13019046
827.932	0.13000858
828.112	0.12977953
828.292	0.12955879
828.472	0.12929139
828.651	0.12916995
828.831	0.12889982
829.011	0.12859301
829.19	0.12836348
829.37	0.1280775
829.549	0.12785965
829.729	0.12757577
829.909	0.12715165
830.088	0.12680158
830.268	0.12656505
830.447	0.12627413
830.627	0.12599998
830.806	0.12571942
830.986	0.12545721
831.165	0.1253442
831.344	0.1251912
831.524	0.12495002
831.703	0.12463787
831.883	0.12437408
832.062	0.12398671
832.241	0.12366257
832.421	0.12338998
832.6	0.12311875
832.779	0.12280343
832.958	0.12261969
833.138	0.12238147
833.317	0.12226313
833.496	0.1221654
833.675	0.12184605
833.854	0.1216068
834.034	0.12140432
834.213	0.12111518
834.392	0.12089049
834.571	0.12057225
834.75	0.12030357
834.929	0.12004733
835.108	0.11970665
835.287	0.11952169
835.466	0.11931726
835.645	0.11903105
835.824	0.11877528
836.003	0.11850034
836.182	0.11829746
836.361	0.11806992
836.54	0.11771253
836.719	0.11749305
836.897	0.11723707
837.076	0.11697425
837.255	0.116684
837.434	0.11640421
837.613	0.11608362
837.791	0.11592076
837.97	0.11565576
838.149	0.11535749
838.328	0.11507467
838.506	0.11481316
838.685	0.11455447
838.864	0.11442562
839.042	0.11412966
839.221	0.11380689
839.4	0.11359312
839.578	0.11338142
839.757	0.11302958
839.935	0.11272253
840.114	0.1124947
840.292	0.11221699
840.471	0.11201843
840.649	0.11175383
840.828	0.11152369
841.006	0.11143011
841.185	0.11119148
841.363	0.1108812
841.541	0.11066056
841.72	0.11041438
841.898	0.11020892
842.076	0.10994728
842.255	0.10954713
842.433	0.10928377
842.611	0.10896757
842.789	0.10872352
842.968	0.10855383
843.146	0.10833233
843.324	0.10807792
843.502	0.107907
843.68	0.10775501
843.859	0.1075965
844.037	0.10736682
844.215	0.10704355
844.393	0.10688248
844.571	0.10664078
844.749	0.10634893
844.927	0.10603428
845.105	0.10575834
845.283	0.10544162
845.461	0.10512581
845.639	0.10469942
845.817	0.10436704
845.995	0.10423401
846.173	0.10400014
846.351	0.10374408
846.529	0.10355275
846.706	0.1033812
846.884	0.10319646
847.062	0.10294199
847.24	0.10263717
847.418	0.10236187
847.595	0.10211875
847.773	0.10182182
847.951	0.10152159
848.129	0.10129019
848.306	0.1010919
848.484	0.10085404
848.662	0.10070608
848.839	0.10052742
849.017	0.10028111
849.194	0.10010211
849.372	0.09980534
849.549	0.09954688
849.727	0.09926134
849.905	0.09888199
850.082	0.0984758
850.26	0.09817309
850.437	0.0978373
850.614	0.09758027
850.792	0.09735773
850.969	0.09719643
851.147	0.09703823
851.324	0.09686732
851.501	0.09666902
851.679	0.09646251
851.856	0.09618854
852.033	0.09600068
852.211	0.09564006
852.388	0.09529406
852.565	0.09507796
852.742	0.09481846
852.92	0.09452746
853.097	0.09425354
853.274	0.09401021
853.451	0.09386111
853.628	0.09368743
853.805	0.09342893
853.982	0.09327251
854.159	0.09307063
854.336	0.09292986
854.514	0.09261749
854.691	0.09231079
854.868	0.09199402
855.045	0.09175442
855.221	0.0914479
855.398	0.09122839
855.575	0.09090975
855.752	0.0906661
855.929	0.09047594
856.106	0.09034265
856.283	0.09011761
856.46	0.08988828
856.637	0.08965759
856.813	0.08952329
856.99	0.08927242
857.167	0.08894764
857.344	0.08863451
857.52	0.0883772
857.697	0.08807111
857.874	0.08774151
858.05	0.08745189
858.227	0.08718791
858.404	0.08706751
858.58	0.08693046
858.757	0.08671439
858.933	0.08649087
859.11	0.08628228
859.287	0.08602213
859.463	0.08583252
859.64	0.08552694
859.816	0.08516063
859.993	0.08480951
860.169	0.08460501
860.345	0.08428782
860.522	0.08407985
860.698	0.08385104
860.875	0.0835878
861.051	0.08342998
861.227	0.08331968
861.404	0.08309074
861.58	0.0829969
861.756	0.0827629
861.932	0.08258574
862.109	0.08240778
862.285	0.08210132
862.461	0.08178044
862.637	0.08162618
862.813	0.08139751
862.99	0.08121203
863.166	0.08094457
863.342	0.0807361
863.518	0.08054813
863.694	0.0804766
863.87	0.08029743
864.046	0.08009347
864.222	0.0798317
864.398	0.07963227
864.574	0.07933638
864.75	0.07912424
864.926	0.07874661
865.102	0.07834955
865.278	0.07796421
865.454	0.07773386
865.63	0.07743134
865.805	0.07724992
865.981	0.07700671
866.157	0.07691903
866.333	0.07675699
866.509	0.07674297
866.684	0.07650346
866.86	0.07647432
867.036	0.07634051
867.212	0.07619091
867.387	0.07594871
867.563	0.07579442
867.739	0.07554133
867.914	0.0753334
868.09	0.07486871
868.265	0.07458768
868.441	0.07431738
868.617	0.07413424
868.792	0.0738645
868.968	0.07361907
869.143	0.0734071
869.319	0.07338971
869.494	0.07318198
869.67	0.07306251
869.845	0.07279326
870.02	0.07255751
870.196	0.07230306
870.371	0.07202565
870.546	0.071781
870.722	0.07147837
870.897	0.07117318
871.072	0.07094648
871.248	0.07071398
871.423	0.07050869
871.598	0.07032254
871.773	0.07008329
871.949	0.06995407
872.124	0.06973025
872.299	0.06954873
872.474	0.06934428
872.649	0.06903841
872.824	0.06893883
872.999	0.06865903
873.174	0.06837398
873.349	0.06815601
873.524	0.06783078
873.699	0.06762889
873.874	0.06752718
874.049	0.06719728
874.224	0.06699194
874.399	0.06679349
874.574	0.06660776
874.749	0.06649169
874.924	0.06634586
875.099	0.06614804
875.274	0.06595066
875.449	0.06572439
875.623	0.0655287
875.798	0.06525702
875.973	0.06497473
876.148	0.06457967
876.322	0.06424013
876.497	0.06399952
876.672	0.06381421
876.846	0.06358519
877.021	0.06340244
877.196	0.06321531
877.37	0.06319831
877.545	0.06305462
877.72	0.06291175
877.894	0.06271275
878.069	0.06241743
878.243	0.06215738
878.418	0.06201151
878.592	0.06173012
878.767	0.06145245
878.941	0.06124878
879.116	0.06105516
879.29	0.06099837
879.464	0.06092933
879.639	0.06066854
879.813	0.06061413
879.987	0.06060285
880.162	0.06039282
880.336	0.06015735
880.51	0.05986153
880.685	0.05954352
880.859	0.05930116
881.033	0.05890273
881.207	0.05865541
881.381	0.05847387
881.556	0.05830171
881.73	0.05817011
881.904	0.05813875
882.078	0.05805183
882.252	0.05794614
882.426	0.05781429
882.6	0.05767426
882.774	0.05753721
882.948	0.05744116
883.122	0.05724888
883.296	0.05698068
883.47	0.05676808
883.644	0.05646906
883.818	0.05619622
883.992	0.05601404
884.166	0.05574859
884.34	0.05549375
884.514	0.05538505
884.687	0.05523383
884.861	0.0551
885.035	0.05492725
885.209	0.05472471
885.382	0.05459808
885.556	0.05455845
885.73	0.05433194
885.904	0.05414227
886.077	0.05400199
886.251	0.05378263
886.425	0.05353021
886.598	0.05325665
886.772	0.05288121
886.945	0.05279462
887.119	0.05264534
887.292	0.05238298
887.466	0.05223613
887.64	0.05210949
887.813	0.05203831
887.986	0.05197079
888.16	0.05182582
888.333	0.05162739
888.507	0.05144829
888.68	0.0512594
888.854	0.05108486
889.027	0.05082997
889.2	0.05065127
889.374	0.05041479
889.547	0.05024179
889.72	0.05017236
889.893	0.05001512
890.067	0.04988418
890.24	0.04971456
890.413	0.04955686
890.586	0.04936455
890.759	0.0491878
890.933	0.04900966
891.106	0.0489314
891.279	0.04867974
891.452	0.04857671
891.625	0.04837482
891.798	0.04827262
891.971	0.04811538
892.144	0.0479015
892.317	0.04766388
892.49	0.04758034
892.663	0.04730573
892.836	0.04706759
893.009	0.04690931
893.182	0.04681446
893.355	0.0467188
893.527	0.04664638
893.7	0.04655321
893.873	0.04652279
894.046	0.04646658
894.219	0.04617997
894.391	0.04597559
894.564	0.04571941
894.737	0.04542514
894.91	0.0452331
895.082	0.04499524
895.255	0.04487623
895.428	0.04469108
895.6	0.04447537
895.773	0.04425848
895.945	0.04413792
896.118	0.04390137
896.291	0.04385399
896.463	0.04366896
896.636	0.04357434
896.808	0.04339162
896.981	0.04335088
897.153	0.04313718
897.326	0.04308342
897.498	0.04282347
897.67	0.04255945
897.843	0.0423174
898.015	0.04229899
898.187	0.04209869
898.36	0.04186055
898.532	0.04165377
898.704	0.04150749
898.877	0.04144145
899.049	0.04135842
899.221	0.0411511
899.393	0.04100976
899.566	0.04102562
899.738	0.04086128
899.91	0.04071418
900.082	0.04053565
900.254	0.0405063
900.426	0.04035539
900.598	0.04024389
900.77	0.04004793
900.942	0.03985826
901.114	0.03964085
901.286	0.03951046
901.458	0.03929512
901.63	0.03905565
901.802	0.03891501
901.974	0.03885455
902.146	0.03868195
902.318	0.03862237
902.49	0.03850724
902.662	0.03826194
902.834	0.03812811
903.005	0.03795294
903.177	0.03783152
903.349	0.03783381
903.521	0.03765781
903.693	0.03732569
903.864	0.03733041
904.036	0.03716967
904.208	0.03708142
904.379	0.0368083
904.551	0.03667348
904.723	0.03652174
904.894	0.03649091
905.066	0.03626008
905.237	0.03619651
905.409	0.03613832
905.58	0.03621034
905.752	0.03609333
905.923	0.03609066
906.095	0.03606821
906.266	0.03608818
906.438	0.03597788
906.609	0.03560293
906.78	0.03528848
906.952	0.03502367
907.123	0.03488533
907.295	0.03464706
907.466	0.03440551
907.637	0.03429204
907.808	0.03432998
907.98	0.03422005
908.151	0.03422514
908.322	0.03413148
908.493	0.03403689
908.665	0.03394552
908.836	0.03388115
909.007	0.03376138
909.178	0.03360296
909.349	0.03336242
909.52	0.03312099
909.691	0.03287595
909.862	0.03271753
910.033	0.03253246
910.204	0.03237834
910.375	0.03237133
910.546	0.03243383
910.717	0.03238847
910.888	0.03246317
911.059	0.03246039
911.23	0.0324063
911.401	0.03230092
911.572	0.03214223
911.742	0.03192968
911.913	0.03176988
912.084	0.03154662
912.255	0.03125821
912.426	0.03097539
912.596	0.0308363
912.767	0.03075113
912.938	0.03067474
913.108	0.0304555
913.279	0.03040455
913.45	0.03039234
913.62	0.03040959
913.791	0.03038283
913.962	0.03026941
914.132	0.03007468
914.303	0.03005089
914.473	0.02990505
914.644	0.02972747
914.814	0.02948571
914.985	0.0292465
915.155	0.02905297
915.326	0.02888155
915.496	0.02863841
915.666	0.02847132
915.837	0.02829073
916.007	0.02824754
916.177	0.02805826
916.348	0.02793427
916.518	0.02785901
916.688	0.02792607
916.858	0.02784459
917.029	0.02792007
917.199	0.02778665
917.369	0.02776771
917.539	0.02767198
917.709	0.02755509
917.88	0.02724846
918.05	0.02711909
918.22	0.02679346
918.39	0.02670387
918.56	0.0266001
918.73	0.02648316
918.9	0.02633501
919.07	0.0263324
919.24	0.02617532
919.41	0.02620169
919.58	0.02620844
919.75	0.02616007
919.92	0.02615895
920.09	0.02615086
920.26	0.02618823
920.429	0.02616879
920.599	0.02606162
920.769	0.0258907
920.939	0.02580541
921.109	0.02552562
921.278	0.02523508
921.448	0.02507563
921.618	0.02479592
921.787	0.02466826
921.957	0.0244521
922.127	0.02433767
922.296	0.02430168
922.466	0.02431185
922.636	0.02424487
922.805	0.02440887
922.975	0.02424853
923.144	0.02415299
923.314	0.02394961
923.483	0.0238512
923.653	0.02378714
923.822	0.02351805
923.992	0.02339239
924.161	0.02325249
924.331	0.02322443
924.5	0.023187
924.669	0.02312659
924.839	0.02291866
925.008	0.02290854
925.177	0.02281141
925.347	0.02285233
925.516	0.02283076
925.685	0.02281871
925.854	0.02287261
926.023	0.02307047
926.193	0.02293982
926.362	0.02297025
926.531	0.0228367
926.7	0.02258585
926.869	0.02241426
927.038	0.02225411
927.207	0.02200647
927.376	0.02198158
927.545	0.0217176
927.715	0.02170375
927.884	0.02182947
928.052	0.02184524
928.221	0.02178354
928.39	0.02156913
928.559	0.02160726
928.728	0.02162955
928.897	0.02153951
929.066	0.02143567
929.235	0.02154961
929.404	0.02151841
929.572	0.02178084
929.741	0.02180106
929.91	0.021789
930.079	0.02170529
930.247	0.02169693
930.416	0.02126787
930.585	0.0212285
930.753	0.02107899
930.922	0.02101528
931.091	0.02082397
931.259	0.02063583
931.428	0.02056461
931.596	0.02050964
931.765	0.02046081
931.934	0.0201552
932.102	0.01984656
932.27	0.01977881
932.439	0.01985327
932.607	0.01965373
932.776	0.01964002
932.944	0.01936813
933.113	0.01940656
933.281	0.01951096
933.449	0.01941239
933.618	0.01924369
933.786	0.01916804
933.954	0.01910833
934.123	0.01896746
934.291	0.01905516
934.459	0.01883793
934.627	0.01876516
934.795	0.0188854
934.964	0.01904875
935.132	0.01911985
935.3	0.01923685
935.468	0.01905853
935.636	0.01885213
935.804	0.01877143
935.972	0.01851022
936.14	0.01818554
936.308	0.01802342
936.476	0.01789214
936.644	0.01781669
936.812	0.01795669
936.98	0.01817803
937.148	0.01823643
937.316	0.01830945
937.484	0.01849882
937.652	0.01865916
937.82	0.0189291
937.987	0.01926506
938.155	0.01909498
938.323	0.01926966
938.491	0.01937078
938.658	0.01910985
938.826	0.01888397
938.994	0.01910081
939.162	0.01874513
939.329	0.01889477
939.497	0.01925175
939.665	0.01909155
939.832	0.01934557
940	0.01958494
940.167	0.01919145
940.335	0.01951594
940.502	0.01984158
940.67	0.01947642
940.837	0.02052225
941.005	0.02044684
941.172	0.02089006
941.34	0.02104136
941.507	0.02182934
941.674	0.02166573
941.842	0.02157313
942.009	0.02115179
942.177	0.02150346
942.344	0.0218926
942.511	0.02182697
942.678	0.02112288
942.846	0.02093742
943.013	0.02174595
943.18	0.02098081
943.347	0.02037634
943.514	0.01971123
943.682	0.0198048
943.849	0.01922781
944.016	0.01886672
944.183	0.01870012
944.35	0.01959572
944.517	0.02042874
944.684	0.02072874
944.851	0.02054865
945.018	0.02097917
945.185	0.02160476
945.352	0.02149748
945.519	0.02094915
945.686	0.02087777
945.853	0.02146874
946.02	0.02156626
946.187	0.0216858
946.353	0.02176849
946.52	0.02180342
946.687	0.02238292
946.854	0.02257835
947.021	0.02196634
947.187	0.0218138
947.354	0.02129848
947.521	0.02117494
947.687	0.01950446
947.854	0.01834873
948.021	0.01711959
948.187	0.01671834
948.354	0.01685342
948.52	0.01672779
948.687	0.01611906
948.854	0.01685131
949.02	0.01697313
949.187	0.01734369
949.353	0.01733226
949.52	0.01630566
949.686	0.01600754
949.852	0.01623053
950.019	0.01636795
950.185	0.01618185
950.352	0.01608757
950.518	0.01603711
950.684	0.01690201
950.851	0.01736565
951.017	0.01681403
951.183	0.01637265
951.349	0.0157853
951.516	0.01538769
951.682	0.01485405
951.848	0.01369533
952.014	0.01323261
952.18	0.01316759
952.346	0.01330487
952.512	0.01339501
952.679	0.01345885
952.845	0.01277761
953.011	0.01333812
953.177	0.01315147
953.343	0.01347517
953.509	0.01331598
953.675	0.01396167
953.841	0.01392182
954.007	0.01460432
954.172	0.0145185
954.338	0.01447061
954.504	0.01419894
954.67	0.01410819
954.836	0.01353933
955.002	0.01361048
955.167	0.01367232
955.333	0.01338365
955.499	0.01371321
955.665	0.01396631
955.83	0.01368916
955.996	0.01379068
956.162	0.01320898
956.327	0.01339653
956.493	0.01377579
956.659	0.01309942
956.824	0.01291717
956.99	0.01288696
957.155	0.01246169
957.321	0.01278828
957.486	0.01253964
957.652	0.01178216
957.817	0.01216682
957.983	0.01209858
958.148	0.01225536
958.314	0.0129657
958.479	0.01278874
958.644	0.01227289
958.81	0.01225267
958.975	0.0116557
959.14	0.01120903
959.306	0.01114989
959.471	0.01044365
959.636	0.010111
959.801	0.01024507
959.967	0.01013435
960.132	0.01058527
960.297	0.010746
960.462	0.01077518
960.627	0.01062457
960.792	0.01078351
960.957	0.01114889
961.123	0.01095408
961.288	0.0107108
961.453	0.01057192
961.618	0.01048687
961.783	0.01066273
961.948	0.01050032
962.113	0.01004368
962.277	0.00999078
962.442	0.00999182
962.607	0.0098776
962.772	0.0095573
962.937	0.00978846
963.102	0.00960779
963.267	0.00964047
963.431	0.00983869
963.596	0.00963921
963.761	0.00980567
963.926	0.01004748
964.09	0.00974297
964.255	0.01011911
964.42	0.00998038
964.584	0.0097483
964.749	0.0098296
964.914	0.00930328
965.078	0.00929626
965.243	0.00952533
965.407	0.00895742
965.572	0.00885794
965.736	0.00911045
965.901	0.00924979
966.065	0.00947622
966.23	0.00932304
966.394	0.00907762
966.559	0.00920106
966.723	0.00922509
966.887	0.00920799
967.052	0.00936429
967.216	0.00940871
967.38	0.00939218
967.545	0.00952982
967.709	0.00966246
967.873	0.00956731
968.037	0.00961169
968.202	0.00912857
968.366	0.0089514
968.53	0.00908324
968.694	0.00885325
968.858	0.00884938
969.022	0.00901957
969.187	0.00891056
969.351	0.00884412
969.515	0.00856543
969.679	0.00795088
969.843	0.00758597
970.007	0.00760492
970.171	0.00754859
970.335	0.00747126
970.499	0.0074928
970.662	0.00748247
970.826	0.00790607
970.99	0.00827617
971.154	0.00814325
971.318	0.00802539
971.482	0.00791941
971.645	0.0079219
971.809	0.00828411
971.973	0.008351
972.137	0.00809186
972.3	0.00796068
972.464	0.00784819
972.628	0.00800938
972.791	0.00813198
972.955	0.00789664
973.119	0.00751033
973.282	0.00724716
973.446	0.00770752
973.609	0.00780079
973.773	0.00744889
973.936	0.00713021
974.1	0.00742965
974.263	0.00765293
974.427	0.00803581
974.59	0.00765109
974.754	0.00738614
974.917	0.00733879
975.08	0.00758523
975.244	0.0070917
975.407	0.00725106
975.57	0.00715249
975.734	0.00728743
975.897	0.00737343
976.06	0.00777351
976.223	0.00761597
976.387	0.0075792
976.55	0.00768786
976.713	0.00759385
976.876	0.00753159
977.039	0.00717808
977.202	0.00715273
977.365	0.00724713
977.528	0.00777962
977.692	0.00713553
977.855	0.00717502
978.018	0.00684171
978.181	0.00718195
978.344	0.00716398
978.506	0.00719351
978.669	0.00670018
978.832	0.00683917
978.995	0.00661344
979.158	0.00657999
979.321	0.00601969
979.484	0.00585383
979.646	0.00554521
979.809	0.00571685
979.972	0.00546604
980.135	0.00568028
980.297	0.00623034
980.46	0.00632972
980.623	0.00630515
980.786	0.00617616
980.948	0.006216
981.111	0.00644953
981.273	0.00612289
981.436	0.00550774
981.599	0.00579601
981.761	0.00546492
981.924	0.00596431
982.086	0.00581449
982.249	0.00579247
982.411	0.0059548
982.573	0.00600866
982.736	0.00610074
982.898	0.00628034
983.061	0.00552996
983.223	0.00546567
983.385	0.00496327
983.548	0.00523187
983.71	0.00537375
983.872	0.00534642
984.034	0.00553323
984.197	0.00589985
984.359	0.00609633
984.521	0.00635414
984.683	0.00611487
984.845	0.00633186
985.008	0.00610764
985.17	0.00581588
985.332	0.00577289
985.494	0.00544265
985.656	0.00581882
985.818	0.00571865
985.98	0.00527572
986.142	0.00538943
986.304	0.00529042
986.466	0.00514986
986.628	0.00555273
986.79	0.00505762
986.952	0.0051178
987.113	0.00516977
987.275	0.00499166
987.437	0.00576904
987.599	0.00582414
987.761	0.00532013
987.922	0.00572419
988.084	0.00596313
988.246	0.00598843
988.408	0.00642506
988.569	0.00608947
988.731	0.00615987
988.893	0.00677276
989.054	0.00700756
989.216	0.00689549
989.377	0.00688451
989.539	0.00697193
989.701	0.00655109
989.862	0.00684836
990.024	0.00693638
990.185	0.00674129
990.347	0.00719025
990.508	0.00700301
990.669	0.00658565
990.831	0.00659169
990.992	0.00579139
991.154	0.00500398
991.315	0.00536597
991.476	0.00544412
991.638	0.00544894
991.799	0.00556272
991.96	0.00575104
992.121	0.00616068
992.283	0.00704462
992.444	0.0066169
992.605	0.00549689
992.766	0.00527545
992.927	0.00484108
993.088	0.0049569
993.249	0.00574876
993.41	0.00558487
993.572	0.00519023
993.733	0.0064758
993.894	0.00670873
994.055	0.00682061
994.216	0.00685394
994.376	0.00601036
994.537	0.00620097
994.698	0.00656759
994.859	0.00580006
995.02	0.00625623
995.181	0.00686029
995.342	0.0061466
995.503	0.0063774
995.663	0.00561165
995.824	0.00565322
995.985	0.00606338
996.146	0.00508867
996.306	0.00446069
996.467	0.0045035
996.628	0.00453054
996.788	0.00460466
996.949	0.00426418
997.11	0.00422595
997.27	0.00528198
997.431	0.00513582
997.591	0.005715
997.752	0.0060049
997.912	0.00601909
998.073	0.00731795
998.233	0.00678911
998.394	0.00747481
998.554	0.00779961
998.714	0.0084571
998.875	0.00792735
999.035	0.00834067
999.196	0.00773507
999.356	0.00775672
999.516	0.00783454
999.676	0.00802335
999.837	0.00744722
999.997	0.00801684
1000.157	0.00796013
1000.317	0.00712148
1000.477	0.00772232
1000.638	0.00713777
1000.798	0.00774695
1000.958	0.00820333
1001.118	0.00718354
1001.278	0.00668147
1001.438	0.00679684
1001.598	0.00563702
1001.758	0.00523088
1001.918	0.00431372
1002.078	0.0041611
1002.238	0.00497392
1002.398	0.00426145
1002.558	0.00527633
1002.718	0.00681563
1002.878	0.00734986
1003.037	0.00743498
1003.197	0.0063184
1003.357	0.00565071
1003.517	0.00662526
1003.677	0.00584321
1003.836	0.00591056
1003.996	0.00473002
1004.156	0.00558313
1004.315	0.00617823
1004.475	0.00700006
1004.635	0.00722661
1004.794	0.00782439
1004.954	0.00725237
1005.114	0.00757719
1005.273	0.00677248
1005.433	0.00807747
1005.592	0.00825824
1005.752	0.00798276
1005.911	0.00793423
1006.071	0.00739072
1006.23	0.00705399
1006.389	0.00709143
1006.549	0.00630963
1006.708	0.00589519
1006.868	0.00674675
1007.027	0.00608491
1007.186	0.00635868
1007.345	0.00811692
1007.505	0.00856489
1007.664	0.0079489
1007.823	0.00771657
1007.982	0.00734479
1008.142	0.00782261
1008.301	0.00679763
1008.46	0.00588883
1008.619	0.00571848
1008.778	0.00633674
1008.937	0.00696551
1009.096	0.00725858
1009.255	0.00706593
1009.414	0.00668285
1009.573	0.00620965
1009.732	0.00686452
1009.891	0.00681831
1010.05	0.00579678
1010.209	0.00594112
1010.368	0.0067027
1010.527	0.00793308
1010.686	0.00867728
1010.845	0.00828884
1011.003	0.00835093
1011.162	0.0093395
1011.321	0.00865613
1011.48	0.00789878
1011.638	0.00807221
1011.797	0.00844564
1011.956	0.00836424
1012.115	0.00767419
1012.273	0.00658546
1012.432	0.0075248
1012.59	0.00808907
1012.749	0.00856794
1012.908	0.00934421
1013.066	0.00946504
1013.225	0.00960041
1013.383	0.01101712
1013.542	0.01025441
1013.7	0.0093153
1013.859	0.00960596
1014.017	0.00859006
1014.175	0.00859894
1014.334	0.00904742
1014.492	0.01034068
1014.65	0.00990012
1014.809	0.01063684
1014.967	0.01045663
1015.125	0.0109578
1015.284	0.01198003
1015.442	0.01301097
1015.6	0.01212122
1015.758	0.01277738
1015.916	0.01306523
1016.075	0.01176094
1016.233	0.01132721
1016.391	0.01097642
1016.549	0.0110769
1016.707	0.00886557
1016.865	0.00735571
1017.023	0.00721978
1017.181	0.0095776
1017.339	0.00956884
1017.497	0.00862047
1017.655	0.00711333
1017.813	0.00900328
1017.971	0.01077299
1018.129	0.00985541
1018.286	0.00820903
1018.444	0.00616091
1018.602	0.00662826
1018.76	0.0081029
1018.918	0.00838792
1019.075	0.0074363
1019.233	0.00926101
1019.391	0.01064692
1019.549	0.01282797
1019.706	0.01437917
1019.864	0.01367487
1020.022	0.01370341
1020.179	0.01356196
1020.337	0.01215037
1020.494	0.01369053
1020.652	0.01412521
1020.809	0.01460466
1020.967	0.01584339
1021.124	0.01380861
1021.282	0.01781602
1021.439	0.01930084
1021.597	0.01771559
1021.754	0.01518279
1021.911	0.0133411
1022.069	0.01308412
1022.226	0.01594201
1022.384	0.01241524
1022.541	0.01373165
1022.698	0.01194443
1022.855	0.01496983
1023.013	0.01500325
1023.17	0.01588105
1023.327	0.01402882
1023.484	0.01387432
1023.641	0.00985763
1023.798	0.01064094
1023.956	0.01235513
1024.113	0.01244753
1024.27	0.01234692
1024.427	0.01464592
1024.584	0.01612478
1024.741	0.01731541
1024.898	0.01658865
1025.055	0.01302449
1025.212	0.01198261
1025.369	0.00855065
1025.525	0.00549509
1025.682	0.00576237
1025.839	0.00826162
1025.996	0.01156391
1026.153	0.01095803
1026.31	0.00991212
1026.466	0.01267573
1026.623	0.01777077
1026.78	0.01797695
1026.937	0.01547477
1027.093	0.01168718
1027.25	0.01338055
1027.407	0.01592987
1027.563	0.01575443
1027.72	0.0097298
1027.876	0.01031796
1028.033	0.00993855
1028.19	0.01223961
1028.346	0.01390623
1028.503	0.01527835
1028.659	0.01369591
1028.816	0.01980122
1028.972	0.01480001
1029.128	0.01650215
1029.285	0.01249514
1029.441	0.00911816
1029.598	0.00819463
1029.754	0.00772167
1029.91	0.00327411
1030.067	0.00483101
1030.223	0.00259906
1030.379	0.00054628
1030.535	0.00246382
1030.691	0.00661764
1030.848	0.0122854
1031.004	0.02033873
1031.16	0.02839485
1031.316	0.02981981
1031.472	0.04230551
1031.628	0.04079798
1031.784	0.03748242
1031.94	0.03402473
1032.096	0.03489828
1032.252	0.02751074
1032.408	0.03745543
1032.564	0.02910159
1032.72	0.03052649
1032.876	0.02520801
1033.032	0.02803197
1033.188	0.01937317
1033.344	0.02095015
1033.5	0.01153487
1033.655	0.01194508
1033.811	0.01178965
1033.967	0.01696961
