Data from 0_1_mm_pl_90pc_Absorbance__0__18-56-36-841.txt Node

Date: Wed Mar 01 18:56:36 CET 2023
User: Ange
Spectrometer: FLMT08341
Trigger mode: 0
Integration Time (sec): 1.000000E-2
Scans to average: 400
Electric dark correction enabled: true
Nonlinearity correction enabled: false
Boxcar width: 3
XAxis mode: Wavelengths
Number of Pixels in Spectrum: 3648
>>>>>Begin Spectral Data<<<<<
345.271	0.00868643
345.487	0.02030512
345.704	0.01064437
345.921	0.01221677
346.137	0.02088802
346.354	0.01868438
346.571	0.02991217
346.787	0.03872078
347.004	-0.03608356
347.22	-0.09186248
347.437	-0.14167205
347.653	-0.10941904
347.87	-0.00996708
348.086	0.06619106
348.303	-0
348.519	0.03338811
348.736	0.02832687
348.952	0.02436013
349.169	0.03192701
349.385	0.03423165
349.601	0.03259939
349.818	0.03010915
350.034	0.02727105
350.251	0.02595388
350.467	0.02762612
350.683	0.02338829
350.9	0.0222027
351.116	0.0216317
351.332	0.02166533
351.549	0.02405414
351.765	0.02556592
351.981	0.02515005
352.197	0.0250944
352.414	0.02703361
352.63	0.02803363
352.846	0.02854143
353.062	0.02665736
353.278	0.02661534
353.495	0.02713725
353.711	0.0276347
353.927	0.02623017
354.143	0.02624903
354.359	0.02472443
354.575	0.02465604
354.792	0.02332486
355.008	0.02261657
355.224	0.02224568
355.44	0.02238583
355.656	0.02183181
355.872	0.02273752
356.088	0.02353857
356.304	0.02348959
356.52	0.02315956
356.736	0.02472762
356.952	0.02419359
357.168	0.02389271
357.384	0.02357794
357.6	0.02288684
357.816	0.02264388
358.032	0.02107999
358.248	0.02087565
358.464	0.02140837
358.679	0.02005665
358.895	0.01994836
359.111	0.02108266
359.327	0.02085717
359.543	0.02371157
359.759	0.0222902
359.974	0.02099443
360.19	0.02192842
360.406	0.02276502
360.622	0.02093416
360.838	0.02171512
361.053	0.01980014
361.269	0.02137082
361.485	0.02195377
361.701	0.02209092
361.916	0.02081579
362.132	0.0219683
362.348	0.02052382
362.563	0.02124012
362.779	0.01953186
362.995	0.01915389
363.21	0.0188877
363.426	0.01931186
363.641	0.02028427
363.857	0.02072189
364.073	0.02066748
364.288	0.02128445
364.504	0.02146723
364.719	0.02110917
364.935	0.02059716
365.15	0.01906936
365.366	0.01925209
365.581	0.01778858
365.797	0.01768088
366.012	0.01796071
366.228	0.01779201
366.443	0.01711294
366.658	0.01655817
366.874	0.01639259
367.089	0.01755313
367.305	0.01693383
367.52	0.01651255
367.735	0.0160075
367.951	0.01646394
368.166	0.01657961
368.381	0.01735518
368.597	0.01647179
368.812	0.01711125
369.027	0.01695437
369.243	0.01709956
369.458	0.01724182
369.673	0.01767914
369.888	0.01682897
370.104	0.01737179
370.319	0.0162668
370.534	0.01477446
370.749	0.01438375
370.964	0.01389569
371.179	0.01351085
371.395	0.01249506
371.61	0.01194142
371.825	0.01274835
372.04	0.01394372
372.255	0.01438637
372.47	0.01406291
372.685	0.0131742
372.9	0.01422753
373.115	0.01451401
373.33	0.01431198
373.545	0.01391268
373.76	0.01359496
373.975	0.01390377
374.19	0.01490979
374.405	0.01444922
374.62	0.01493505
374.835	0.01523454
375.05	0.01531782
375.265	0.01553531
375.48	0.01611614
375.695	0.01634234
375.91	0.01654267
376.125	0.01624178
376.339	0.0156887
376.554	0.01612541
376.769	0.01600435
376.984	0.01651781
377.199	0.01607869
377.414	0.01653949
377.628	0.01645822
377.843	0.01587099
378.058	0.01577194
378.273	0.01505725
378.487	0.01438198
378.702	0.01489961
378.917	0.01447681
379.131	0.0137627
379.346	0.01473504
379.561	0.01459058
379.775	0.01480752
379.99	0.01435681
380.205	0.01438072
380.419	0.01406002
380.634	0.01382788
380.848	0.01358993
381.063	0.01397403
381.278	0.01432762
381.492	0.01472451
381.707	0.01390813
381.921	0.01401389
382.136	0.01434736
382.35	0.01416051
382.565	0.01401925
382.779	0.01387541
382.994	0.0133371
383.208	0.01381523
383.422	0.01324182
383.637	0.01323933
383.851	0.01328826
384.066	0.0131939
384.28	0.01328107
384.494	0.01359859
384.709	0.01336654
384.923	0.01364265
385.137	0.01337997
385.352	0.01343995
385.566	0.01300622
385.78	0.01264625
385.995	0.01280577
386.209	0.01257184
386.423	0.01266207
386.637	0.01266004
386.852	0.0120454
387.066	0.0123658
387.28	0.01318343
387.494	0.01349744
387.708	0.01314018
387.923	0.01317068
388.137	0.01341332
388.351	0.01380603
388.565	0.01364943
388.779	0.01286329
388.993	0.01225933
389.207	0.01265769
389.421	0.01249612
389.635	0.01274449
389.85	0.01247043
390.064	0.01251255
390.278	0.01260064
390.492	0.01283537
390.706	0.01303448
390.92	0.01263212
391.134	0.01240075
391.348	0.01258698
391.561	0.0126581
391.775	0.01264111
391.989	0.01237437
392.203	0.01236126
392.417	0.01315266
392.631	0.01322631
392.845	0.01318942
393.059	0.01293197
393.273	0.01327849
393.486	0.01333423
393.7	0.0131433
393.914	0.0125759
394.128	0.01265963
394.342	0.01241427
394.555	0.01261213
394.769	0.01226899
394.983	0.01228463
395.197	0.01225482
395.41	0.01254943
395.624	0.01250302
395.838	0.01261247
396.051	0.01237637
396.265	0.01227162
396.479	0.0122086
396.692	0.01215408
396.906	0.01217927
397.12	0.01218007
397.333	0.01208272
397.547	0.01204907
397.76	0.01230577
397.974	0.01239233
398.187	0.01247176
398.401	0.01235542
398.614	0.0123568
398.828	0.01241771
399.041	0.01217683
399.255	0.01236904
399.468	0.01218036
399.682	0.01239176
399.895	0.01270895
400.109	0.01273191
400.322	0.01279933
400.536	0.01291673
400.749	0.01255686
400.962	0.01264883
401.176	0.01241641
401.389	0.01222101
401.602	0.01194073
401.816	0.01188984
402.029	0.01195111
402.242	0.01222649
402.456	0.01200591
402.669	0.01175786
402.882	0.01135195
403.095	0.01125146
403.309	0.01144701
403.522	0.01157087
403.735	0.01127543
403.948	0.01128989
404.161	0.01152898
404.375	0.01195158
404.588	0.01194784
404.801	0.01173747
405.014	0.01144415
405.227	0.01158402
405.44	0.01187659
405.653	0.01180374
405.866	0.01163839
406.079	0.01176317
406.293	0.01181113
406.506	0.01214569
406.719	0.01185603
406.932	0.01141548
407.145	0.01127122
407.358	0.01130965
407.571	0.01113842
407.784	0.01144303
407.996	0.01123368
408.209	0.01151183
408.422	0.0119927
408.635	0.01181902
408.848	0.01156728
409.061	0.01147054
409.274	0.01105814
409.487	0.01107952
409.7	0.01102136
409.912	0.0109429
410.125	0.01130871
410.338	0.0112897
410.551	0.01150057
410.764	0.01166238
410.976	0.01165692
411.189	0.01162696
411.402	0.01112406
411.615	0.01096643
411.827	0.01114431
412.04	0.01119729
412.253	0.01098607
412.465	0.01082887
412.678	0.010668
412.891	0.01112984
413.103	0.01113015
413.316	0.01121657
413.529	0.0111474
413.741	0.01110076
413.954	0.01106223
414.166	0.01090318
414.379	0.01087726
414.591	0.0106974
414.804	0.01040311
415.016	0.01021272
415.229	0.01040269
415.441	0.01051271
415.654	0.0106397
415.866	0.01043814
416.079	0.0108103
416.291	0.01095175
416.504	0.01123769
416.716	0.0109512
416.928	0.01082334
417.141	0.01084816
417.353	0.01069336
417.566	0.01047642
417.778	0.01045773
417.99	0.01032104
418.203	0.01009361
418.415	0.01027042
418.627	0.01024013
418.839	0.01043103
419.052	0.01046747
419.264	0.0106832
419.476	0.01065611
419.688	0.01090725
419.901	0.01074988
420.113	0.01075331
420.325	0.01066473
420.537	0.01027886
420.749	0.00995068
420.961	0.0101212
421.174	0.00995973
421.386	0.00965854
421.598	0.00952848
421.81	0.00936208
422.022	0.00946852
422.234	0.00974277
422.446	0.00941509
422.658	0.00951841
422.87	0.00992611
423.082	0.00983099
423.294	0.00996646
423.506	0.0099175
423.718	0.00963235
423.93	0.00967471
424.142	0.00966674
424.354	0.00933539
424.566	0.00932465
424.778	0.0091763
424.99	0.0092732
425.202	0.00902833
425.414	0.00887055
425.625	0.00880078
425.837	0.00874446
426.049	0.00872363
426.261	0.00881772
426.473	0.00880466
426.684	0.00887337
426.896	0.00884027
427.108	0.00896245
427.32	0.00917458
427.531	0.00916543
427.743	0.00915102
427.955	0.00908276
428.167	0.00910579
428.378	0.00899822
428.59	0.00882178
428.802	0.00855768
429.013	0.00850004
429.225	0.00835114
429.436	0.00835165
429.648	0.00830999
429.86	0.00837547
430.071	0.00824903
430.283	0.0082192
430.494	0.0082522
430.706	0.00817766
430.917	0.00801069
431.129	0.00795468
431.34	0.00800947
431.552	0.00797066
431.763	0.00814739
431.975	0.00805617
432.186	0.00809907
432.398	0.00802788
432.609	0.00799447
432.821	0.00798085
433.032	0.00808987
433.243	0.00791836
433.455	0.00794461
433.666	0.00788162
433.877	0.00793314
434.089	0.00782895
434.3	0.00769008
434.511	0.00757136
434.723	0.00755718
434.934	0.0074551
435.145	0.00737481
435.356	0.00735648
435.568	0.00740502
435.779	0.00745
435.99	0.00732242
436.201	0.0074175
436.412	0.00731772
436.624	0.00730766
436.835	0.00729325
437.046	0.0072161
437.257	0.00716682
437.468	0.00721104
437.679	0.00709354
437.89	0.00707295
438.101	0.00708476
438.312	0.00681546
438.523	0.00676146
438.734	0.00674491
438.945	0.00668446
439.156	0.00652527
439.367	0.00642945
439.578	0.00631536
439.789	0.00635449
440	0.00636976
440.211	0.00622731
440.422	0.00618257
440.633	0.00616549
440.844	0.00634634
441.055	0.00639036
441.266	0.00627443
441.477	0.00630261
441.687	0.0063111
441.898	0.00639385
442.109	0.00644317
442.32	0.00636727
442.531	0.00642967
442.741	0.00648709
442.952	0.00626094
443.163	0.00625569
443.374	0.00612184
443.584	0.00604818
443.795	0.00586473
444.006	0.0056702
444.216	0.00558004
444.427	0.00563836
444.638	0.00549868
444.848	0.00552046
445.059	0.00548073
445.27	0.00543009
445.48	0.00536745
445.691	0.00560464
445.901	0.00563502
446.112	0.00564768
446.323	0.00562064
446.533	0.00554081
446.744	0.00561005
446.954	0.00560737
447.165	0.00544007
447.375	0.0053744
447.586	0.00531658
447.796	0.0051403
448.006	0.0050847
448.217	0.00510819
448.427	0.00502122
448.638	0.00491564
448.848	0.00478897
449.058	0.00483942
449.269	0.00487568
449.479	0.00479115
449.689	0.00470121
449.9	0.00457262
450.11	0.00456911
450.32	0.00467651
450.531	0.00456003
450.741	0.00452768
450.951	0.00457927
451.161	0.00448463
451.372	0.00454409
451.582	0.00452256
451.792	0.00437068
452.002	0.00436502
452.212	0.00443649
452.422	0.00427671
452.633	0.00420843
452.843	0.00421771
453.053	0.00415974
453.263	0.00416793
453.473	0.00419408
453.683	0.00408589
453.893	0.00406041
454.103	0.00409664
454.313	0.00420568
454.523	0.0042268
454.733	0.00427694
454.943	0.00423231
455.153	0.00416844
455.363	0.00419361
455.573	0.0040822
455.783	0.00384042
455.993	0.00382041
456.203	0.00366847
456.413	0.00368877
456.623	0.00371774
456.833	0.00364748
457.042	0.00378686
457.252	0.00384721
457.462	0.00382888
457.672	0.00382058
457.882	0.00364206
458.091	0.00364391
458.301	0.00365133
458.511	0.00343909
458.721	0.00357119
458.931	0.00346086
459.14	0.00347847
459.35	0.00354495
459.56	0.00341924
459.769	0.0034217
459.979	0.00355239
460.189	0.00338394
460.398	0.00338071
460.608	0.00325553
460.817	0.00322418
461.027	0.00328837
461.237	0.00330088
461.446	0.00325279
461.656	0.00326692
461.865	0.00323709
462.075	0.00331238
462.284	0.00324843
462.494	0.00317716
462.703	0.00317171
462.913	0.00313124
463.122	0.00306545
463.332	0.00297318
463.541	0.002972
463.751	0.0029841
463.96	0.00298005
464.169	0.00301055
464.379	0.002974
464.588	0.00298558
464.797	0.00303948
465.007	0.00296029
465.216	0.00286588
465.425	0.00279431
465.635	0.00275087
465.844	0.00272878
466.053	0.00271398
466.263	0.00271785
466.472	0.00272079
466.681	0.00271504
466.89	0.00277563
467.099	0.00272884
467.309	0.00267261
467.518	0.00258684
467.727	0.00254635
467.936	0.00242425
468.145	0.00243765
468.354	0.00231452
468.563	0.00220106
468.772	0.00231807
468.982	0.00234351
469.191	0.00243121
469.4	0.00257718
469.609	0.00256582
469.818	0.00263421
470.027	0.00274082
470.236	0.00261417
470.445	0.00261341
470.654	0.00250809
470.863	0.00247208
471.072	0.00253416
471.28	0.00250376
471.489	0.00248763
471.698	0.00247842
471.907	0.00249348
472.116	0.00253553
472.325	0.00247249
472.534	0.00243063
472.743	0.00248062
472.951	0.00241504
473.16	0.00233282
473.369	0.00226111
473.578	0.00220979
473.786	0.00219315
473.995	0.00212095
474.204	0.00203446
474.413	0.00211214
474.621	0.00225333
474.83	0.00229741
475.039	0.0021988
475.247	0.00224526
475.456	0.00244509
475.665	0.00245153
475.873	0.00244966
476.082	0.0024306
476.291	0.00237644
476.499	0.002482
476.708	0.00239371
476.916	0.00229155
477.125	0.00226866
477.333	0.00222309
477.542	0.00215851
477.75	0.0021298
477.959	0.00218773
478.167	0.00233114
478.376	0.00224064
478.584	0.0022854
478.793	0.00227767
479.001	0.0023154
479.209	0.00232162
479.418	0.00234653
479.626	0.00232429
479.834	0.00239189
480.043	0.0023836
480.251	0.00238602
480.459	0.00235693
480.668	0.00235168
480.876	0.00223801
481.084	0.00224516
481.293	0.00226816
481.501	0.0023171
481.709	0.00229757
481.917	0.00229859
482.125	0.0023372
482.334	0.00236459
482.542	0.00232254
482.75	0.00224396
482.958	0.00218103
483.166	0.0022321
483.374	0.00230805
483.583	0.00234397
483.791	0.00231981
483.999	0.00233306
484.207	0.00237124
484.415	0.00231127
484.623	0.00231094
484.831	0.00222997
485.039	0.0022803
485.247	0.00237352
485.455	0.00236406
485.663	0.00236578
485.871	0.00250464
486.079	0.00255445
486.287	0.00260113
486.495	0.00261016
486.702	0.00253253
486.91	0.00256916
487.118	0.00262799
487.326	0.00262208
487.534	0.00256287
487.742	0.00260548
487.95	0.00251903
488.157	0.00260758
488.365	0.00256978
488.573	0.00256291
488.781	0.00260517
488.988	0.0026311
489.196	0.00256992
489.404	0.00263899
489.612	0.00263435
489.819	0.00269377
490.027	0.00273623
490.235	0.00273176
490.442	0.0027496
490.65	0.00280182
490.857	0.00280773
491.065	0.00281169
491.273	0.00283374
491.48	0.00285888
491.688	0.00284542
491.895	0.00283394
492.103	0.00288633
492.31	0.00291762
492.518	0.00292535
492.725	0.00289838
492.933	0.0028375
493.14	0.00286251
493.348	0.00294495
493.555	0.00293451
493.763	0.00289411
493.97	0.00292808
494.177	0.00295756
494.385	0.00292288
494.592	0.00295099
494.8	0.00295449
495.007	0.00294737
495.214	0.00300536
495.422	0.00301599
495.629	0.00306311
495.836	0.00316154
496.043	0.00314244
496.251	0.0031121
496.458	0.00313439
496.665	0.00318073
496.872	0.00319733
497.08	0.00318292
497.287	0.003232
497.494	0.00324866
497.701	0.00327705
497.908	0.00330903
498.115	0.00333347
498.322	0.00335672
498.53	0.00338406
498.737	0.00336214
498.944	0.00342926
499.151	0.00351889
499.358	0.0035901
499.565	0.00360161
499.772	0.00361938
499.979	0.00362898
500.186	0.003682
500.393	0.00366946
500.6	0.00367634
500.807	0.00368407
501.014	0.00365357
501.221	0.00369482
501.427	0.00374599
501.634	0.00374443
501.841	0.00376027
502.048	0.00374084
502.255	0.00377412
502.462	0.00382707
502.669	0.00385018
502.875	0.00388345
503.082	0.00394919
503.289	0.00403396
503.496	0.00411081
503.702	0.00409197
503.909	0.00409134
504.116	0.004154
504.323	0.00419304
504.529	0.00421639
504.736	0.00421461
504.943	0.00424779
505.149	0.00434508
505.356	0.00440012
505.563	0.00441342
505.769	0.0044165
505.976	0.00438067
506.182	0.00443085
506.389	0.0044314
506.595	0.0044432
506.802	0.0044786
507.008	0.00452436
507.215	0.00455527
507.421	0.00467668
507.628	0.00468604
507.834	0.00471237
508.041	0.00475933
508.247	0.00479459
508.454	0.00479856
508.66	0.00484285
508.866	0.00489338
509.073	0.00493027
509.279	0.00501083
509.486	0.00498706
509.692	0.00500466
509.898	0.00504414
510.105	0.00508597
510.311	0.00512892
510.517	0.00515789
510.723	0.00518694
510.93	0.0052602
511.136	0.00529405
511.342	0.00535048
511.548	0.00540026
511.754	0.00537509
511.961	0.00543649
512.167	0.00547593
512.373	0.00551137
512.579	0.00559086
512.785	0.00566508
512.991	0.00569152
513.197	0.00574257
513.404	0.00583211
513.61	0.00588313
513.816	0.0059428
514.022	0.00600919
514.228	0.00601272
514.434	0.00603062
514.64	0.00609244
514.846	0.00604817
515.052	0.00604584
515.258	0.00606532
515.464	0.00607082
515.669	0.00612773
515.875	0.00620515
516.081	0.00622875
516.287	0.00633922
516.493	0.00640792
516.699	0.00642674
516.905	0.00648829
517.111	0.00649694
517.316	0.00659065
517.522	0.00669049
517.728	0.00675245
517.934	0.00682714
518.139	0.00693663
518.345	0.00695553
518.551	0.0069975
518.757	0.00705054
518.962	0.00706848
519.168	0.00711108
519.374	0.00712457
519.579	0.00713232
519.785	0.00721514
519.991	0.00732457
520.196	0.00736788
520.402	0.00742833
520.607	0.00741994
520.813	0.00747823
521.018	0.0075443
521.224	0.00758998
521.429	0.00761441
521.635	0.00766318
521.84	0.00769992
522.046	0.00777774
522.251	0.00786062
522.457	0.0079834
522.662	0.00804676
522.868	0.00810492
523.073	0.00816189
523.279	0.00825606
523.484	0.00834338
523.689	0.00841274
523.895	0.00847136
524.1	0.0085857
524.305	0.00865084
524.511	0.00866106
524.716	0.00864646
524.921	0.00864289
525.126	0.00866082
525.332	0.00863394
525.537	0.00868062
525.742	0.0087133
525.947	0.00876701
526.153	0.00886721
526.358	0.0089495
526.563	0.00905325
526.768	0.00915903
526.973	0.00916782
527.178	0.00925191
527.383	0.00939784
527.588	0.00946844
527.794	0.00955934
527.999	0.00958556
528.204	0.00969254
528.409	0.00983975
528.614	0.00993741
528.819	0.0099555
529.024	0.01001094
529.229	0.01007892
529.434	0.01015618
529.639	0.01022511
529.843	0.01025008
530.048	0.01029231
530.253	0.01038823
530.458	0.01047928
530.663	0.01059206
530.868	0.01067897
531.073	0.01069555
531.278	0.01077883
531.482	0.01086833
531.687	0.01096899
531.892	0.01101803
532.097	0.01105874
532.302	0.01111869
532.506	0.01123125
532.711	0.01128968
532.916	0.01134781
533.12	0.0114092
533.325	0.0115106
533.53	0.01157908
533.734	0.01167752
533.939	0.01174452
534.144	0.01181091
534.348	0.01190327
534.553	0.01194768
534.757	0.01199249
534.962	0.01211829
535.167	0.01215839
535.371	0.01224704
535.576	0.01235159
535.78	0.01245542
535.985	0.0125368
536.189	0.01266365
536.394	0.01271219
536.598	0.01282633
536.803	0.0128592
537.007	0.01292401
537.211	0.01297306
537.416	0.01301509
537.62	0.0130504
537.825	0.01312631
538.029	0.01317514
538.233	0.01324819
538.438	0.01326671
538.642	0.01336367
538.846	0.01346514
539.05	0.01355879
539.255	0.01366389
539.459	0.01378501
539.663	0.01391328
539.867	0.01407928
540.072	0.01416817
540.276	0.01426556
540.48	0.01436824
540.684	0.01443234
540.888	0.01456778
541.092	0.01465195
541.297	0.01473782
541.501	0.01478991
541.705	0.0148875
541.909	0.01499415
542.113	0.01512914
542.317	0.01521042
542.521	0.0153318
542.725	0.01544153
542.929	0.01560288
543.133	0.01574859
543.337	0.01590619
543.541	0.01597245
543.745	0.0160537
543.949	0.01621046
544.153	0.01631786
544.357	0.01644009
544.56	0.01651987
544.764	0.01654607
544.968	0.01668843
545.172	0.01682352
545.376	0.01687797
545.58	0.01699775
545.783	0.01708135
545.987	0.0172122
546.191	0.01736153
546.395	0.01747108
546.598	0.01756761
546.802	0.01769737
547.006	0.01780917
547.21	0.01790048
547.413	0.01802525
547.617	0.01814262
547.821	0.01825929
548.024	0.01840184
548.228	0.0184667
548.431	0.01860235
548.635	0.01876357
548.839	0.0188743
549.042	0.01899738
549.246	0.01910794
549.449	0.01920181
549.653	0.01932508
549.856	0.01938241
550.06	0.01950132
550.263	0.01959442
550.467	0.01970898
550.67	0.01980495
550.874	0.01989278
551.077	0.0200265
551.28	0.02019908
551.484	0.02028067
551.687	0.020371
551.891	0.02049292
552.094	0.02059078
552.297	0.02077048
552.501	0.02090176
552.704	0.0210102
552.907	0.02113284
553.11	0.0212944
553.314	0.02143806
553.517	0.02161223
553.72	0.02166418
553.923	0.0218121
554.127	0.0218894
554.33	0.02202675
554.533	0.02214755
554.736	0.02223864
554.939	0.02236289
555.142	0.02255526
555.345	0.02264902
555.549	0.02281428
555.752	0.0229639
555.955	0.02308356
556.158	0.02319406
556.361	0.02330207
556.564	0.02341024
556.767	0.02355071
556.97	0.02367739
557.173	0.0237956
557.376	0.02396321
557.579	0.02412151
557.782	0.02427861
557.984	0.02441873
558.187	0.02457604
558.39	0.02471997
558.593	0.02483502
558.796	0.02497316
558.999	0.02513849
559.202	0.02526961
559.404	0.02537386
559.607	0.02550664
559.81	0.02566527
560.013	0.02588133
560.216	0.02598045
560.418	0.02611309
560.621	0.02627009
560.824	0.02645107
561.026	0.02659364
561.229	0.02672695
561.432	0.02685903
561.634	0.02704674
561.837	0.02720852
562.04	0.0273664
562.242	0.02749616
562.445	0.02768584
562.647	0.02785131
562.85	0.02795782
563.053	0.02814934
563.255	0.02825661
563.458	0.02837888
563.66	0.02856516
563.863	0.02872728
564.065	0.02888067
564.268	0.02903932
564.47	0.02916891
564.672	0.02936973
564.875	0.02952016
565.077	0.0296669
565.28	0.02980688
565.482	0.02998505
565.684	0.03014889
565.887	0.03032403
566.089	0.03053006
566.291	0.03070481
566.494	0.03082461
566.696	0.03099735
566.898	0.03114131
567.1	0.031299
567.303	0.03146295
567.505	0.03158521
567.707	0.0317685
567.909	0.03199697
568.111	0.03212581
568.314	0.03232266
568.516	0.0325072
568.718	0.03267616
568.92	0.03285021
569.122	0.03302803
569.324	0.03320043
569.526	0.03336286
569.728	0.03351589
569.93	0.03366794
570.132	0.0338182
570.334	0.0339994
570.536	0.03416439
570.738	0.03431985
570.94	0.03451965
571.142	0.03467023
571.344	0.03484943
571.546	0.03499355
571.748	0.03512662
571.95	0.03531771
572.152	0.0354702
572.354	0.03560389
572.555	0.03579912
572.757	0.03600863
572.959	0.03619279
573.161	0.03637962
573.363	0.03653308
573.564	0.03679817
573.766	0.03700286
573.968	0.03717246
574.17	0.03731375
574.371	0.03748005
574.573	0.03764713
574.775	0.03779575
574.976	0.03787655
575.178	0.03804996
575.38	0.03818366
575.581	0.03838408
575.783	0.03856322
575.985	0.03872738
576.186	0.0389751
576.388	0.03918038
576.589	0.03933359
576.791	0.03956797
576.992	0.03971726
577.194	0.03991496
577.395	0.04015065
577.597	0.04026697
577.798	0.04047341
578	0.04070093
578.201	0.04089786
578.402	0.04110742
578.604	0.04126436
578.805	0.04141732
579.007	0.04162136
579.208	0.04178013
579.409	0.04192369
579.611	0.04212409
579.812	0.0423238
580.013	0.04256684
580.215	0.04273482
580.416	0.0429052
580.617	0.04305666
580.818	0.04320623
581.019	0.04334211
581.221	0.04349791
581.422	0.04366368
581.623	0.04385428
581.824	0.0440193
582.025	0.04421667
582.226	0.04444458
582.428	0.04468138
582.629	0.04488728
582.83	0.04508003
583.031	0.04529766
583.232	0.04552678
583.433	0.04575329
583.634	0.04597039
583.835	0.04611006
584.036	0.04624529
584.237	0.04640756
584.438	0.04655437
584.639	0.04671833
584.84	0.04689705
585.041	0.04708698
585.242	0.04726854
585.442	0.04748805
585.643	0.0476772
585.844	0.04793367
586.045	0.04815013
586.246	0.04833714
586.447	0.04849999
586.647	0.04870792
586.848	0.04888487
587.049	0.04905619
587.25	0.04919757
587.45	0.04938691
587.651	0.0495632
587.852	0.0497526
588.053	0.04996952
588.253	0.05018413
588.454	0.05037745
588.655	0.05054865
588.855	0.05073946
589.056	0.05093373
589.256	0.05116976
589.457	0.05133229
589.658	0.05150946
589.858	0.05174256
590.059	0.0519692
590.259	0.0521515
590.46	0.05236569
590.66	0.05247428
590.861	0.05268371
591.061	0.05286322
591.262	0.0530301
591.462	0.05319927
591.662	0.05340637
591.863	0.05356686
592.063	0.05381059
592.264	0.05398544
592.464	0.05421007
592.664	0.05444834
592.865	0.05467419
593.065	0.05484548
593.265	0.05505899
593.465	0.05525438
593.666	0.05545765
593.866	0.05560904
594.066	0.05579106
594.266	0.05594448
594.467	0.05615757
594.667	0.05631201
594.867	0.05649277
595.067	0.05664971
595.267	0.0568329
595.467	0.05700839
595.668	0.05719561
595.868	0.05736613
596.068	0.05758684
596.268	0.05777073
596.468	0.05797206
596.668	0.05816165
596.868	0.0583216
597.068	0.058499
597.268	0.05867221
597.468	0.05883416
597.668	0.05901072
597.868	0.05922474
598.068	0.0594657
598.268	0.0596797
598.467	0.059917
598.667	0.06008372
598.867	0.0602851
599.067	0.06052719
599.267	0.0606773
599.467	0.0608407
599.667	0.06100484
599.866	0.0611683
600.066	0.06137351
600.266	0.06152628
600.466	0.0616842
600.665	0.06187682
600.865	0.06205413
601.065	0.06223725
601.264	0.06237356
601.464	0.06253379
601.664	0.06276184
601.863	0.06290299
602.063	0.06307447
602.263	0.06318957
602.462	0.06336175
602.662	0.0635893
602.861	0.06378091
603.061	0.06391045
603.26	0.06410827
603.46	0.06426407
603.659	0.06448266
603.859	0.0646423
604.058	0.06479148
604.258	0.06498845
604.457	0.06522516
604.657	0.06535367
604.856	0.06550946
605.056	0.06567936
605.255	0.06581453
605.454	0.06599135
605.654	0.06612309
605.853	0.06624199
606.052	0.06643027
606.252	0.06664103
606.451	0.06686621
606.65	0.06713969
606.849	0.06727522
607.049	0.0674951
607.248	0.06770695
607.447	0.06782632
607.646	0.06798382
607.845	0.06812172
608.045	0.06818511
608.244	0.06837235
608.443	0.06852519
608.642	0.06866542
608.841	0.06886372
609.04	0.06894613
609.239	0.06910344
609.438	0.06925927
609.637	0.06945369
609.836	0.06956196
610.035	0.06971207
610.234	0.06991328
610.433	0.07014316
610.632	0.07029603
610.831	0.07054443
611.03	0.07063313
611.229	0.07085543
611.428	0.07106013
611.627	0.07120996
611.826	0.07138267
612.025	0.07161293
612.224	0.07175481
612.422	0.07197663
612.621	0.07213707
612.82	0.07226375
613.019	0.07245016
613.218	0.07261973
613.416	0.07269375
613.615	0.07288881
613.814	0.07307235
614.012	0.07321196
614.211	0.07335471
614.41	0.07356335
614.608	0.07371931
614.807	0.07388024
615.006	0.07404919
615.204	0.07420353
615.403	0.07441329
615.602	0.07460471
615.8	0.07472489
615.999	0.07485647
616.197	0.07503679
616.396	0.07520046
616.594	0.07531345
616.793	0.07545205
616.991	0.07555085
617.19	0.07570339
617.388	0.07591321
617.586	0.07608024
617.785	0.0761843
617.983	0.0763774
618.182	0.07650607
618.38	0.07665124
618.578	0.07675865
618.777	0.07690168
618.975	0.07706881
619.173	0.07724179
619.372	0.07735561
619.57	0.07750558
619.768	0.07773397
619.966	0.07792764
620.165	0.07804405
620.363	0.0781821
620.561	0.07826055
620.759	0.07841447
620.957	0.07856387
621.155	0.07869025
621.354	0.07877893
621.552	0.07896775
621.75	0.07907844
621.948	0.07927277
622.146	0.07943437
622.344	0.07956502
622.542	0.07975221
622.74	0.07992903
622.938	0.08001287
623.136	0.0802001
623.334	0.08038911
623.532	0.08049543
623.73	0.08065536
623.928	0.08077503
624.126	0.08094113
624.324	0.08113103
624.522	0.08122126
624.719	0.08132722
624.917	0.08152238
625.115	0.08163657
625.313	0.08176361
625.511	0.08192115
625.708	0.08199616
625.906	0.08213246
626.104	0.08225027
626.302	0.08241975
626.499	0.0825943
626.697	0.08274691
626.895	0.08284657
627.093	0.08301846
627.29	0.08320129
627.488	0.08336026
627.686	0.08345062
627.883	0.0835179
628.081	0.08361589
628.278	0.08384478
628.476	0.08395519
628.673	0.08410053
628.871	0.08428595
629.068	0.08443298
629.266	0.08461274
629.463	0.08471857
629.661	0.08479964
629.858	0.08491578
630.056	0.08503355
630.253	0.0851058
630.451	0.08519464
630.648	0.08533344
630.845	0.0854565
631.043	0.0855443
631.24	0.08574844
631.438	0.08586207
631.635	0.08600145
631.832	0.08613565
632.029	0.0862714
632.227	0.08644595
632.424	0.08658438
632.621	0.0866797
632.818	0.08680161
633.016	0.08692828
633.213	0.08703191
633.41	0.08717335
633.607	0.08728687
633.804	0.08742667
634.001	0.08751724
634.199	0.08773146
634.396	0.08786375
634.593	0.08797513
634.79	0.08811244
634.987	0.0882823
635.184	0.088418
635.381	0.08860651
635.578	0.08868517
635.775	0.08879469
635.972	0.08899613
636.169	0.08911475
636.366	0.08920246
636.563	0.08931194
636.76	0.08937704
636.957	0.0895023
637.153	0.08955322
637.35	0.08963275
637.547	0.08970768
637.744	0.08979061
637.941	0.089907
638.138	0.09006503
638.334	0.09009537
638.531	0.09028442
638.728	0.09038614
638.925	0.09054504
639.121	0.09070441
639.318	0.09079693
639.515	0.09088104
639.711	0.09108764
639.908	0.09116578
640.105	0.09134058
640.301	0.09142342
640.498	0.09151613
640.695	0.09168466
640.891	0.09177132
641.088	0.09186771
641.284	0.09203938
641.481	0.09211444
641.677	0.09224429
641.874	0.09238377
642.07	0.09252579
642.267	0.09272162
642.463	0.0928196
642.66	0.09291232
642.856	0.09301738
643.053	0.09310502
643.249	0.09317564
643.445	0.09322226
643.642	0.09331981
643.838	0.09349187
644.034	0.09360303
644.231	0.09370278
644.427	0.09386663
644.623	0.09397388
644.82	0.09410933
645.016	0.09416713
645.212	0.09416993
645.408	0.09426627
645.604	0.09443343
645.801	0.09450045
645.997	0.09460585
646.193	0.09468193
646.389	0.09487851
646.585	0.09503749
646.781	0.09518503
646.977	0.09528637
647.173	0.0954008
647.37	0.09547744
647.566	0.09561949
647.762	0.09567708
647.958	0.09581776
648.154	0.09587624
648.35	0.09597312
648.546	0.09605815
648.742	0.09628019
648.937	0.09632191
649.133	0.0964359
649.329	0.09654823
649.525	0.09668516
649.721	0.09678911
649.917	0.09695007
650.113	0.09696191
650.309	0.0971074
650.504	0.09719525
650.7	0.09724255
650.896	0.09739951
651.092	0.09752051
651.287	0.09761381
651.483	0.09781306
651.679	0.097941
651.875	0.09806599
652.07	0.09817434
652.266	0.09824915
652.462	0.09833439
652.657	0.09843463
652.853	0.09849925
653.048	0.09857472
653.244	0.09863722
653.44	0.098762
653.635	0.09884207
653.831	0.09900585
654.026	0.09915159
654.222	0.09926556
654.417	0.09941134
654.613	0.09958092
654.808	0.09967492
655.004	0.0998362
655.199	0.09988068
655.394	0.09996611
655.59	0.10012457
655.785	0.10022795
655.98	0.10032095
656.176	0.10043332
656.371	0.10053309
656.566	0.10066972
656.762	0.10073437
656.957	0.100797
657.152	0.10084584
657.348	0.10095271
657.543	0.10109383
657.738	0.10119553
657.933	0.10125908
658.128	0.10139274
658.324	0.10145387
658.519	0.1016118
658.714	0.1017143
658.909	0.1018098
659.104	0.10190318
659.299	0.10204519
659.494	0.10214641
659.689	0.10232257
659.884	0.10243746
660.079	0.10257215
660.274	0.10271031
660.469	0.10285176
660.664	0.10301551
660.859	0.10310248
661.054	0.1031849
661.249	0.1032721
661.444	0.10336889
661.639	0.10342726
661.834	0.10348216
662.029	0.10354258
662.224	0.10371037
662.418	0.10386523
662.613	0.10396898
662.808	0.10407995
663.003	0.10420649
663.198	0.10433153
663.392	0.10444064
663.587	0.10462118
663.782	0.10468276
663.977	0.10481718
664.171	0.10494296
664.366	0.10505055
664.561	0.10516586
664.755	0.1053229
664.95	0.1053049
665.144	0.10538058
665.339	0.10549769
665.534	0.10561491
665.728	0.10573203
665.923	0.1058543
666.117	0.10593968
666.312	0.10609292
666.506	0.1062932
666.701	0.10640855
666.895	0.10651184
667.09	0.10663127
667.284	0.10676189
667.479	0.10686513
667.673	0.10693681
667.867	0.10704256
668.062	0.10714628
668.256	0.10725766
668.45	0.10742241
668.645	0.10746934
668.839	0.10756586
669.033	0.1077144
669.228	0.10779406
669.422	0.1079422
669.616	0.10804826
669.81	0.10812746
670.004	0.10828407
670.199	0.10841489
670.393	0.10852658
670.587	0.10868585
670.781	0.10875906
670.975	0.10891658
671.169	0.10900086
671.363	0.10908158
671.558	0.10917889
671.752	0.10933555
671.946	0.10943933
672.14	0.10961669
672.334	0.10971868
672.528	0.10993072
672.722	0.11009234
672.916	0.11026367
673.11	0.11035621
673.304	0.11057172
673.497	0.11066746
673.691	0.11083992
673.885	0.11090002
674.079	0.11107862
674.273	0.11117409
674.467	0.11133425
674.661	0.11138463
674.854	0.11149289
675.048	0.11163327
675.242	0.11175885
675.436	0.11183468
675.629	0.1119828
675.823	0.11205324
676.017	0.11218435
676.211	0.11230641
676.404	0.11239191
676.598	0.1125068
676.792	0.11262958
676.985	0.11276736
677.179	0.11295429
677.372	0.11306038
677.566	0.11324138
677.76	0.11335768
677.953	0.11350867
678.147	0.11369111
678.34	0.1138433
678.534	0.11391861
678.727	0.11405327
678.921	0.11422678
679.114	0.11433951
679.307	0.11451658
679.501	0.11464061
679.694	0.11478611
679.888	0.11494459
680.081	0.11509039
680.274	0.11515004
680.468	0.11533446
680.661	0.11542165
680.854	0.11560958
681.048	0.11575013
681.241	0.11589191
681.434	0.1159941
681.627	0.11615798
681.821	0.11630814
682.014	0.11652074
682.207	0.11657695
682.4	0.11669146
682.593	0.11690598
682.786	0.11703462
682.98	0.11714223
683.173	0.11726714
683.366	0.11734512
683.559	0.11745687
683.752	0.11758499
683.945	0.11768165
684.138	0.11792069
684.331	0.11805524
684.524	0.11816931
684.717	0.11828866
684.91	0.11851535
685.103	0.11864107
685.296	0.11878534
685.489	0.1188828
685.682	0.11903449
685.874	0.11920261
686.067	0.1193804
686.26	0.1194996
686.453	0.11962641
686.646	0.1197275
686.839	0.11987038
687.031	0.12003731
687.224	0.12014091
687.417	0.12030478
687.61	0.12044232
687.802	0.12062719
687.995	0.12079747
688.188	0.12092012
688.38	0.12103937
688.573	0.12121236
688.766	0.12133786
688.958	0.1214471
689.151	0.12157182
689.343	0.12173099
689.536	0.12187239
689.729	0.12203677
689.921	0.12219313
690.114	0.12230611
690.306	0.1225091
690.499	0.12266845
690.691	0.12285212
690.884	0.1230418
691.076	0.12321368
691.268	0.12334363
691.461	0.12346969
691.653	0.12357837
691.846	0.12373091
692.038	0.12385744
692.23	0.12397859
692.423	0.12412086
692.615	0.12424961
692.807	0.12442256
692.999	0.12460281
693.192	0.12476414
693.384	0.12490405
693.576	0.12501104
693.768	0.12516413
693.961	0.1253039
694.153	0.12550184
694.345	0.12563797
694.537	0.1257211
694.729	0.12583133
694.921	0.12595829
695.113	0.12608937
695.305	0.12625632
695.498	0.12636432
695.69	0.12653547
695.882	0.12669814
696.074	0.12690903
696.266	0.12711207
696.458	0.12728953
696.65	0.12747444
696.842	0.12762524
697.033	0.12775439
697.225	0.12794406
697.417	0.12813037
697.609	0.12834926
697.801	0.12852412
697.993	0.12873919
698.185	0.12894277
698.376	0.12915626
698.568	0.12931637
698.76	0.12944988
698.952	0.12954284
699.144	0.12962557
699.335	0.12974605
699.527	0.12987898
699.719	0.13001339
699.91	0.13026019
700.102	0.13036582
700.294	0.13053028
700.485	0.13075047
700.677	0.13086683
700.869	0.13106495
701.06	0.13122145
701.252	0.13128453
701.443	0.13145777
701.635	0.13163676
701.826	0.13182961
702.018	0.13202492
702.209	0.1321625
702.401	0.13229433
702.592	0.13250278
702.784	0.1326657
702.975	0.13280799
703.166	0.1329579
703.358	0.13305069
703.549	0.1332279
703.741	0.1334058
703.932	0.13350337
704.123	0.13364001
704.315	0.1338737
704.506	0.13399517
704.697	0.13418839
704.888	0.13433618
705.08	0.13452207
705.271	0.13472258
705.462	0.13485802
705.653	0.13500237
705.844	0.13515135
706.035	0.13533084
706.227	0.13546066
706.418	0.13557487
706.609	0.13574714
706.8	0.13599871
706.991	0.13611305
707.182	0.13626561
707.373	0.13639643
707.564	0.13660286
707.755	0.13673361
707.946	0.13684568
708.137	0.13693825
708.328	0.13709055
708.519	0.13727774
708.71	0.13745706
708.901	0.13755969
709.092	0.13773524
709.283	0.1379008
709.473	0.13811104
709.664	0.13831862
709.855	0.13845665
710.046	0.13865243
710.237	0.13887251
710.427	0.13912537
710.618	0.13933355
710.809	0.13947008
711	0.13962698
711.19	0.13977026
711.381	0.13994163
711.572	0.14009628
711.762	0.14023618
711.953	0.14035757
712.144	0.14055272
712.334	0.14068725
712.525	0.14086206
712.715	0.14097723
712.906	0.14106736
713.097	0.14113297
713.287	0.14126821
713.478	0.1413228
713.668	0.14146776
713.859	0.1416454
714.049	0.14178278
714.239	0.14199741
714.43	0.14224457
714.62	0.14244335
714.811	0.14267892
715.001	0.14285995
715.191	0.14301185
715.382	0.14316782
715.572	0.14329955
715.762	0.14336626
715.953	0.14348363
716.143	0.14360038
716.333	0.14373327
716.523	0.14389485
716.714	0.14411593
716.904	0.14427848
717.094	0.14450296
717.284	0.14466332
717.474	0.14479922
717.664	0.1449797
717.855	0.14511252
718.045	0.14524673
718.235	0.14542267
718.425	0.14556125
718.615	0.14575956
718.805	0.14602418
718.995	0.14620925
719.185	0.14643398
719.375	0.14659893
719.565	0.14675061
719.755	0.14694723
719.945	0.14713629
720.135	0.14731132
720.325	0.14745538
720.515	0.14760376
720.704	0.1477624
720.894	0.14798859
721.084	0.14815275
721.274	0.14832367
721.464	0.14844123
721.654	0.14863795
721.843	0.1487992
722.033	0.1490024
722.223	0.14910022
722.413	0.14928663
722.602	0.1494226
722.792	0.14964645
722.982	0.14977559
723.171	0.14995954
723.361	0.15007859
723.55	0.15029707
723.74	0.15042335
723.93	0.15060233
724.119	0.15070679
724.309	0.15088456
724.498	0.15101123
724.688	0.1512056
724.877	0.15137257
725.067	0.15151241
725.256	0.15159549
725.446	0.15175715
725.635	0.15193658
725.825	0.15207326
726.014	0.15219609
726.203	0.15229045
726.393	0.15238106
726.582	0.15255299
726.771	0.15270331
726.961	0.15280637
727.15	0.15291806
727.339	0.15300204
727.529	0.15314434
727.718	0.1532553
727.907	0.1533791
728.096	0.15342904
728.286	0.15347954
728.475	0.15363941
728.664	0.15378565
728.853	0.15389696
729.042	0.15404386
729.231	0.15415706
729.42	0.15427402
729.609	0.15438322
729.799	0.15445093
729.988	0.15454426
730.177	0.15460189
730.366	0.15474439
730.555	0.15485742
730.744	0.15500507
730.933	0.15517886
731.122	0.1553505
731.31	0.15544982
731.499	0.15554736
731.688	0.15563244
731.877	0.1557437
732.066	0.15588442
732.255	0.15598069
732.444	0.15600445
732.632	0.15609586
732.821	0.15619244
733.01	0.15633054
733.199	0.15637299
733.388	0.15641739
733.576	0.15651511
733.765	0.15658853
733.954	0.15673801
734.142	0.15689179
734.331	0.15694344
734.52	0.15708723
734.708	0.15719364
734.897	0.157293
735.086	0.15744646
735.274	0.1575022
735.463	0.15758462
735.651	0.15770786
735.84	0.15780812
736.028	0.15795619
736.217	0.15806889
736.405	0.15815769
736.594	0.15827871
736.782	0.15841336
736.971	0.15849464
737.159	0.15860266
737.347	0.15863241
737.536	0.15868508
737.724	0.15879208
737.912	0.15888847
738.101	0.15894446
738.289	0.15904577
738.477	0.15917265
738.666	0.15929372
738.854	0.15939581
739.042	0.1594694
739.23	0.15955028
739.418	0.15962752
739.607	0.15969407
739.795	0.15975162
739.983	0.1598844
740.171	0.15996034
740.359	0.1600636
740.547	0.16015414
740.735	0.16028929
740.923	0.16043618
741.112	0.16052371
741.3	0.16056792
741.488	0.16065228
741.676	0.1607912
741.864	0.1608464
742.052	0.16099561
742.239	0.16104628
742.427	0.16113337
742.615	0.16126023
742.803	0.16138091
742.991	0.16140167
743.179	0.16149808
743.367	0.1615017
743.555	0.16160841
743.742	0.16170667
743.93	0.16179587
744.118	0.16187369
744.306	0.16195414
744.494	0.16203989
744.681	0.16207337
744.869	0.16213259
745.057	0.16214966
745.244	0.16219425
745.432	0.16222516
745.62	0.1623351
745.807	0.16241407
745.995	0.16253938
746.182	0.16260985
746.37	0.16270291
746.558	0.16277282
746.745	0.16284766
746.933	0.16288455
747.12	0.16295039
747.308	0.16303279
747.495	0.16313916
747.683	0.16319355
747.87	0.16328018
748.057	0.16335415
748.245	0.16345502
748.432	0.16356178
748.62	0.16360101
748.807	0.16361197
748.994	0.16372789
749.182	0.16371449
749.369	0.16376619
749.556	0.16376362
749.743	0.16381939
749.931	0.16380688
750.118	0.16385369
750.305	0.16390976
750.492	0.16397656
750.68	0.16401613
750.867	0.16410258
751.054	0.16413077
751.241	0.16425897
751.428	0.16436023
751.615	0.1643461
751.802	0.1643895
751.989	0.16442242
752.176	0.16445924
752.363	0.1645151
752.55	0.16452331
752.737	0.16448742
752.924	0.16451755
753.111	0.16457676
753.298	0.16464227
753.485	0.16471576
753.672	0.16474849
753.859	0.1648291
754.046	0.16492083
754.233	0.16499116
754.42	0.16506566
754.606	0.16513553
754.793	0.16512392
754.98	0.16514024
755.167	0.16515301
755.353	0.16514709
755.54	0.16517761
755.727	0.16518574
755.914	0.16516608
756.1	0.16524425
756.287	0.16531554
756.474	0.1652736
756.66	0.16534059
756.847	0.16534291
757.033	0.16532147
757.22	0.16534199
757.407	0.16533051
757.593	0.1653358
757.78	0.16542221
757.966	0.16543095
758.153	0.16550615
758.339	0.16554619
758.526	0.1656141
758.712	0.16558781
758.898	0.16558058
759.085	0.16557174
759.271	0.16558321
759.458	0.16558536
759.644	0.16566086
759.83	0.16567937
760.017	0.16575959
760.203	0.16575529
760.389	0.16576455
760.576	0.16582007
760.762	0.16581161
760.948	0.16574919
761.134	0.16575022
761.32	0.1657757
761.507	0.16584066
761.693	0.16590814
761.879	0.16590407
762.065	0.16594705
762.251	0.16599988
762.437	0.16603806
762.623	0.16599845
762.809	0.16596178
762.995	0.16595977
763.181	0.16598382
763.367	0.16596269
763.553	0.16595708
763.739	0.16594531
763.925	0.16597224
764.111	0.16600472
764.297	0.16595995
764.483	0.16595082
764.669	0.16588847
764.855	0.16585458
765.041	0.16581979
765.227	0.16574235
765.412	0.16566652
765.598	0.1656811
765.784	0.16563385
765.97	0.16571529
766.156	0.16571951
766.341	0.16572989
766.527	0.16573116
766.713	0.16572415
766.898	0.16569327
767.084	0.16562919
767.27	0.16556731
767.455	0.16554633
767.641	0.16552612
767.827	0.16554996
768.012	0.16561139
768.198	0.16562033
768.383	0.16563728
768.569	0.16559482
768.754	0.16556447
768.94	0.16550914
769.125	0.1654678
769.311	0.16541775
769.496	0.16537429
769.682	0.16540077
769.867	0.16540599
770.052	0.1654365
770.238	0.16540373
770.423	0.16539458
770.608	0.16534899
770.794	0.16530763
770.979	0.16517212
771.164	0.16510156
771.35	0.16498986
771.535	0.16500897
771.72	0.16494684
771.905	0.16493746
772.09	0.1649047
772.276	0.16494209
772.461	0.16493305
772.646	0.16489025
772.831	0.16480822
773.016	0.16475946
773.201	0.16469724
773.386	0.1646158
773.571	0.16450896
773.756	0.16446926
773.941	0.16441767
774.126	0.16436339
774.311	0.16429463
774.496	0.16424727
774.681	0.16421881
774.866	0.16414671
775.051	0.16398928
775.236	0.16396246
775.421	0.16383325
775.606	0.1637341
775.791	0.16359231
775.976	0.16351909
776.16	0.16350279
776.345	0.16352529
776.53	0.16343335
776.715	0.16341128
776.899	0.16331416
777.084	0.16329099
777.269	0.16315426
777.454	0.16301127
777.638	0.16286971
777.823	0.16281546
778.008	0.16271737
778.192	0.16275516
778.377	0.16268342
778.561	0.16270403
778.746	0.16270516
778.931	0.16265367
779.115	0.16259
779.3	0.16256349
779.484	0.16241997
779.669	0.16237477
779.853	0.16224118
780.037	0.16215565
780.222	0.1621034
780.406	0.16199659
780.591	0.16188866
780.775	0.16179844
780.959	0.16164098
781.144	0.16153494
781.328	0.1613918
781.512	0.16124016
781.697	0.16109389
781.881	0.16096098
782.065	0.16086889
782.249	0.1607431
782.434	0.16069823
782.618	0.16063119
782.802	0.16061395
782.986	0.16058282
783.17	0.16053063
783.354	0.16044921
783.539	0.16035523
783.723	0.16018396
783.907	0.16002832
784.091	0.15988644
784.275	0.15969725
784.459	0.15957003
784.643	0.15952503
784.827	0.15943015
785.011	0.15940953
785.195	0.15935591
785.379	0.15926274
785.563	0.15919512
785.747	0.15914238
785.93	0.15901701
786.114	0.15886797
786.298	0.15873816
786.482	0.15859071
786.666	0.15846591
786.85	0.15838521
787.033	0.15825642
787.217	0.15816917
787.401	0.1581153
787.585	0.15794867
787.768	0.15783763
787.952	0.15768149
788.136	0.15754188
788.319	0.15741103
788.503	0.15722128
788.687	0.15706985
788.87	0.15701129
789.054	0.15691408
789.237	0.15688389
789.421	0.15673292
789.605	0.15657567
789.788	0.15650775
789.972	0.15639148
790.155	0.15620442
790.338	0.15597303
790.522	0.15582057
790.705	0.15569022
790.889	0.15560647
791.072	0.15542109
791.256	0.15530411
791.439	0.15519472
791.622	0.15517362
791.806	0.1550579
791.989	0.15488925
792.172	0.1547514
792.355	0.15456481
792.539	0.15439609
792.722	0.15423478
792.905	0.15410345
793.088	0.15389906
793.271	0.15381681
793.455	0.15366404
793.638	0.15365943
793.821	0.1535562
794.004	0.15347789
794.187	0.15335502
794.37	0.15319815
794.553	0.15304459
794.736	0.15282853
794.919	0.15258584
795.102	0.15246796
795.285	0.15231945
795.468	0.15212449
795.651	0.15197431
795.834	0.15186896
796.017	0.15181833
796.2	0.15169645
796.383	0.15151732
796.566	0.15138871
796.749	0.15122939
796.931	0.15114552
797.114	0.15096326
797.297	0.15077873
797.48	0.15058532
797.663	0.15046969
797.845	0.1502855
798.028	0.15020488
798.211	0.1500015
798.393	0.1498561
798.576	0.14970071
798.759	0.1495826
798.941	0.14942033
799.124	0.14928014
799.307	0.14909884
799.489	0.14899828
799.672	0.14880859
799.854	0.14863174
800.037	0.1484758
800.219	0.14829906
800.402	0.14806398
800.584	0.14794528
800.767	0.14775866
800.949	0.14763919
801.132	0.147556
801.314	0.14737272
801.496	0.14719245
801.679	0.14707363
801.861	0.14685148
802.043	0.1466643
802.226	0.14648709
802.408	0.14625224
802.59	0.14613017
802.772	0.14597707
802.955	0.1458272
803.137	0.1457057
803.319	0.14548879
803.501	0.14530863
803.684	0.14515699
803.866	0.14492112
804.048	0.14472858
804.23	0.14456732
804.412	0.14431665
804.594	0.1441829
804.776	0.14409721
804.958	0.14399453
805.14	0.14384495
805.322	0.14371276
805.504	0.14354693
805.686	0.1433925
805.868	0.1432298
806.05	0.14294495
806.232	0.14263183
806.414	0.14247562
806.596	0.14226269
806.778	0.14202952
806.96	0.14185083
807.141	0.141688
807.323	0.14156987
807.505	0.14139643
807.687	0.14121622
807.869	0.14099944
808.05	0.14083558
808.232	0.14061669
808.414	0.14041315
808.595	0.14016034
808.777	0.13999868
808.959	0.13977539
809.14	0.13957964
809.322	0.13935871
809.504	0.13916459
809.685	0.13900466
809.867	0.13886268
810.048	0.13868169
810.23	0.13855311
810.411	0.13839851
810.593	0.138293
810.774	0.13814687
810.956	0.13790039
811.137	0.13768676
811.319	0.13755093
811.5	0.13737949
811.681	0.13723083
811.863	0.13701468
812.044	0.1368442
812.225	0.1366808
812.407	0.13652151
812.588	0.13627981
812.769	0.13601129
812.951	0.13580518
813.132	0.13559318
813.313	0.13534463
813.494	0.13511187
813.675	0.13491094
813.857	0.1346919
814.038	0.13454826
814.219	0.13434073
814.4	0.13409006
814.581	0.13395055
814.762	0.13379921
814.943	0.13357277
815.124	0.13336552
815.305	0.13311188
815.486	0.13289705
815.667	0.13270955
815.848	0.13239977
816.029	0.13216824
816.21	0.13193898
816.391	0.13174249
816.572	0.13155793
816.753	0.13131699
816.934	0.13107999
817.115	0.1309326
817.295	0.13072512
817.476	0.13048513
817.657	0.13026039
817.838	0.13001374
818.019	0.12978855
818.199	0.12961863
818.38	0.12934902
818.561	0.12911458
818.741	0.12893857
818.922	0.12877505
819.103	0.12859182
819.283	0.12845211
819.464	0.12825527
819.645	0.12813855
819.825	0.12801935
820.006	0.12780812
820.186	0.12760282
820.367	0.12739132
820.547	0.12716327
820.728	0.12689445
820.908	0.12667029
821.089	0.12645175
821.269	0.12629261
821.45	0.1260722
821.63	0.12582879
821.81	0.12558434
821.991	0.12535248
822.171	0.12515372
822.351	0.12491874
822.532	0.12462656
822.712	0.12434852
822.892	0.12416773
823.072	0.12398987
823.253	0.12378106
823.433	0.12348794
823.613	0.12317934
823.793	0.12299966
823.973	0.12279732
824.154	0.12257382
824.334	0.12230923
824.514	0.12213457
824.694	0.12190931
824.874	0.12168282
825.054	0.12146653
825.234	0.12120828
825.414	0.12094806
825.594	0.12074995
825.774	0.1206011
825.954	0.12046328
826.134	0.12035892
826.314	0.12012389
826.494	0.1200064
826.674	0.11975404
826.854	0.11950224
827.033	0.1191756
827.213	0.11893024
827.393	0.11862965
827.573	0.1184049
827.753	0.11814125
827.932	0.11801118
828.112	0.11779556
828.292	0.11764363
828.472	0.11743126
828.651	0.11727835
828.831	0.11703524
829.011	0.11682212
829.19	0.11657929
829.37	0.11638412
829.549	0.11611666
829.729	0.11583087
829.909	0.115504
830.088	0.11527497
830.268	0.1150332
830.447	0.11483809
830.627	0.11455968
830.806	0.114345
830.986	0.11411026
831.165	0.11391829
831.344	0.11372723
831.524	0.1135415
831.703	0.11323827
831.883	0.11302328
832.062	0.11274509
832.241	0.1125171
832.421	0.11233095
832.6	0.11206425
832.779	0.11176005
832.958	0.11157075
833.138	0.11137332
833.317	0.11123823
833.496	0.11107235
833.675	0.11079055
833.854	0.11062285
834.034	0.1104268
834.213	0.11010402
834.392	0.10988836
834.571	0.10953976
834.75	0.10927602
834.929	0.1090218
835.108	0.10874701
835.287	0.10856556
835.466	0.10837288
835.645	0.10813092
835.824	0.1079455
836.003	0.10766797
836.182	0.10751838
836.361	0.10730251
836.54	0.10697955
836.719	0.10677646
836.897	0.10651127
837.076	0.10628709
837.255	0.1060357
837.434	0.1057889
837.613	0.10548567
837.791	0.10531129
837.97	0.10509842
838.149	0.10481324
838.328	0.1045702
838.506	0.1044095
838.685	0.10410664
838.864	0.10404087
839.042	0.10378385
839.221	0.1035463
839.4	0.10342133
839.578	0.10310997
839.757	0.10277608
839.935	0.10255794
840.114	0.1022484
840.292	0.10206789
840.471	0.10184422
840.649	0.10159259
840.828	0.10143219
841.006	0.10132194
841.185	0.10109144
841.363	0.10082486
841.541	0.10053562
841.72	0.10028485
841.898	0.10009365
842.076	0.09981507
842.255	0.09950448
842.433	0.09928079
842.611	0.09904897
842.789	0.09883258
842.968	0.09870558
843.146	0.09844944
843.324	0.09830117
843.502	0.09810513
843.68	0.09794165
843.859	0.0977874
844.037	0.09756895
844.215	0.09728861
844.393	0.09714725
844.571	0.09694977
844.749	0.09675601
844.927	0.09642068
845.105	0.09611206
845.283	0.09581718
845.461	0.09554267
845.639	0.09519386
845.817	0.0948956
845.995	0.09466306
846.173	0.09444358
846.351	0.09424961
846.529	0.0940812
846.706	0.09389626
846.884	0.09369558
847.062	0.09341401
847.24	0.09314968
847.418	0.09291234
847.595	0.09265764
847.773	0.0924135
847.951	0.09215068
848.129	0.09196176
848.306	0.09182962
848.484	0.09165251
848.662	0.09159997
848.839	0.09141967
849.017	0.09131988
849.194	0.09116493
849.372	0.09092864
849.549	0.09065258
849.727	0.09037595
849.905	0.09001826
850.082	0.08972511
850.26	0.08933719
850.437	0.08899461
850.614	0.08868912
850.792	0.08846183
850.969	0.08836068
851.147	0.08818191
851.324	0.08802604
851.501	0.08789416
851.679	0.08779865
851.856	0.08762266
852.033	0.08747249
852.211	0.08706421
852.388	0.08672597
852.565	0.0864592
852.742	0.08617988
852.92	0.08588426
853.097	0.08558356
853.274	0.08533317
853.451	0.08522009
853.628	0.08506899
853.805	0.08484213
853.982	0.08463584
854.159	0.08443147
854.336	0.08423874
854.514	0.08398594
854.691	0.08375272
854.868	0.0835242
855.045	0.08329709
855.221	0.08305109
855.398	0.08275741
855.575	0.08251137
855.752	0.08228016
855.929	0.08206819
856.106	0.08192599
856.283	0.08173477
856.46	0.08149151
856.637	0.08134623
856.813	0.08114902
856.99	0.08091994
857.167	0.08067742
857.344	0.0804087
857.52	0.08014492
857.697	0.0799467
857.874	0.07970581
858.05	0.07953796
858.227	0.07929791
858.404	0.07919241
858.58	0.07897196
858.757	0.07885061
858.933	0.07865173
859.11	0.07843613
859.287	0.0781974
859.463	0.07802934
859.64	0.07771964
859.816	0.07744881
859.993	0.07710537
860.169	0.07680504
860.345	0.07648833
860.522	0.07626475
860.698	0.07597965
860.875	0.07575633
861.051	0.0756441
861.227	0.07552294
861.404	0.07543775
861.58	0.0753635
861.756	0.07515341
861.932	0.07508923
862.109	0.07490068
862.285	0.0745621
862.461	0.07423883
862.637	0.07407111
862.813	0.07379405
862.99	0.07362918
863.166	0.07336498
863.342	0.07319312
863.518	0.07308992
863.694	0.07311228
863.87	0.07288042
864.046	0.0727481
864.222	0.07258828
864.398	0.07242772
864.574	0.07219903
864.75	0.07196435
864.926	0.07159603
865.102	0.0713101
865.278	0.0710604
865.454	0.07073263
865.63	0.07042323
865.805	0.07023183
865.981	0.07003615
866.157	0.06995656
866.333	0.06983547
866.509	0.06970876
866.684	0.06963228
866.86	0.06959142
867.036	0.06937359
867.212	0.06925832
867.387	0.06902274
867.563	0.0687994
867.739	0.06854915
867.914	0.06832805
868.09	0.06804689
868.265	0.06777517
868.441	0.06751921
868.617	0.06739994
868.792	0.06718856
868.968	0.06700356
869.143	0.06681009
869.319	0.06661485
869.494	0.06650413
869.67	0.06636846
869.845	0.06608613
870.02	0.06588078
870.196	0.06564468
870.371	0.06543773
870.546	0.06527122
870.722	0.06504906
870.897	0.06472393
871.072	0.06452447
871.248	0.06427373
871.423	0.06401913
871.598	0.06377123
871.773	0.06352172
871.949	0.06333566
872.124	0.06323238
872.299	0.06297683
872.474	0.06285816
872.649	0.06271741
872.824	0.06258178
872.999	0.06239581
873.174	0.06211933
873.349	0.0618277
873.524	0.06161346
873.699	0.06136507
873.874	0.06121594
874.049	0.06098676
874.224	0.06076875
874.399	0.06064532
874.574	0.06055714
874.749	0.06046052
874.924	0.06036299
875.099	0.06023003
875.274	0.06002011
875.449	0.05984874
875.623	0.05972245
875.798	0.05945229
875.973	0.05924446
876.148	0.05886939
876.322	0.05857811
876.497	0.05840324
876.672	0.05811239
876.846	0.05785429
877.021	0.05774781
877.196	0.05757851
877.37	0.0575824
877.545	0.05734156
877.72	0.05717766
877.894	0.05712429
878.069	0.05698715
878.243	0.05663155
878.418	0.05640968
878.592	0.05617965
878.767	0.05598436
878.941	0.05578355
879.116	0.05563045
879.29	0.05546644
879.464	0.05545691
879.639	0.05516768
879.813	0.05516636
879.987	0.05510836
880.162	0.05489683
880.336	0.05459887
880.51	0.05430203
880.685	0.05408544
880.859	0.05394101
881.033	0.05347795
881.207	0.05322434
881.381	0.05305594
881.556	0.05297428
881.73	0.05287925
881.904	0.05270366
882.078	0.05269003
882.252	0.05262052
882.426	0.05259532
882.6	0.05257201
882.774	0.05244581
882.948	0.05235082
883.122	0.05219021
883.296	0.05198641
883.47	0.05174223
883.644	0.05152494
883.818	0.05114766
883.992	0.05100364
884.166	0.05077259
884.34	0.05059113
884.514	0.0503472
884.687	0.05026271
884.861	0.0500511
885.035	0.05000434
885.209	0.04978386
885.382	0.04959124
885.556	0.04946612
885.73	0.04924825
885.904	0.04907684
886.077	0.04897681
886.251	0.04874041
886.425	0.04847073
886.598	0.04829064
886.772	0.04810256
886.945	0.04797433
887.119	0.04779342
887.292	0.04755993
887.466	0.04742621
887.64	0.04732148
887.813	0.04721402
887.986	0.04708056
888.16	0.04699572
888.333	0.04687964
888.507	0.04667406
888.68	0.04650309
888.854	0.0463579
889.027	0.04619997
889.2	0.04599667
889.374	0.04585008
889.547	0.04566742
889.72	0.04547535
889.893	0.04531006
890.067	0.04514862
890.24	0.0449699
890.413	0.04485039
890.586	0.0446763
890.759	0.04451042
890.933	0.04443487
891.106	0.04440476
891.279	0.04423069
891.452	0.044044
891.625	0.04391246
891.798	0.04375852
891.971	0.043641
892.144	0.04348083
892.317	0.04327528
892.49	0.04322001
892.663	0.04307793
892.836	0.04288042
893.009	0.04275516
893.182	0.04256243
893.355	0.0423936
893.527	0.0422994
893.7	0.04208465
893.873	0.04205147
894.046	0.04190615
894.219	0.04171379
894.391	0.0415901
894.564	0.04141866
894.737	0.0411838
894.91	0.04111887
895.082	0.04084221
895.255	0.04074388
895.428	0.04059384
895.6	0.04039916
895.773	0.04028793
895.945	0.04012217
896.118	0.03988546
896.291	0.03994507
896.463	0.03977171
896.636	0.03967124
896.808	0.03950788
896.981	0.03943225
897.153	0.03922851
897.326	0.03917973
897.498	0.03886903
897.67	0.03870733
897.843	0.03847941
898.015	0.03838743
898.187	0.03822887
898.36	0.03806874
898.532	0.03789733
898.704	0.03773512
898.877	0.03756515
899.049	0.03749955
899.221	0.03736266
899.393	0.03718995
899.566	0.03711427
899.738	0.03697927
899.91	0.03691346
900.082	0.03680278
900.254	0.03672073
900.426	0.03667521
900.598	0.0365397
900.77	0.03628878
900.942	0.03610093
901.114	0.03583111
901.286	0.03570996
901.458	0.0354959
901.63	0.03526013
901.802	0.03514618
901.974	0.03515308
902.146	0.035066
902.318	0.03511903
902.49	0.03505711
902.662	0.03493691
902.834	0.03478334
903.005	0.03463077
903.177	0.03458831
903.349	0.03452431
903.521	0.0342445
903.693	0.0339918
903.864	0.03381538
904.036	0.03367524
904.208	0.03363123
904.379	0.03344372
904.551	0.03326876
904.723	0.03319261
904.894	0.03308975
905.066	0.03301782
905.237	0.03302622
905.409	0.03292098
905.58	0.03284694
905.752	0.03278073
905.923	0.03263801
906.095	0.03265481
906.266	0.03257152
906.438	0.03240539
906.609	0.03220111
906.78	0.03192411
906.952	0.03164212
907.123	0.03159579
907.295	0.03131254
907.466	0.03114351
907.637	0.03100762
907.808	0.03087692
907.98	0.03086808
908.151	0.03088065
908.322	0.03079129
908.493	0.03074591
908.665	0.03065749
908.836	0.03056553
909.007	0.0304821
909.178	0.03028468
909.349	0.03008784
909.52	0.02986369
909.691	0.02975305
909.862	0.02968532
910.033	0.0295866
910.204	0.02950192
910.375	0.02956095
910.546	0.02958046
910.717	0.02963412
910.888	0.02961984
911.059	0.0295174
911.23	0.02945189
911.401	0.02934555
911.572	0.0291628
911.742	0.02904831
911.913	0.02884136
912.084	0.02871645
912.255	0.02854035
912.426	0.02832288
912.596	0.02813638
912.767	0.0280346
912.938	0.02789408
913.108	0.02768751
913.279	0.02745397
913.45	0.02735721
913.62	0.02735655
913.791	0.0273099
913.962	0.02730845
914.132	0.02715007
914.303	0.02709862
914.473	0.02698393
914.644	0.02691229
914.814	0.02664374
914.985	0.0264482
915.155	0.02615527
915.326	0.02598765
915.496	0.0258327
915.666	0.02577449
915.837	0.02557434
916.007	0.02556751
916.177	0.02560492
916.348	0.02556744
916.518	0.02549993
916.688	0.02548635
916.858	0.02542602
917.029	0.02546318
917.199	0.02533046
917.369	0.02513571
917.539	0.02506053
917.709	0.02503481
917.88	0.02489415
918.05	0.02473298
918.22	0.02445591
918.39	0.0244069
918.56	0.02437477
918.73	0.02420972
918.9	0.02409858
919.07	0.02392336
919.24	0.02386117
919.41	0.02390556
919.58	0.02386538
919.75	0.02366605
919.92	0.02357867
920.09	0.02357014
920.26	0.02364958
920.429	0.0234307
920.599	0.02330148
920.769	0.02317887
920.939	0.02318865
921.109	0.02311621
921.278	0.02284003
921.448	0.02270731
921.618	0.02258175
921.787	0.022501
921.957	0.02235082
922.127	0.02225981
922.296	0.02214763
922.466	0.02211493
922.636	0.0221389
922.805	0.02220993
922.975	0.02209949
923.144	0.02205605
923.314	0.02184279
923.483	0.02176493
923.653	0.02161605
923.822	0.02125858
923.992	0.02120625
924.161	0.02095645
924.331	0.02078838
924.5	0.02082966
924.669	0.02069402
924.839	0.02061029
925.008	0.02071716
925.177	0.02052747
925.347	0.02064641
925.516	0.02059875
925.685	0.0206214
925.854	0.02066393
926.023	0.02081793
926.193	0.02073229
926.362	0.02086323
926.531	0.02073151
926.7	0.02044206
926.869	0.02027147
927.038	0.02006783
927.207	0.01985185
927.376	0.01978282
927.545	0.0194553
927.715	0.01938471
927.884	0.0196979
928.052	0.01969834
928.221	0.01968726
928.39	0.01953541
928.559	0.01952645
928.728	0.01962012
928.897	0.01958242
929.066	0.01941816
929.235	0.01942859
929.404	0.01945271
929.572	0.01957438
929.741	0.01953603
929.91	0.01948641
930.079	0.01945554
930.247	0.01939717
930.416	0.01912621
930.585	0.01898573
930.753	0.01884684
930.922	0.01876622
931.091	0.01861754
931.259	0.01853009
931.428	0.018384
931.596	0.01837915
931.765	0.01845941
931.934	0.01841681
932.102	0.01832858
932.27	0.01828984
932.439	0.0181966
932.607	0.01826994
932.776	0.01823669
932.944	0.01806123
933.113	0.0178611
933.281	0.01768527
933.449	0.01766311
933.618	0.01774654
933.786	0.01748761
933.954	0.01741822
934.123	0.01738389
934.291	0.01752882
934.459	0.01760157
934.627	0.01748722
934.795	0.01724389
934.964	0.01743237
935.132	0.01722733
935.3	0.01721078
935.468	0.017077
935.636	0.01690047
935.804	0.01684563
935.972	0.01678757
936.14	0.01660774
936.308	0.01663867
936.476	0.01652881
936.644	0.01651238
936.812	0.01639745
936.98	0.01644454
937.148	0.01651209
937.316	0.01650242
937.484	0.01662006
937.652	0.01649066
937.82	0.01657301
937.987	0.0169096
938.155	0.01708676
938.323	0.01732512
938.491	0.01773876
938.658	0.01776016
938.826	0.01797442
938.994	0.01820429
939.162	0.01820127
939.329	0.01795378
939.497	0.01818671
939.665	0.0178363
939.832	0.01798987
940	0.01788043
940.167	0.01731053
940.335	0.0174261
940.502	0.01794822
940.67	0.01748754
940.837	0.01832229
941.005	0.01789097
941.172	0.01844022
941.34	0.01912847
941.507	0.01975196
941.674	0.01994683
941.842	0.02008043
942.009	0.01989745
942.177	0.02058469
942.344	0.02111171
942.511	0.02082165
942.678	0.02083768
942.846	0.020312
943.013	0.021134
943.18	0.02095523
943.347	0.0205443
943.514	0.01992714
943.682	0.01949911
943.849	0.01864158
944.016	0.01925291
944.183	0.01988197
944.35	0.0201679
944.517	0.0209514
944.684	0.02131499
944.851	0.02239454
945.018	0.02298674
945.185	0.02263927
945.352	0.02110317
945.519	0.0204602
945.686	0.0199429
945.853	0.02000862
946.02	0.01984731
946.187	0.01951009
946.353	0.01929433
946.52	0.01966794
946.687	0.01965769
946.854	0.01920461
947.021	0.01933947
947.187	0.01837859
947.354	0.0176456
947.521	0.01772059
947.687	0.01707719
947.854	0.01649158
948.021	0.01616665
948.187	0.01554561
948.354	0.01629503
948.52	0.01690812
948.687	0.01642568
948.854	0.01647966
949.02	0.01636213
949.187	0.01746346
949.353	0.01707283
949.52	0.01590577
949.686	0.01599238
949.852	0.01591417
950.019	0.01556785
950.185	0.01585297
950.352	0.01529231
950.518	0.01516601
950.684	0.01595664
950.851	0.01542016
951.017	0.01541352
951.183	0.01541944
951.349	0.0151956
951.516	0.01491739
951.682	0.01490738
951.848	0.01402571
952.014	0.01322409
952.18	0.01341693
952.346	0.01376949
952.512	0.01354345
952.679	0.01301799
952.845	0.01248799
953.011	0.01299349
953.177	0.0131985
953.343	0.01287964
953.509	0.01262616
953.675	0.01274995
953.841	0.01306856
954.007	0.01313792
954.172	0.01308811
954.338	0.0132272
954.504	0.01358687
954.67	0.01393307
954.836	0.01369204
955.002	0.01413702
955.167	0.01423489
955.333	0.01374101
955.499	0.01385922
955.665	0.01340846
955.83	0.01282826
955.996	0.01247882
956.162	0.01146561
956.327	0.01160884
956.493	0.011928
956.659	0.01158609
956.824	0.01172089
956.99	0.01187192
957.155	0.01165481
957.321	0.01191122
957.486	0.01218576
957.652	0.0114894
957.817	0.01148811
957.983	0.01108135
958.148	0.01100072
958.314	0.01171105
958.479	0.0117763
958.644	0.01158644
958.81	0.01157486
958.975	0.01155337
959.14	0.0115368
959.306	0.01097929
959.471	0.01064179
959.636	0.01035966
959.801	0.01008824
959.967	0.01031562
960.132	0.01027946
960.297	0.01018335
960.462	0.01057434
960.627	0.0104091
960.792	0.01037973
960.957	0.01037504
961.123	0.01001006
961.288	0.01013367
961.453	0.00999258
961.618	0.00989161
961.783	0.00969227
961.948	0.00983111
962.113	0.00950167
962.277	0.00944236
962.442	0.00914612
962.607	0.00900016
962.772	0.00872539
962.937	0.0088228
963.102	0.00843839
963.267	0.00879017
963.431	0.00885683
963.596	0.00892041
963.761	0.00930155
963.926	0.00948808
964.09	0.00927049
964.255	0.00940453
964.42	0.00923006
964.584	0.00942259
964.749	0.00942476
964.914	0.00911265
965.078	0.00925544
965.243	0.00952244
965.407	0.00953791
965.572	0.0092956
965.736	0.00929562
965.901	0.00909282
966.065	0.00932007
966.23	0.0089649
966.394	0.00901372
966.559	0.00902661
966.723	0.00889508
966.887	0.00893298
967.052	0.00905691
967.216	0.008889
967.38	0.00909313
967.545	0.00910949
967.709	0.00906007
967.873	0.00922395
968.037	0.00912542
968.202	0.00892161
968.366	0.00895648
968.53	0.00873044
968.694	0.00806331
968.858	0.00787592
969.022	0.00792903
969.187	0.00762978
969.351	0.00777786
969.515	0.00755591
969.679	0.00730298
969.843	0.00732882
970.007	0.00736495
970.171	0.00742189
970.335	0.00758868
970.499	0.00731883
970.662	0.0074522
970.826	0.00764335
970.99	0.00840214
971.154	0.00856825
971.318	0.00833292
971.482	0.00827288
971.645	0.00846386
971.809	0.00794051
971.973	0.00786954
972.137	0.00723196
972.3	0.00698543
972.464	0.00709329
972.628	0.00689497
972.791	0.00700643
972.955	0.00739879
973.119	0.00750338
973.282	0.00765357
973.446	0.00813367
973.609	0.00824689
973.773	0.0082748
973.936	0.0080133
974.1	0.00813259
974.263	0.00787127
974.427	0.00771595
974.59	0.00716927
974.754	0.00646235
974.917	0.00623261
975.08	0.00634606
975.244	0.00596643
975.407	0.00616381
975.57	0.00614184
975.734	0.00609232
975.897	0.00673425
976.06	0.00712617
976.223	0.00708745
976.387	0.00716412
976.55	0.0070663
976.713	0.00709692
976.876	0.00738728
977.039	0.00694325
977.202	0.00702153
977.365	0.00697555
977.528	0.00708167
977.692	0.00682488
977.855	0.00683567
978.018	0.00676533
978.181	0.00728069
978.344	0.0072687
978.506	0.0070989
978.669	0.00693677
978.832	0.00716471
978.995	0.00696097
979.158	0.0068422
979.321	0.00623118
979.484	0.00579841
979.646	0.00580682
979.809	0.00613178
979.972	0.00611827
980.135	0.00594276
980.297	0.00622147
980.46	0.00609577
980.623	0.00620346
980.786	0.00664872
980.948	0.00637225
981.111	0.00612751
981.273	0.00612458
981.436	0.00583313
981.599	0.00622049
981.761	0.00619099
981.924	0.00617559
982.086	0.00652348
982.249	0.00651493
982.411	0.00622144
982.573	0.00636213
982.736	0.00643325
982.898	0.00654052
983.061	0.0058989
983.223	0.0053708
983.385	0.00539131
983.548	0.00607576
983.71	0.00570508
983.872	0.0054372
984.034	0.00533182
984.197	0.00523612
984.359	0.00547178
984.521	0.00578778
984.683	0.00578972
984.845	0.00631028
985.008	0.00656564
985.17	0.0064202
985.332	0.00680475
985.494	0.00649555
985.656	0.00651999
985.818	0.00660092
985.98	0.00623668
986.142	0.00561929
986.304	0.00586867
986.466	0.00605646
986.628	0.00661447
986.79	0.00602565
986.952	0.00578219
987.113	0.00543522
987.275	0.00611961
987.437	0.0062825
987.599	0.00630721
987.761	0.00573191
987.922	0.00572546
988.084	0.00593155
988.246	0.00579313
988.408	0.00569838
988.569	0.00544538
988.731	0.00559829
988.893	0.00574116
989.054	0.0062727
989.216	0.0062901
989.377	0.00678261
989.539	0.00636494
989.701	0.00605516
989.862	0.00567337
990.024	0.00582653
990.185	0.00627236
990.347	0.00624149
990.508	0.00589864
990.669	0.00587931
990.831	0.00550692
990.992	0.00507981
991.154	0.00498451
991.315	0.00473962
991.476	0.00519229
991.638	0.00517323
991.799	0.00522387
991.96	0.0062984
992.121	0.00629095
992.283	0.00676259
992.444	0.00664201
992.605	0.00549794
992.766	0.00544736
992.927	0.00557448
993.088	0.00506691
993.249	0.00614339
993.41	0.00529478
993.572	0.00515394
993.733	0.00582429
993.894	0.00604394
994.055	0.0062561
994.216	0.00636716
994.376	0.00555284
994.537	0.00650167
994.698	0.0066145
994.859	0.00647492
995.02	0.00674638
995.181	0.00702798
995.342	0.00723232
995.503	0.0070792
995.663	0.00631292
995.824	0.00581965
995.985	0.00644063
996.146	0.00530218
996.306	0.00521725
996.467	0.00502776
996.628	0.00540335
996.788	0.00559197
996.949	0.0059568
997.11	0.00649796
997.27	0.00768652
997.431	0.00747733
997.591	0.00697435
997.752	0.00721481
997.912	0.00786813
998.073	0.00842838
998.233	0.00714958
998.394	0.00754941
998.554	0.00767273
998.714	0.0083763
998.875	0.00818873
999.035	0.00811074
999.196	0.00820814
999.356	0.00877057
999.516	0.00913461
999.676	0.00918833
999.837	0.00855206
999.997	0.00905374
1000.157	0.00855165
1000.317	0.00823033
1000.477	0.0084141
1000.638	0.00812945
1000.798	0.00830357
1000.958	0.00788166
1001.118	0.00768496
1001.278	0.00776319
1001.438	0.00744946
1001.598	0.00663008
1001.758	0.00581636
1001.918	0.00521294
1002.078	0.00697164
1002.238	0.00578611
1002.398	0.00549572
1002.558	0.00564522
1002.718	0.00646573
1002.878	0.0073145
1003.037	0.00715939
1003.197	0.00645985
1003.357	0.00728275
1003.517	0.00757166
1003.677	0.00752461
1003.836	0.00780198
1003.996	0.0073682
1004.156	0.00825312
1004.315	0.00835524
1004.475	0.00826739
1004.635	0.00910995
1004.794	0.00970984
1004.954	0.00975746
1005.114	0.01011248
1005.273	0.00906
1005.433	0.00898729
1005.592	0.00950357
1005.752	0.00755852
1005.911	0.0059294
1006.071	0.00511171
1006.23	0.00438023
1006.389	0.00491638
1006.549	0.00561005
1006.708	0.0054885
1006.868	0.00746646
1007.027	0.00966694
1007.186	0.00917082
1007.345	0.01163987
1007.505	0.01207124
1007.664	0.01065855
1007.823	0.00966477
1007.982	0.00862312
1008.142	0.00811603
1008.301	0.00816424
1008.46	0.00531882
1008.619	0.00465166
1008.778	0.00534552
1008.937	0.00608319
1009.096	0.00553752
1009.255	0.00595346
1009.414	0.00547031
1009.573	0.00713278
1009.732	0.00825551
1009.891	0.00855688
1010.05	0.00892658
1010.209	0.0094073
1010.368	0.01005219
1010.527	0.01186219
1010.686	0.01153951
1010.845	0.01097708
1011.003	0.01075797
1011.162	0.01050717
1011.321	0.00947632
1011.48	0.00703242
1011.638	0.00752224
1011.797	0.00634139
1011.956	0.00575227
1012.115	0.00493539
1012.273	0.00438353
1012.432	0.00686107
1012.59	0.00553932
1012.749	0.00480547
1012.908	0.00634808
1013.066	0.00684259
1013.225	0.00699427
1013.383	0.0066953
1013.542	0.00735613
1013.7	0.00977131
1013.859	0.00927945
1014.017	0.00880426
1014.175	0.00958675
1014.334	0.01104564
1014.492	0.01227655
1014.65	0.01050756
1014.809	0.01108056
1014.967	0.01015187
1015.125	0.00994109
1015.284	0.00935136
1015.442	0.00872386
1015.6	0.00867452
1015.758	0.00967027
1015.916	0.00898004
1016.075	0.00913419
1016.233	0.00829633
1016.391	0.01079766
1016.549	0.01287896
1016.707	0.01212911
1016.865	0.01086065
1017.023	0.01097623
1017.181	0.01369875
1017.339	0.01325181
1017.497	0.0102207
1017.655	0.00947959
1017.813	0.01232766
1017.971	0.01258579
1018.129	0.01132615
1018.286	0.00841738
1018.444	0.00910321
1018.602	0.00984401
1018.76	0.01036386
1018.918	0.0095838
1019.075	0.00964223
1019.233	0.01212395
1019.391	0.01477174
1019.549	0.01527747
1019.706	0.01554009
1019.864	0.01293212
1020.022	0.00917206
1020.179	0.0110143
1020.337	0.00959109
1020.494	0.00876674
1020.652	0.00923335
1020.809	0.01054474
1020.967	0.01468943
1021.124	0.01423732
1021.282	0.01556676
1021.439	0.01739819
1021.597	0.02023622
1021.754	0.01892717
1021.911	0.01915076
1022.069	0.01729365
1022.226	0.02155832
1022.384	0.01703179
1022.541	0.0177379
1022.698	0.01432718
1022.855	0.01373128
1023.013	0.01479555
1023.17	0.01382872
1023.327	0.01143757
1023.484	0.01299255
1023.641	0.01049054
1023.798	0.01211263
1023.956	0.0170165
1024.113	0.01153749
1024.27	0.01244381
1024.427	0.01736585
1024.584	0.0165886
1024.741	0.01972388
1024.898	0.01723869
1025.055	0.01475544
1025.212	0.01637673
1025.369	0.01518147
1025.525	0.01228471
1025.682	0.01270414
1025.839	0.01279342
1025.996	0.01462224
1026.153	0.01454537
1026.31	0.01428043
1026.466	0.01480087
1026.623	0.01576892
1026.78	0.01959865
1026.937	0.01762705
1027.093	0.02076867
1027.25	0.02166633
1027.407	0.02366154
1027.563	0.02866041
1027.72	0.02847413
1027.876	0.02544124
1028.033	0.02995573
1028.19	0.03029257
1028.346	0.0295148
1028.503	0.02910793
1028.659	0.02327504
1028.816	0.02545127
1028.972	0.02353868
1029.128	0.01652322
1029.285	0.0096365
1029.441	0.00919656
1029.598	0.01210711
1029.754	0.01273198
1029.91	0.00866017
1030.067	0.01068374
1030.223	0.01027467
1030.379	0.00848003
1030.535	0.01044601
1030.691	0.01200627
1030.848	0.01742895
1031.004	0.02051465
1031.16	0.02364062
1031.316	0.02813662
1031.472	0.03784607
1031.628	0.03655066
1031.784	0.03103066
1031.94	0.02283059
1032.096	0.02769883
1032.252	0.02713417
1032.408	0.03376033
1032.564	0.02922045
1032.72	0.03173147
1032.876	0.0348375
1033.032	0.03992434
1033.188	0.03421496
1033.344	0.03393952
1033.5	0.02543646
1033.655	0.02711407
1033.811	0.02548328
1033.967	0.02444981
