Data from 0_1_mm_pl_100pc_Absorbance__0__16-15-43-203.txt Node

Date: Fri Feb 24 16:15:43 CET 2023
User: Ange
Spectrometer: FLMT08341
Trigger mode: 0
Integration Time (sec): 1.000000E-2
Scans to average: 400
Electric dark correction enabled: true
Nonlinearity correction enabled: false
Boxcar width: 3
XAxis mode: Wavelengths
Number of Pixels in Spectrum: 3648
>>>>>Begin Spectral Data<<<<<
345.271	-0.00046942
345.487	0.00861788
345.704	0.02685737
345.921	0.02796787
346.137	0.02488494
346.354	0.01883913
346.571	-0.02382374
346.787	-0.10217531
347.004	0.13598715
347.22	0.1491657
347.437	0.34411064
347.653	0.36096038
347.87	-0.19149349
348.086	1.31511589
348.303	-0.41242773
348.519	0.2704696
348.736	0.24832551
348.952	0.26100885
349.169	0.26525887
349.385	0.27586755
349.601	0.27558212
349.818	0.27640153
350.034	0.27834304
350.251	0.28163409
350.467	0.2857372
350.683	0.28297243
350.9	0.28410525
351.116	0.28416053
351.332	0.28383492
351.549	0.29342353
351.765	0.30184484
351.981	0.30892741
352.197	0.31890656
352.414	0.33129675
352.63	0.34253004
352.846	0.35137083
353.062	0.34827369
353.278	0.34789398
353.495	0.35507462
353.711	0.35917948
353.927	0.36155968
354.143	0.36204034
354.359	0.36025674
354.575	0.36022763
354.792	0.36927533
355.008	0.36315143
355.224	0.36005862
355.44	0.35790249
355.656	0.35891752
355.872	0.36722614
356.088	0.38864927
356.304	0.39066039
356.52	0.39646278
356.736	0.40531926
356.952	0.41427208
357.168	0.41730878
357.384	0.42392999
357.6	0.41363445
357.816	0.42249843
358.032	0.43218018
358.248	0.44552259
358.464	0.44761911
358.679	0.45589907
358.895	0.46001487
359.111	0.46782258
359.327	0.4625736
359.543	0.46625855
359.759	0.46913433
359.974	0.47253789
360.19	0.47374526
360.406	0.47449193
360.622	0.47383523
360.838	0.47542942
361.053	0.47940122
361.269	0.4823585
361.485	0.48559234
361.701	0.49272099
361.916	0.49237593
362.132	0.49555499
362.348	0.50259179
362.563	0.50557936
362.779	0.50347882
362.995	0.51261205
363.21	0.51873641
363.426	0.52108698
363.641	0.52423607
363.857	0.52951335
364.073	0.52923282
364.288	0.52996849
364.504	0.53639235
364.719	0.53835216
364.935	0.54246816
365.15	0.54685406
365.366	0.55014222
365.581	0.56058354
365.797	0.56591821
366.012	0.560635
366.228	0.5570848
366.443	0.56786479
366.658	0.57256946
366.874	0.56807331
367.089	0.57329102
367.305	0.57852503
367.52	0.58315581
367.735	0.58428044
367.951	0.57915226
368.166	0.58179758
368.381	0.59329984
368.597	0.58970055
368.812	0.59369897
369.027	0.59760699
369.243	0.60380932
369.458	0.61891835
369.673	0.62285869
369.888	0.62660642
370.104	0.62457646
370.319	0.62631319
370.534	0.62453849
370.749	0.6279739
370.964	0.62836305
371.179	0.62679634
371.395	0.6239604
371.61	0.6325319
371.825	0.63003861
372.04	0.63523245
372.255	0.63530349
372.47	0.62988904
372.685	0.62835926
372.9	0.62943309
373.115	0.62639301
373.33	0.6316529
373.545	0.63317375
373.76	0.63783032
373.975	0.6398462
374.19	0.64146444
374.405	0.64361165
374.62	0.6524488
374.835	0.66296791
375.05	0.66693175
375.265	0.66889186
375.48	0.67345084
375.695	0.69020173
375.91	0.69044072
376.125	0.68214747
376.339	0.67152935
376.554	0.67201267
376.769	0.67299491
376.984	0.67414056
377.199	0.67296993
377.414	0.6742084
377.628	0.68559628
377.843	0.69448501
378.058	0.6977461
378.273	0.70305362
378.487	0.70552744
378.702	0.70885346
378.917	0.71423257
379.131	0.71022333
379.346	0.70426873
379.561	0.70309442
379.775	0.70146059
379.99	0.69854238
380.205	0.69088195
380.419	0.68593091
380.634	0.6796545
380.848	0.68659647
381.063	0.68876958
381.278	0.69722234
381.492	0.69526824
381.707	0.70429417
381.921	0.70581885
382.136	0.71905789
382.35	0.716921
382.565	0.71294268
382.779	0.71276055
382.994	0.71736601
383.208	0.71336581
383.422	0.72367596
383.637	0.7216607
383.851	0.72823749
384.066	0.73624288
384.28	0.7380187
384.494	0.74141015
384.709	0.74530896
384.923	0.74305912
385.137	0.73924707
385.352	0.73641059
385.566	0.73893241
385.78	0.7349429
385.995	0.73371714
386.209	0.73242975
386.423	0.73708194
386.637	0.74338156
386.852	0.74075889
387.066	0.73725147
387.28	0.73702967
387.494	0.74225451
387.708	0.74372903
387.923	0.74074234
388.137	0.74339848
388.351	0.74769759
388.565	0.75251953
388.779	0.75493641
388.993	0.76044552
389.207	0.76144592
389.421	0.76324799
389.635	0.75850185
389.85	0.75674185
390.064	0.75459155
390.278	0.75531067
390.492	0.75367118
390.706	0.75423688
390.92	0.75418736
391.134	0.75986081
391.348	0.76876476
391.561	0.76698569
391.775	0.76429896
391.989	0.75780857
392.203	0.75940877
392.417	0.76068518
392.631	0.76200105
392.845	0.75636604
393.059	0.76133762
393.273	0.76023024
393.486	0.75748908
393.7	0.75093122
393.914	0.75153433
394.128	0.74777011
394.342	0.74513382
394.555	0.73804964
394.769	0.73789125
394.983	0.7403605
395.197	0.74377887
395.41	0.74146286
395.624	0.74397024
395.838	0.74241794
396.051	0.74959275
396.265	0.7465786
396.479	0.74683653
396.692	0.74543041
396.906	0.74154175
397.12	0.73881091
397.333	0.74066566
397.547	0.73602995
397.76	0.73886156
397.974	0.73846128
398.187	0.73838352
398.401	0.74076078
398.614	0.73897727
398.828	0.7379401
399.041	0.73744315
399.255	0.73464269
399.468	0.73221011
399.682	0.73046251
399.895	0.72985684
400.109	0.72660045
400.322	0.72322539
400.536	0.71655915
400.749	0.71909166
400.962	0.71744261
401.176	0.71411928
401.389	0.71036751
401.602	0.70508453
401.816	0.70473275
402.029	0.70811524
402.242	0.70280596
402.456	0.70035313
402.669	0.69709371
402.882	0.6908505
403.095	0.69430233
403.309	0.6921879
403.522	0.6903527
403.735	0.68817979
403.948	0.68704377
404.161	0.69133153
404.375	0.69309678
404.588	0.69061411
404.801	0.68881611
405.014	0.68457359
405.227	0.68613799
405.44	0.68589088
405.653	0.68397736
405.866	0.6803449
406.079	0.67740179
406.293	0.67460108
406.506	0.67262236
406.719	0.66869185
406.932	0.66499788
407.145	0.65965352
407.358	0.66141405
407.571	0.65799318
407.784	0.65735719
407.996	0.65673991
408.209	0.65236447
408.422	0.64838007
408.635	0.64765795
408.848	0.64525211
409.061	0.64194374
409.274	0.63864038
409.487	0.63533745
409.7	0.63421394
409.912	0.63411946
410.125	0.63170308
410.338	0.62840921
410.551	0.62685391
410.764	0.62488503
410.976	0.62275847
411.189	0.62114505
411.402	0.61859487
411.615	0.61711594
411.827	0.6155463
412.04	0.61400574
412.253	0.61138863
412.465	0.60881144
412.678	0.60549076
412.891	0.60429067
413.103	0.59854713
413.316	0.5949834
413.529	0.59431095
413.741	0.5932121
413.954	0.591859
414.166	0.59054163
414.379	0.58764581
414.591	0.5878354
414.804	0.58552764
415.016	0.58213985
415.229	0.57917902
415.441	0.57557824
415.654	0.57375896
415.866	0.57217631
416.079	0.5700962
416.291	0.56824759
416.504	0.56791999
416.716	0.56610415
416.928	0.5649768
417.141	0.56209554
417.353	0.55985593
417.566	0.55593979
417.778	0.55381399
417.99	0.54859871
418.203	0.54487034
418.415	0.54254381
418.627	0.54133648
418.839	0.5388311
419.052	0.53899267
419.264	0.5368163
419.476	0.53587634
419.688	0.53507774
419.901	0.53309693
420.113	0.52996172
420.325	0.52718192
420.537	0.52345943
420.749	0.52180032
420.961	0.52015259
421.174	0.51748637
421.386	0.5144313
421.598	0.51219048
421.81	0.51016269
422.022	0.50816729
422.234	0.50579468
422.446	0.50286886
422.658	0.50026024
422.87	0.49856587
423.082	0.49624894
423.294	0.4938073
423.506	0.49189737
423.718	0.48970188
423.93	0.48724664
424.142	0.48516386
424.354	0.48254989
424.566	0.48054801
424.778	0.47887866
424.99	0.47677808
425.202	0.47389901
425.414	0.47217137
425.625	0.47047907
425.837	0.46775274
426.049	0.4664373
426.261	0.46410876
426.473	0.46144815
426.684	0.45994861
426.896	0.45837985
427.108	0.45595566
427.32	0.4548473
427.531	0.45202736
427.743	0.45011706
427.955	0.4491396
428.167	0.44692589
428.378	0.44437391
428.59	0.44278088
428.802	0.44075244
429.013	0.43875563
429.225	0.43655738
429.436	0.4341257
429.648	0.43230143
429.86	0.43082165
430.071	0.42890918
430.283	0.42691618
430.494	0.42487128
430.706	0.42318646
430.917	0.42137806
431.129	0.41973092
431.34	0.41754736
431.552	0.41547915
431.763	0.413305
431.975	0.41193091
432.186	0.40955693
432.398	0.40737091
432.609	0.40452568
432.821	0.4027031
433.032	0.40091574
433.243	0.39906597
433.455	0.3969844
433.666	0.39544209
433.877	0.39433486
434.089	0.39253691
434.3	0.39039637
434.511	0.3879008
434.723	0.38620294
434.934	0.38419893
435.145	0.38187906
435.356	0.37939899
435.568	0.37781822
435.779	0.37608947
435.99	0.37436656
436.201	0.37240528
436.412	0.37052177
436.624	0.36910774
436.835	0.36778456
437.046	0.36641162
437.257	0.36468242
437.468	0.36368452
437.679	0.36236926
437.89	0.36077741
438.101	0.35929792
438.312	0.35755542
438.523	0.3557662
438.734	0.35422775
438.945	0.35228494
439.156	0.35025041
439.367	0.34868317
439.578	0.34737308
439.789	0.34517919
440	0.34366912
440.211	0.34162555
440.422	0.3399529
440.633	0.33838524
440.844	0.33629671
441.055	0.33425047
441.266	0.33296726
441.477	0.3308477
441.687	0.32950099
441.898	0.32781953
442.109	0.32603126
442.32	0.32468255
442.531	0.32264639
442.741	0.32042249
442.952	0.31905084
443.163	0.31741146
443.374	0.31543627
443.584	0.31381344
443.795	0.31225325
444.006	0.31112051
444.216	0.30985849
444.427	0.30786943
444.638	0.30611207
444.848	0.30472827
445.059	0.30319468
445.27	0.30160087
445.48	0.29977906
445.691	0.29830452
445.901	0.29704025
446.112	0.29559487
446.323	0.29389286
446.533	0.29221691
446.744	0.29055369
446.954	0.28887969
447.165	0.28742821
447.375	0.28604685
447.586	0.28470692
447.796	0.28342445
448.006	0.28205127
448.217	0.28062939
448.427	0.27926226
448.638	0.27757993
448.848	0.27571253
449.058	0.27414543
449.269	0.27255944
449.479	0.27115957
449.689	0.26963145
449.9	0.26823824
450.11	0.26678984
450.32	0.26571653
450.531	0.26406198
450.741	0.26254793
450.951	0.26107241
451.161	0.25954211
451.372	0.25811637
451.582	0.25705663
451.792	0.25549411
452.002	0.25405794
452.212	0.25268977
452.422	0.25127431
452.633	0.24982798
452.843	0.24846172
453.053	0.24639102
453.263	0.24496158
453.473	0.24365031
453.683	0.24236526
453.893	0.24078817
454.103	0.2395419
454.313	0.23803854
454.523	0.23681438
454.733	0.23539442
454.943	0.23422926
455.153	0.23305125
455.363	0.23170626
455.573	0.23028043
455.783	0.22910439
455.993	0.22785828
456.203	0.22670698
456.413	0.22519989
456.623	0.2236527
456.833	0.22264927
457.042	0.22141187
457.252	0.2199159
457.462	0.21856482
457.672	0.21726199
457.882	0.2161392
458.091	0.21489527
458.301	0.21325417
458.511	0.21192027
458.721	0.21075438
458.931	0.20958068
459.14	0.20829663
459.35	0.20709347
459.56	0.20594871
459.769	0.20494734
459.979	0.20370933
460.189	0.20247171
460.398	0.20123628
460.608	0.19997745
460.817	0.19866308
461.027	0.19754793
461.237	0.1962806
461.446	0.19512261
461.656	0.19419171
461.865	0.19310425
462.075	0.19205616
462.284	0.19115354
462.494	0.18993408
462.703	0.18878311
462.913	0.18776131
463.122	0.18659212
463.332	0.18537635
463.541	0.18442736
463.751	0.18311714
463.96	0.18201758
464.169	0.18101775
464.379	0.18009686
464.588	0.17891443
464.797	0.17779188
465.007	0.17658509
465.216	0.17555986
465.425	0.1745443
465.635	0.17347102
465.844	0.17220162
466.053	0.17112516
466.263	0.17013
466.472	0.16910455
466.681	0.1680989
466.89	0.1669259
467.099	0.16590324
467.309	0.16494242
467.518	0.1640656
467.727	0.16307925
467.936	0.16212303
468.145	0.16108551
468.354	0.16025048
468.563	0.15916012
468.772	0.15809454
468.982	0.15696292
469.191	0.15597623
469.4	0.15487862
469.609	0.15394537
469.818	0.15291038
470.027	0.15210025
470.236	0.15100353
470.445	0.15003961
470.654	0.14893084
470.863	0.14798489
471.072	0.14705456
471.28	0.14600293
471.489	0.14495143
471.698	0.14411203
471.907	0.14321751
472.116	0.14249529
472.325	0.1415431
472.534	0.14052484
472.743	0.13968296
472.951	0.13872789
473.16	0.13781498
473.369	0.13686966
473.578	0.13582375
473.786	0.13496835
473.995	0.13403669
474.204	0.13315045
474.413	0.13231394
474.621	0.13148112
474.83	0.13065018
475.039	0.12992927
475.247	0.12897249
475.456	0.12824285
475.665	0.12737737
475.873	0.12644815
476.082	0.12555191
476.291	0.12473522
476.499	0.12379973
476.708	0.12312454
476.916	0.12225709
477.125	0.12146537
477.333	0.12074605
477.542	0.11992214
477.75	0.11911628
477.959	0.11843708
478.167	0.11754029
478.376	0.1167337
478.584	0.11593414
478.793	0.11509664
479.001	0.11432142
479.209	0.11359635
479.418	0.11279507
479.626	0.11207406
479.834	0.11126254
480.043	0.11047992
480.251	0.10977901
480.459	0.10901364
480.668	0.1081775
480.876	0.10733581
481.084	0.10649127
481.293	0.10573548
481.501	0.10500416
481.709	0.10422262
481.917	0.10358007
482.125	0.10286423
482.334	0.10218443
482.542	0.10153572
482.75	0.10090411
482.958	0.10029294
483.166	0.09954065
483.374	0.098799
483.583	0.09820401
483.791	0.09752381
483.999	0.09681838
484.207	0.09616642
484.415	0.0954729
484.623	0.09487502
484.831	0.09419393
485.039	0.09342684
485.247	0.09277107
485.455	0.09207841
485.663	0.09143453
485.871	0.09080361
486.079	0.09010769
486.287	0.08944613
486.495	0.08886777
486.702	0.08814541
486.91	0.08752023
487.118	0.08677883
487.326	0.08604564
487.534	0.08546649
487.742	0.08486274
487.95	0.08423608
488.157	0.08367416
488.365	0.08306905
488.573	0.08249006
488.781	0.08193849
488.988	0.08127234
489.196	0.08066445
489.404	0.08012181
489.612	0.07953211
489.819	0.07900451
490.027	0.07852062
490.235	0.07792568
490.442	0.07741897
490.65	0.07687315
490.857	0.07629426
491.065	0.07577557
491.273	0.075199
491.48	0.0745957
491.688	0.07405639
491.895	0.07353702
492.103	0.07298023
492.31	0.07247837
492.518	0.07196103
492.725	0.07148866
492.933	0.07095968
493.14	0.07038848
493.348	0.06985467
493.555	0.06933971
493.763	0.06881768
493.97	0.06829483
494.177	0.06774394
494.385	0.06715959
494.592	0.06668672
494.8	0.06618056
495.007	0.06569987
495.214	0.06520321
495.422	0.0646573
495.629	0.06412088
495.836	0.0636816
496.043	0.06315438
496.251	0.06265743
496.458	0.06221791
496.665	0.0617715
496.872	0.06126615
497.08	0.06088159
497.287	0.06040011
497.494	0.05994092
497.701	0.05950611
497.908	0.0589965
498.115	0.05851061
498.322	0.05809952
498.53	0.05761865
498.737	0.05720371
498.944	0.05677642
499.151	0.05634263
499.358	0.05597401
499.565	0.05554878
499.772	0.05511439
499.979	0.05471897
500.186	0.05429991
500.393	0.05395112
500.6	0.05351331
500.807	0.05306439
501.014	0.05261479
501.221	0.05225841
501.427	0.05179209
501.634	0.05140359
501.841	0.05094198
502.048	0.0505294
502.255	0.05009314
502.462	0.04972426
502.669	0.04931218
502.875	0.04893774
503.082	0.04852953
503.289	0.04810302
503.496	0.04766998
503.702	0.04733736
503.909	0.04699376
504.116	0.04663294
504.323	0.04625779
504.529	0.04594094
504.736	0.04564801
504.943	0.04536615
505.149	0.0449985
505.356	0.04461834
505.563	0.04429459
505.769	0.04398246
505.976	0.04360422
506.182	0.04327253
506.389	0.04293377
506.595	0.04258845
506.802	0.04225701
507.008	0.04192208
507.215	0.04160234
507.421	0.04130605
507.628	0.0409354
507.834	0.04060673
508.041	0.04028099
508.247	0.03992212
508.454	0.03960006
508.66	0.03925433
508.866	0.03893621
509.073	0.03863412
509.279	0.03830112
509.486	0.03801198
509.692	0.0377528
509.898	0.03741682
510.105	0.03718036
510.311	0.03682521
510.517	0.03658737
510.723	0.03633973
510.93	0.03604106
511.136	0.03574925
511.342	0.03541982
511.548	0.03512012
511.754	0.03485284
511.961	0.03453385
512.167	0.0342344
512.373	0.03397136
512.579	0.03371989
512.785	0.03350078
512.991	0.03318171
513.197	0.03295019
513.404	0.03269676
513.61	0.03244914
513.816	0.03221769
514.022	0.03196077
514.228	0.03171206
514.434	0.03148642
514.64	0.03124054
514.846	0.0309798
515.052	0.03076804
515.258	0.03046711
515.464	0.03015146
515.669	0.02988544
515.875	0.02965187
516.081	0.02943223
516.287	0.02918739
516.493	0.02894685
516.699	0.0287522
516.905	0.0285637
517.111	0.02830677
517.316	0.02805068
517.522	0.02781615
517.728	0.02765186
517.934	0.02739059
518.139	0.02721283
518.345	0.02702945
518.551	0.02685643
518.757	0.02666525
518.962	0.02644273
519.168	0.02615554
519.374	0.02590107
519.579	0.02568016
519.785	0.02544319
519.991	0.02521638
520.196	0.02500156
520.402	0.02481142
520.607	0.02466817
520.813	0.02451476
521.018	0.02427652
521.224	0.02408734
521.429	0.02394129
521.635	0.02369395
521.84	0.02345888
522.046	0.02324919
522.251	0.02304086
522.457	0.02281204
522.662	0.02260715
522.868	0.02239746
523.073	0.02226426
523.279	0.02209031
523.484	0.02190805
523.689	0.02177436
523.895	0.02162822
524.1	0.02144527
524.305	0.02128423
524.511	0.0211382
524.716	0.02095259
524.921	0.02080693
525.126	0.02058652
525.332	0.02046937
525.537	0.02030558
525.742	0.02014014
525.947	0.01998411
526.153	0.01982787
526.358	0.0196109
526.563	0.01946263
526.768	0.0192528
526.973	0.0191414
527.178	0.01897211
527.383	0.01877287
527.588	0.01862278
527.794	0.01849707
527.999	0.01833221
528.204	0.01820502
528.409	0.01807195
528.614	0.01792988
528.819	0.01776991
529.024	0.0175923
529.229	0.01746844
529.434	0.01733633
529.639	0.0171923
529.843	0.0169799
530.048	0.01681236
530.253	0.01671892
530.458	0.01660167
530.663	0.01638835
530.868	0.01625511
531.073	0.01608888
531.278	0.01598055
531.482	0.01585691
531.687	0.0157067
531.892	0.01562558
532.097	0.01552667
532.302	0.01541786
532.506	0.01530551
532.711	0.01515437
532.916	0.0151033
533.12	0.01500533
533.325	0.0148708
533.53	0.01477479
533.734	0.01462822
533.939	0.01451927
534.144	0.01447654
534.348	0.01428604
534.553	0.014169
534.757	0.01404405
534.962	0.01390705
535.167	0.01383452
535.371	0.01375368
535.576	0.01362187
535.78	0.01354794
535.985	0.01343706
536.189	0.01334893
536.394	0.01325493
536.598	0.01313448
536.803	0.0130002
537.007	0.01288031
537.211	0.01277662
537.416	0.01265518
537.62	0.0124677
537.825	0.01238615
538.029	0.0122718
538.233	0.01213961
538.438	0.01203568
538.642	0.0119016
538.846	0.01175803
539.05	0.01170373
539.255	0.01159628
539.459	0.01148398
539.663	0.01142888
539.867	0.01128255
540.072	0.01118333
540.276	0.01115601
540.48	0.01106561
540.684	0.01095799
540.888	0.01087805
541.092	0.01075059
541.297	0.0107133
541.501	0.01063418
541.705	0.01051243
541.909	0.01040846
542.113	0.01035222
542.317	0.01027686
542.521	0.0101824
542.725	0.01011384
542.929	0.01001217
543.133	0.00995914
543.337	0.00991377
543.541	0.00981163
543.745	0.00973655
543.949	0.00967895
544.153	0.00954292
544.357	0.00944998
544.56	0.0093763
544.764	0.0092827
544.968	0.00919981
545.172	0.00911418
545.376	0.00903649
545.58	0.00900888
545.783	0.00897194
545.987	0.00886728
546.191	0.00880927
546.395	0.00876066
546.598	0.00872301
546.802	0.00867278
547.006	0.00858848
547.21	0.00853119
547.413	0.00850086
547.617	0.00847132
547.821	0.00840824
548.024	0.00832981
548.228	0.00826758
548.431	0.00822563
548.635	0.00819774
548.839	0.00811553
549.042	0.00802744
549.246	0.00796105
549.449	0.0078969
549.653	0.00781568
549.856	0.00775042
550.06	0.0076888
550.263	0.0076152
550.467	0.00753403
550.67	0.00746191
550.874	0.00740572
551.077	0.00734666
551.28	0.00729762
551.484	0.00719735
551.687	0.00715517
551.891	0.00713706
552.094	0.00706072
552.297	0.00699411
552.501	0.00693187
552.704	0.00683265
552.907	0.00678574
553.11	0.0067246
553.314	0.006636
553.517	0.00662
553.72	0.00656784
553.923	0.00655418
554.127	0.00651258
554.33	0.00646293
554.533	0.00645505
554.736	0.00642148
554.939	0.00634379
555.142	0.00629006
555.345	0.00620443
555.549	0.00617683
555.752	0.00614354
555.955	0.00603379
556.158	0.00600639
556.361	0.00596431
556.564	0.00593463
556.767	0.00591411
556.97	0.0059168
557.173	0.00588806
557.376	0.00591661
557.579	0.00586853
557.782	0.00586693
557.984	0.00580206
558.187	0.00576986
558.39	0.00568823
558.593	0.00562183
558.796	0.00553138
558.999	0.00545892
559.202	0.00540211
559.404	0.00536877
559.607	0.00536162
559.81	0.0052968
560.013	0.00525607
560.216	0.00523755
560.418	0.00521863
560.621	0.00518481
560.824	0.00517174
561.026	0.0050995
561.229	0.00507912
561.432	0.00505612
561.634	0.00501318
561.837	0.00497687
562.04	0.00490388
562.242	0.00488814
562.445	0.00485958
562.647	0.00479156
562.85	0.00472072
563.053	0.00467871
563.255	0.00461591
563.458	0.00461412
563.66	0.00452008
563.863	0.00447093
564.065	0.0044336
564.268	0.00443058
564.47	0.00441718
564.672	0.00442558
564.875	0.00438108
565.077	0.00435917
565.28	0.004346
565.482	0.00436359
565.684	0.0043166
565.887	0.00426105
566.089	0.00420873
566.291	0.00415961
566.494	0.00410991
566.696	0.00404216
566.898	0.00399065
567.1	0.00395497
567.303	0.00395184
567.505	0.00395934
567.707	0.00400442
567.909	0.00402523
568.111	0.00400325
568.314	0.0039804
568.516	0.00397064
568.718	0.003953
568.92	0.00387677
569.122	0.00380899
569.324	0.00378319
569.526	0.0038023
569.728	0.00378874
569.93	0.00377718
570.132	0.00370159
570.334	0.00373701
570.536	0.00373411
570.738	0.0037124
570.94	0.00364683
571.142	0.00361333
571.344	0.00359163
571.546	0.00359481
571.748	0.00352977
571.95	0.00346107
572.152	0.00339525
572.354	0.00339219
572.555	0.0033845
572.757	0.00333134
572.959	0.00333752
573.161	0.00334143
573.363	0.00330855
573.564	0.00330515
573.766	0.00322639
573.968	0.00320683
574.17	0.0031686
574.371	0.0030545
574.573	0.00303342
574.775	0.00305215
574.976	0.00304146
575.178	0.00309608
575.38	0.00303979
575.581	0.00303757
575.783	0.00306848
575.985	0.00300826
576.186	0.00297155
576.388	0.00295004
576.589	0.00291067
576.791	0.00291718
576.992	0.00288235
577.194	0.00287256
577.395	0.00285762
577.597	0.00286466
577.798	0.00282067
578	0.00280025
578.201	0.00279584
578.402	0.00280139
578.604	0.00273902
578.805	0.00271646
579.007	0.00264558
579.208	0.0026287
579.409	0.00256554
579.611	0.00251359
579.812	0.00248332
580.013	0.0024804
580.215	0.0024875
580.416	0.00246188
580.617	0.00243798
580.818	0.00245093
581.019	0.00244198
581.221	0.00242243
581.422	0.00244497
581.623	0.00241237
581.824	0.00244858
582.025	0.00245707
582.226	0.00247513
582.428	0.00248036
582.629	0.00248121
582.83	0.00241646
583.031	0.00240156
583.232	0.00235354
583.433	0.00236827
583.634	0.00234511
583.835	0.00229138
584.036	0.00226982
584.237	0.0023022
584.438	0.00229145
584.639	0.00230663
584.84	0.00224728
585.041	0.00219195
585.242	0.00216571
585.442	0.00216524
585.643	0.00212772
585.844	0.00212975
586.045	0.00209431
586.246	0.00210328
586.447	0.00212819
586.647	0.00214888
586.848	0.00214145
587.049	0.00213547
587.25	0.00207964
587.45	0.00206058
587.651	0.00201714
587.852	0.00198777
588.053	0.00195975
588.253	0.00194165
588.454	0.0019194
588.655	0.00196457
588.855	0.00196078
589.056	0.00194558
589.256	0.00193335
589.457	0.00192822
589.658	0.00187204
589.858	0.00185989
590.059	0.00179333
590.259	0.00177064
590.46	0.00174748
590.66	0.00173673
590.861	0.00172916
591.061	0.00176615
591.262	0.00177289
591.462	0.0017857
591.662	0.00178201
591.863	0.00179631
592.063	0.00179548
592.264	0.00180806
592.464	0.00179429
592.664	0.00177894
592.865	0.0017568
593.065	0.00175229
593.265	0.00177065
593.465	0.00176932
593.666	0.0017854
593.866	0.00175005
594.066	0.00172159
594.266	0.00172448
594.467	0.00172947
594.667	0.00173179
594.867	0.00175239
595.067	0.00172472
595.267	0.00174048
595.467	0.00176528
595.668	0.00175823
595.868	0.00173746
596.068	0.00167785
596.268	0.00162744
596.468	0.00161418
596.668	0.00162382
596.868	0.00162724
597.068	0.00161093
597.268	0.00159066
597.468	0.00161288
597.668	0.00159198
597.868	0.0015333
598.068	0.00147071
598.268	0.00143267
598.467	0.00143284
598.667	0.00141963
598.867	0.00140207
599.067	0.00138977
599.267	0.00138244
599.467	0.00142514
599.667	0.00140417
599.866	0.00137242
600.066	0.00139368
600.266	0.00140071
600.466	0.00141112
600.665	0.00144004
600.865	0.00142586
601.065	0.00145449
601.264	0.00148416
601.464	0.00147231
601.664	0.00146429
601.863	0.00145486
602.063	0.0014374
602.263	0.00141461
602.462	0.00137383
602.662	0.00132133
602.861	0.00128964
603.061	0.00127167
603.26	0.00126184
603.46	0.00127067
603.659	0.00125659
603.859	0.00124138
604.058	0.0012686
604.258	0.00126961
604.457	0.00126511
604.657	0.00125024
604.856	0.00125209
605.056	0.0012684
605.255	0.00130701
605.454	0.00127978
605.654	0.00130162
605.853	0.00130754
606.052	0.00130618
606.252	0.00127339
606.451	0.00123092
606.65	0.00120237
606.849	0.00122537
607.049	0.00121497
607.248	0.00120938
607.447	0.00121714
607.646	0.00122081
607.845	0.00123755
608.045	0.00122885
608.244	0.0011697
608.443	0.00111635
608.642	0.00109181
608.841	0.00109138
609.04	0.00108319
609.239	0.00108543
609.438	0.00110561
609.637	0.00114319
609.836	0.00119013
610.035	0.00119786
610.234	0.00117479
610.433	0.00120835
610.632	0.00117332
610.831	0.0011212
611.03	0.00111742
611.229	0.00107799
611.428	0.00102285
611.627	0.0010134
611.826	0.00095123
612.025	0.00096756
612.224	0.00100208
612.422	0.00099485
612.621	0.00102367
612.82	0.00105662
613.019	0.00106743
613.218	0.00108599
613.416	0.00109755
613.615	0.00108698
613.814	0.00108551
614.012	0.00108684
614.211	0.00107841
614.41	0.00104689
614.608	0.00102325
614.807	0.0009924
615.006	0.00097284
615.204	0.00096443
615.403	0.00095825
615.602	0.00098142
615.8	0.00103491
615.999	0.00107281
616.197	0.00106569
616.396	0.00110262
616.594	0.0011044
616.793	0.00108656
616.991	0.00106726
617.19	0.0010607
617.388	0.00104949
617.586	0.00105424
617.785	0.00099831
617.983	0.0010029
618.182	0.00096661
618.38	0.00096268
618.578	0.00093459
618.777	0.00092544
618.975	0.00093681
619.173	0.0009655
619.372	0.00096231
619.57	0.00099166
619.768	0.00100165
619.966	0.00098131
620.165	0.00092708
620.363	0.00092412
620.561	0.00090423
620.759	0.00090933
620.957	0.00088813
621.155	0.00084542
621.354	0.00084504
621.552	0.00088047
621.75	0.00083699
621.948	0.00084592
622.146	0.00082035
622.344	0.00082054
622.542	0.00082862
622.74	0.00082462
622.938	0.00080695
623.136	0.00081106
623.334	0.00079249
623.532	0.00080484
623.73	0.00082673
623.928	0.00081976
624.126	0.00083765
624.324	0.00085011
624.522	0.0008665
624.719	0.00085082
624.917	0.00082802
625.115	0.00082042
625.313	0.00084694
625.511	0.00083859
625.708	0.00084624
625.906	0.00083894
626.104	0.00088773
626.302	0.00089697
626.499	0.00091122
626.697	0.00087865
626.895	0.00087528
627.093	0.00087323
627.29	0.00089706
627.488	0.00087552
627.686	0.00088679
627.883	0.00088039
628.081	0.00091358
628.278	0.00092693
628.476	0.00093621
628.673	0.00094988
628.871	0.00093598
629.068	0.00093032
629.266	0.00089067
629.463	0.0008651
629.661	0.00084327
629.858	0.00081691
630.056	0.00080637
630.253	0.00079954
630.451	0.0007846
630.648	0.00079708
630.845	0.00083318
631.043	0.00085146
631.24	0.00087387
631.438	0.00087014
631.635	0.00087236
631.832	0.00087099
632.029	0.00087316
632.227	0.00088728
632.424	0.0008799
632.621	0.00085216
632.818	0.00085107
633.016	0.00087389
633.213	0.00092031
633.41	0.00091537
633.607	0.00087243
633.804	0.00086543
634.001	0.0008876
634.199	0.00086247
634.396	0.00083435
634.593	0.00079694
634.79	0.00081048
634.987	0.00081497
635.184	0.00079209
635.381	0.00076077
635.578	0.00077575
635.775	0.00078907
635.972	0.00079894
636.169	0.00080805
636.366	0.00079905
636.563	0.00081528
636.76	0.00082028
636.957	0.00082598
637.153	0.00082695
637.35	0.00082944
637.547	0.00083488
637.744	0.00084714
637.941	0.00085546
638.138	0.00092049
638.334	0.00095067
638.531	0.00099764
638.728	0.00100618
638.925	0.0009826
639.121	0.00097751
639.318	0.00097791
639.515	0.00091262
639.711	0.00085389
639.908	0.0008087
640.105	0.00077831
640.301	0.00077124
640.498	0.00079013
640.695	0.00080683
640.891	0.00084816
641.088	0.00087053
641.284	0.00086874
641.481	0.00086015
641.677	0.00086297
641.874	0.00082997
642.07	0.00083223
642.267	0.00081849
642.463	0.00083233
642.66	0.00084328
642.856	0.00085771
643.053	0.00086523
643.249	0.00084861
643.445	0.0007977
643.642	0.00078736
643.838	0.00077822
644.034	0.0008034
644.231	0.00081127
644.427	0.00083126
644.623	0.00085896
644.82	0.00088884
645.016	0.00087593
645.212	0.0008577
645.408	0.00083984
645.604	0.00080723
645.801	0.0007808
645.997	0.00077921
646.193	0.00076861
646.389	0.00076736
646.585	0.0007655
646.781	0.00075934
646.977	0.00079645
647.173	0.00081249
647.37	0.00079876
647.566	0.00079182
647.762	0.00078501
647.958	0.00077993
648.154	0.00078694
648.35	0.00076413
648.546	0.00074342
648.742	0.00074984
648.937	0.00076306
649.133	0.00079598
649.329	0.00080902
649.525	0.00079542
649.721	0.00080158
649.917	0.00086701
650.113	0.00089789
650.309	0.00091753
650.504	0.00087805
650.7	0.0008742
650.896	0.00085681
651.092	0.00085222
651.287	0.00081161
651.483	0.00078807
651.679	0.00079374
651.875	0.0008203
652.07	0.00083118
652.266	0.00083974
652.462	0.00082524
652.657	0.00083602
652.853	0.00084797
653.048	0.00081298
653.244	0.00081138
653.44	0.00079602
653.635	0.00081115
653.831	0.00083738
654.026	0.00084431
654.222	0.00085116
654.417	0.00085415
654.613	0.00085683
654.808	0.00089318
655.004	0.00091465
655.199	0.00095
655.394	0.00092432
655.59	0.00090759
655.785	0.00094154
655.98	0.00095227
656.176	0.00093267
656.371	0.00089839
656.566	0.00085971
656.762	0.00080788
656.957	0.00080643
657.152	0.00077359
657.348	0.00074057
657.543	0.00074189
657.738	0.00076953
657.933	0.00077856
658.128	0.00082215
658.324	0.00082833
658.519	0.00082258
658.714	0.00087962
658.909	0.0008642
659.104	0.00086504
659.299	0.00086901
659.494	0.00096027
659.689	0.0009696
659.884	0.00097865
660.079	0.00094274
660.274	0.00096701
660.469	0.00097387
660.664	0.00100346
660.859	0.0009256
661.054	0.00094793
661.249	0.00096857
661.444	0.00100566
661.639	0.00095735
661.834	0.00093152
662.029	0.00087241
662.224	0.00086573
662.418	0.00084074
662.613	0.00083751
662.808	0.00081035
663.003	0.00081869
663.198	0.00082227
663.392	0.00086349
663.587	0.00090228
663.782	0.00094825
663.977	0.00095978
664.171	0.0009723
664.366	0.00103636
664.561	0.00105441
664.755	0.00104843
664.95	0.00104298
665.144	0.00102064
665.339	0.00103084
665.534	0.00101618
665.728	0.00098688
665.923	0.00094607
666.117	0.00091309
666.312	0.00086499
666.506	0.00083704
666.701	0.00079813
666.895	0.00079456
667.09	0.00079801
667.284	0.00081342
667.479	0.00083531
667.673	0.00084422
667.867	0.00083769
668.062	0.00080748
668.256	0.0007917
668.45	0.00078546
668.645	0.00080188
668.839	0.0008218
669.033	0.00084838
669.228	0.00087604
669.422	0.00093835
669.616	0.00097294
669.81	0.00098909
670.004	0.00097078
670.199	0.00095592
670.393	0.00094357
670.587	0.00090312
670.781	0.00088541
670.975	0.00085748
671.169	0.00084296
671.363	0.00088197
671.558	0.00087
671.752	0.0008973
671.946	0.00094064
672.14	0.00094576
672.334	0.00092287
672.528	0.00088305
672.722	0.00082325
672.916	0.00083466
673.11	0.00079595
673.304	0.00076708
673.497	0.00074719
673.691	0.00078715
673.885	0.00078044
674.079	0.00079546
674.273	0.00078693
674.467	0.00080318
674.661	0.0007965
674.854	0.0008146
675.048	0.0007875
675.242	0.00077543
675.436	0.00075444
675.629	0.00073865
675.823	0.00071263
676.017	0.0007089
676.211	0.00069694
676.404	0.00071264
676.598	0.00077759
676.792	0.00080234
676.985	0.0008024
677.179	0.00082585
677.372	0.00084257
677.566	0.00086297
677.76	0.0008841
677.953	0.00087701
678.147	0.00087025
678.34	0.00088063
678.534	0.000835
678.727	0.00082244
678.921	0.0007868
679.114	0.00078395
679.307	0.00079876
679.501	0.00080857
679.694	0.00081807
679.888	0.00087325
680.081	0.00089707
680.274	0.00089594
680.468	0.00088858
680.661	0.00087056
680.854	0.00087288
681.048	0.00086791
681.241	0.00086912
681.434	0.00085868
681.627	0.00087044
681.821	0.00088201
682.014	0.00087042
682.207	0.00089258
682.4	0.00091072
682.593	0.00086743
682.786	0.00087546
682.98	0.00088364
683.173	0.00085622
683.366	0.00084361
683.559	0.00080972
683.752	0.00082269
683.945	0.00090848
684.138	0.00089982
684.331	0.00090732
684.524	0.00093271
684.717	0.00094221
684.91	0.00095635
685.103	0.0009179
685.296	0.00088991
685.489	0.00084487
685.682	0.00081861
685.874	0.0008243
686.067	0.00084062
686.26	0.00079928
686.453	0.00082369
686.646	0.00079911
686.839	0.00081872
687.031	0.00084074
687.224	0.0008328
687.417	0.00085071
687.61	0.00090193
687.802	0.00089054
687.995	0.00091528
688.188	0.00095924
688.38	0.00096327
688.573	0.00096147
688.766	0.00093055
688.958	0.00092347
689.151	0.00091708
689.343	0.00089891
689.536	0.00090565
689.729	0.00089523
689.921	0.00090113
690.114	0.0009442
690.306	0.00093229
690.499	0.00091302
690.691	0.00089526
690.884	0.00088887
691.076	0.00092047
691.268	0.00093408
691.461	0.00094954
691.653	0.00095507
691.846	0.00099943
692.038	0.00101155
692.23	0.00101288
692.423	0.00099547
692.615	0.00099542
692.807	0.00093867
692.999	0.00094354
693.192	0.00093266
693.384	0.00093103
693.576	0.00087932
693.768	0.00085601
693.961	0.00082907
694.153	0.00084193
694.345	0.00083899
694.537	0.00084855
694.729	0.00084579
694.921	0.00087838
695.113	0.00088666
695.305	0.00090365
695.498	0.00093076
695.69	0.00096285
695.882	0.00095339
696.074	0.00094595
696.266	0.00094332
696.458	0.00094955
696.65	0.00093392
696.842	0.00089396
697.033	0.00082805
697.225	0.00079278
697.417	0.00081843
697.609	0.00083395
697.801	0.00085414
697.993	0.00086648
698.185	0.00088077
698.376	0.00090239
698.568	0.00092443
698.76	0.00092491
698.952	0.00090739
699.144	0.00087973
699.335	0.00083493
699.527	0.00082859
699.719	0.00081668
699.91	0.00079719
700.102	0.00076271
700.294	0.00074804
700.485	0.00076856
700.677	0.0007549
700.869	0.00070637
701.06	0.00075209
701.252	0.00077855
701.443	0.0007727
701.635	0.00077487
701.826	0.00077821
702.018	0.00084468
702.209	0.00092397
702.401	0.00090756
702.592	0.00090044
702.784	0.00090404
702.975	0.00090547
703.166	0.00088184
703.358	0.00083201
703.549	0.00081363
703.741	0.00078557
703.932	0.0007931
704.123	0.0007991
704.315	0.00081674
704.506	0.00081556
704.697	0.00085763
704.888	0.00085835
705.08	0.00088237
705.271	0.00085961
705.462	0.00088768
705.653	0.00089647
705.844	0.00091574
706.035	0.0009118
706.227	0.00087593
706.418	0.00085165
706.609	0.00089665
706.8	0.00088846
706.991	0.0008816
707.182	0.00085374
707.373	0.00082977
707.564	0.00084721
707.755	0.00085204
707.946	0.00082914
708.137	0.00082824
708.328	0.00079862
708.519	0.00081338
708.71	0.00083383
708.901	0.00081906
709.092	0.00082644
709.283	0.00083639
709.473	0.00084029
709.664	0.00089499
709.855	0.00087202
710.046	0.0008703
710.237	0.00088043
710.427	0.00089839
710.618	0.00084276
710.809	0.00081595
711	0.00074397
711.19	0.00075327
711.381	0.00074186
711.572	0.00076879
711.762	0.00076309
711.953	0.00081443
712.144	0.00079418
712.334	0.0008024
712.525	0.00080033
712.715	0.00080015
712.906	0.00079067
713.097	0.00076127
713.287	0.00075007
713.478	0.0007858
713.668	0.00084865
713.859	0.000866
714.049	0.0008754
714.239	0.00083716
714.43	0.00088383
714.62	0.00092119
714.811	0.00089223
715.001	0.00088421
715.191	0.00092315
715.382	0.00094966
715.572	0.00100112
715.762	0.00100536
715.953	0.00098427
716.143	0.00100708
716.333	0.00098613
716.523	0.00093832
716.714	0.00091156
716.904	0.00089158
717.094	0.00091
717.284	0.00090861
717.474	0.00093239
717.664	0.00092298
717.855	0.00095535
718.045	0.00095909
718.235	0.00098608
718.425	0.00093515
718.615	0.00092057
718.805	0.00090365
718.995	0.00089215
719.185	0.00084522
719.375	0.00080608
719.565	0.00078313
719.755	0.00076455
719.945	0.00075455
720.135	0.00079375
720.325	0.00080903
720.515	0.00084231
720.704	0.00089038
720.894	0.00086219
721.084	0.00087187
721.274	0.00087733
721.464	0.0007939
721.654	0.00074119
721.843	0.00073687
722.033	0.00070409
722.223	0.00072685
722.413	0.00073527
722.602	0.00071683
722.792	0.00076899
722.982	0.00084058
723.171	0.00084169
723.361	0.00086042
723.55	0.00088313
723.74	0.00090046
723.93	0.00090257
724.119	0.00090655
724.309	0.00087158
724.498	0.00089443
724.688	0.00088834
724.877	0.00089011
725.067	0.00089366
725.256	0.00097422
725.446	0.00094849
725.635	0.00092733
725.825	0.00089149
726.014	0.00087794
726.203	0.00083644
726.393	0.00082185
726.582	0.00074419
726.771	0.00075059
726.961	0.00081679
727.15	0.00081
727.339	0.00081067
727.529	0.00078398
727.718	0.00072836
727.907	0.00074099
728.096	0.00073408
728.286	0.00066134
728.475	0.00069443
728.664	0.00071379
728.853	0.00073945
729.042	0.00082193
729.231	0.00085086
729.42	0.00088069
729.609	0.00096523
729.799	0.00094413
729.988	0.00094122
730.177	0.00097082
730.366	0.00095491
730.555	0.00095087
730.744	0.00092884
730.933	0.00090735
731.122	0.00089364
731.31	0.00089568
731.499	0.00088113
731.688	0.00085376
731.877	0.00082287
732.066	0.00082496
732.255	0.00079318
732.444	0.00082811
732.632	0.00078764
732.821	0.00077575
733.01	0.00080224
733.199	0.00087476
733.388	0.00085075
733.576	0.00083477
733.765	0.00082321
733.954	0.0008475
734.142	0.00081672
734.331	0.00083893
734.52	0.00079883
734.708	0.00080037
734.897	0.00083113
735.086	0.00080602
735.274	0.00079299
735.463	0.00081316
735.651	0.00077294
735.84	0.00071223
736.028	0.00072082
736.217	0.00067962
736.405	0.00063983
736.594	0.00067511
736.782	0.00067483
736.971	0.00063735
737.159	0.00065333
737.347	0.0006176
737.536	0.00065685
737.724	0.0006797
737.912	0.00063715
738.101	0.00062929
738.289	0.00069544
738.477	0.00074211
738.666	0.00076507
738.854	0.00072877
739.042	0.00071666
739.23	0.00076026
739.418	0.00075943
739.607	0.00074456
739.795	0.00072853
739.983	0.00078837
740.171	0.00084577
740.359	0.00091618
740.547	0.00091103
740.735	0.00094939
740.923	0.00095409
741.112	0.00096661
741.3	0.00091782
741.488	0.00087651
741.676	0.00086366
741.864	0.00088737
742.052	0.00090145
742.239	0.00091446
742.427	0.00092097
742.615	0.00093574
742.803	0.00094428
742.991	0.00096917
743.179	0.00095554
743.367	0.00093807
743.555	0.00088997
743.742	0.00086242
743.93	0.00090735
744.118	0.00095459
744.306	0.00094072
744.494	0.00090805
744.681	0.00094004
744.869	0.00099352
745.057	0.00097847
745.244	0.00097588
745.432	0.00096136
745.62	0.00091494
745.807	0.00092213
745.995	0.00084964
746.182	0.0008153
746.37	0.00081189
746.558	0.00078005
746.745	0.00070968
746.933	0.00074759
747.12	0.0007869
747.308	0.00085762
747.495	0.00093644
747.683	0.00100862
747.87	0.00102635
748.057	0.00109766
748.245	0.00108959
748.432	0.00112357
748.62	0.00109105
748.807	0.00098671
748.994	0.00096118
749.182	0.00091491
749.369	0.00088724
749.556	0.00087906
749.743	0.00085034
749.931	0.00086681
750.118	0.00088005
750.305	0.00088391
750.492	0.0008984
750.68	0.00088034
750.867	0.00083687
751.054	0.00072526
751.241	0.00069182
751.428	0.00064122
751.615	0.00057819
751.802	0.00055474
751.989	0.0005925
752.176	0.00065072
752.363	0.0007693
752.55	0.00080939
752.737	0.00086802
752.924	0.00088322
753.111	0.00090903
753.298	0.00091618
753.485	0.00090314
753.672	0.00086999
753.859	0.00086794
754.046	0.00088274
754.233	0.00093956
754.42	0.00091204
754.606	0.00086977
754.793	0.00083937
754.98	0.0007974
755.167	0.00073403
755.353	0.00075556
755.54	0.00074463
755.727	0.00074544
755.914	0.00072947
756.1	0.00073236
756.287	0.00075353
756.474	0.00079533
756.66	0.000779
756.847	0.00076995
757.033	0.00078781
757.22	0.00081061
757.407	0.00084688
757.593	0.00087839
757.78	0.0008992
757.966	0.00093754
758.153	0.00093578
758.339	0.00092976
758.526	0.00090531
758.712	0.00092386
758.898	0.00088159
759.085	0.00084941
759.271	0.00081178
759.458	0.00080758
759.644	0.00088578
759.83	0.00094409
760.017	0.00094063
760.203	0.00097707
760.389	0.00100418
760.576	0.00099076
760.762	0.00098674
760.948	0.00096649
761.134	0.00098521
761.32	0.00095759
761.507	0.00095918
761.693	0.00094142
761.879	0.00094384
762.065	0.00097134
762.251	0.00091484
762.437	0.00085126
762.623	0.00086047
762.809	0.00081636
762.995	0.00082103
763.181	0.00085429
763.367	0.00079502
763.553	0.00079602
763.739	0.00084784
763.925	0.00083408
764.111	0.00087282
764.297	0.0009227
764.483	0.00091832
764.669	0.00096286
764.855	0.0009864
765.041	0.00092808
765.227	0.00095629
765.412	0.00100188
765.598	0.00095555
765.784	0.00095134
765.97	0.00094085
766.156	0.0009347
766.341	0.00098839
766.527	0.00094134
766.713	0.00086012
766.898	0.00087822
767.084	0.00087321
767.27	0.00085535
767.455	0.00086146
767.641	0.00088301
767.827	0.00093675
768.012	0.00098655
768.198	0.00096546
768.383	0.00096493
768.569	0.00101215
768.754	0.00099594
768.94	0.0009891
769.125	0.00099809
769.311	0.00098701
769.496	0.00095526
769.682	0.00094942
769.867	0.00091937
770.052	0.0009475
770.238	0.00095893
770.423	0.00090505
770.608	0.00090841
770.794	0.00098344
770.979	0.00099754
771.164	0.00103104
771.35	0.00102446
771.535	0.00099572
771.72	0.00104181
771.905	0.00102423
772.09	0.00094702
772.276	0.00093476
772.461	0.00088739
772.646	0.00090137
772.831	0.00086026
773.016	0.00084296
773.201	0.00086088
773.386	0.00086144
773.571	0.00081495
773.756	0.00078309
773.941	0.0007376
774.126	0.00072615
774.311	0.00073251
774.496	0.00070934
774.681	0.00077056
774.866	0.00080912
775.051	0.00083579
775.236	0.00086826
775.421	0.00090109
775.606	0.00087879
775.791	0.00086692
775.976	0.00085703
776.16	0.00086938
776.345	0.00090603
776.53	0.00094455
776.715	0.00095926
776.899	0.00101249
777.084	0.0010317
777.269	0.00102439
777.454	0.00094408
777.638	0.00089439
777.823	0.00087385
778.008	0.00087431
778.192	0.00080772
778.377	0.00077107
778.561	0.00077035
778.746	0.00076973
778.931	0.00076322
779.115	0.00069358
779.3	0.00065501
779.484	0.00066357
779.669	0.00068246
779.853	0.00066929
780.037	0.00078623
780.222	0.00089489
780.406	0.00099222
780.591	0.0010685
780.775	0.00107507
780.959	0.00109335
781.144	0.0010653
781.328	0.00103169
781.512	0.00093983
781.697	0.00083202
781.881	0.00074032
782.065	0.00078048
782.249	0.00077114
782.434	0.00077925
782.618	0.00075623
782.802	0.00076234
782.986	0.00081279
783.17	0.00091852
783.354	0.00091635
783.539	0.00095755
783.723	0.00095531
783.907	0.0009366
784.091	0.00095126
784.275	0.00098773
784.459	0.00094863
784.643	0.00090175
784.827	0.00090276
785.011	0.00093375
785.195	0.00098503
785.379	0.00097202
785.563	0.00089391
785.747	0.00089407
785.93	0.00091001
786.114	0.00088212
786.298	0.00089548
786.482	0.00090201
786.666	0.00093435
786.85	0.00097986
787.033	0.00098161
787.217	0.00096276
787.401	0.00097089
787.585	0.00095222
787.768	0.00088503
787.952	0.00085621
788.136	0.00085991
788.319	0.00081724
788.503	0.00080688
788.687	0.00078277
788.87	0.00077744
789.054	0.00078766
789.237	0.00078797
789.421	0.00077836
789.605	0.00078446
789.788	0.00078394
789.972	0.0008068
790.155	0.00078624
790.338	0.00081291
790.522	0.0007996
790.705	0.00080459
790.889	0.00082146
791.072	0.00079835
791.256	0.0007946
791.439	0.0008051
791.622	0.00079622
791.806	0.00079488
791.989	0.00083662
792.172	0.00084614
792.355	0.00091537
792.539	0.00095091
792.722	0.00102721
792.905	0.00108783
793.088	0.00111836
793.271	0.00108643
793.455	0.00110048
793.638	0.00110361
793.821	0.00108179
794.004	0.0010513
794.187	0.00100627
794.37	0.00102176
794.553	0.00102908
794.736	0.00104423
794.919	0.00105995
795.102	0.00106513
795.285	0.00105938
795.468	0.00107486
795.651	0.00107985
795.834	0.00111859
796.017	0.00110056
796.2	0.00109079
796.383	0.0010812
796.566	0.00107759
796.749	0.00107368
796.931	0.00101689
797.114	0.00089656
797.297	0.00082151
797.48	0.00077632
797.663	0.00076265
797.845	0.00073208
798.028	0.00069394
798.211	0.00070324
798.393	0.00074966
798.576	0.00080622
798.759	0.0008192
798.941	0.00078336
799.124	0.00079672
799.307	0.000867
799.489	0.00089347
799.672	0.00088956
799.854	0.00089158
800.037	0.00090004
800.219	0.00097008
800.402	0.0009936
800.584	0.00098661
800.767	0.00098058
800.949	0.0010412
801.132	0.00102538
801.314	0.00107931
801.496	0.00102232
801.679	0.00093588
801.861	0.00087251
802.043	0.0008479
802.226	0.00084922
802.408	0.00088093
802.59	0.00084917
802.772	0.00088998
802.955	0.00099866
803.137	0.00105428
803.319	0.00106743
803.501	0.00104571
803.684	0.00106225
803.866	0.00110552
804.048	0.00109798
804.23	0.00101138
804.412	0.00100678
804.594	0.00096645
804.776	0.00093219
804.958	0.00092106
805.14	0.00087313
805.322	0.00091378
805.504	0.00094721
805.686	0.00093772
805.868	0.0010628
806.05	0.00106696
806.232	0.00103496
806.414	0.0009856
806.596	0.00094241
806.778	0.00096129
806.96	0.00091442
807.141	0.00083778
807.323	0.00083085
807.505	0.00086336
807.687	0.00090561
807.869	0.00087563
808.05	0.00083185
808.232	0.00084803
808.414	0.0008435
808.595	0.00087554
808.777	0.00089735
808.959	0.00090441
809.14	0.00099263
809.322	0.00106377
809.504	0.00103164
809.685	0.00106362
809.867	0.00111036
810.048	0.00108611
810.23	0.00107593
810.411	0.0010573
810.593	0.00104321
810.774	0.00112914
810.956	0.00110297
811.137	0.00103408
811.319	0.00099182
811.5	0.00091664
811.681	0.00095425
811.863	0.00095717
812.044	0.00093213
812.225	0.00102918
812.407	0.00109345
812.588	0.00116815
812.769	0.0012778
812.951	0.00126019
813.132	0.00129777
813.313	0.00128724
813.494	0.00117181
813.675	0.00111925
813.857	0.00111557
814.038	0.00107344
814.219	0.0009721
814.4	0.00091882
814.581	0.00093483
814.762	0.00100092
814.943	0.00104765
815.124	0.00101703
815.305	0.00107726
815.486	0.00114199
815.667	0.00111097
815.848	0.00103575
816.029	0.00093084
816.21	0.00088103
816.391	0.000881
816.572	0.00085335
816.753	0.00086669
816.934	0.0008787
817.115	0.00091624
817.295	0.0009022
817.476	0.00079626
817.657	0.00074214
817.838	0.00065878
818.019	0.00056392
818.199	0.00059624
818.38	0.00061194
818.561	0.00069597
818.741	0.00081619
818.922	0.00091283
819.103	0.0009756
819.283	0.00107627
819.464	0.00107116
819.645	0.00109655
819.825	0.00106228
820.006	0.00105319
820.186	0.00100603
820.367	0.00099495
820.547	0.00096642
820.728	0.00094275
820.908	0.00090419
821.089	0.00099468
821.269	0.00096388
821.45	0.00101467
821.63	0.00102776
821.81	0.0010813
821.991	0.00111331
822.171	0.00110403
822.351	0.00105294
822.532	0.0011011
822.712	0.00102492
822.892	0.00095502
823.072	0.00089601
823.253	0.0009424
823.433	0.00101925
823.613	0.00106957
823.793	0.00113985
823.973	0.0012304
824.154	0.00133124
824.334	0.00131802
824.514	0.00125057
824.694	0.00120189
824.874	0.00115095
825.054	0.00108065
825.234	0.00098235
825.414	0.00089759
825.594	0.00095218
825.774	0.00096246
825.954	0.00096065
826.134	0.00094762
826.314	0.00093731
826.494	0.00090449
826.674	0.00091667
826.854	0.00085185
827.033	0.00081657
827.213	0.00081707
827.393	0.00082292
827.573	0.00086049
827.753	0.00093822
827.932	0.00097264
828.112	0.00100295
828.292	0.00104761
828.472	0.0010377
828.651	0.00106794
828.831	0.00102712
829.011	0.00097538
829.19	0.00100015
829.37	0.00100596
829.549	0.00104425
829.729	0.00104777
829.909	0.00099113
830.088	0.00094987
830.268	0.00100636
830.447	0.0009399
830.627	0.00092967
830.806	0.00088363
830.986	0.00088822
831.165	0.0009427
831.344	0.00097155
831.524	0.00091488
831.703	0.00088873
831.883	0.0008189
832.062	0.00085626
832.241	0.00089301
832.421	0.00085889
832.6	0.00089116
832.779	0.00091785
832.958	0.00097598
833.138	0.00101504
833.317	0.00093412
833.496	0.00093057
833.675	0.00095458
833.854	0.00090353
834.034	0.00085201
834.213	0.00079639
834.392	0.00083714
834.571	0.00083659
834.75	0.00079778
834.929	0.00071911
835.108	0.00076577
835.287	0.00078094
835.466	0.00079648
835.645	0.00075942
835.824	0.00071875
836.003	0.00074839
836.182	0.00077262
836.361	0.00077463
836.54	0.00082448
836.719	0.00088041
836.897	0.00087532
837.076	0.00093534
837.255	0.00081353
837.434	0.0008296
837.613	0.00083591
837.791	0.00083172
837.97	0.00078788
838.149	0.00086067
838.328	0.00085737
838.506	0.00102239
838.685	0.00100033
838.864	0.00102448
839.042	0.00100957
839.221	0.00104914
839.4	0.00101792
839.578	0.00101439
839.757	0.00090167
839.935	0.00090891
840.114	0.00084588
840.292	0.00080486
840.471	0.00076322
840.649	0.00075691
840.828	0.00071457
841.006	0.00074479
841.185	0.00083658
841.363	0.00091894
841.541	0.00095312
841.72	0.00099138
841.898	0.00096859
842.076	0.0009868
842.255	0.0009957
842.433	0.00091663
842.611	0.00085234
842.789	0.00081033
842.968	0.00079247
843.146	0.00081104
843.324	0.00083083
843.502	0.00084542
843.68	0.00090641
843.859	0.0009267
844.037	0.00100361
844.215	0.00101491
844.393	0.00100562
844.571	0.00107162
844.749	0.00105266
844.927	0.00098614
845.105	0.00090812
845.283	0.0008901
845.461	0.00091373
845.639	0.00086758
845.817	0.00082624
845.995	0.00087392
846.173	0.00096314
846.351	0.00102503
846.529	0.00104186
846.706	0.0010112
846.884	0.0010062
847.062	0.00103788
847.24	0.00101139
847.418	0.00093128
847.595	0.00090601
847.773	0.0008221
847.951	0.00077376
848.129	0.00083292
848.306	0.00079171
848.484	0.00076089
848.662	0.00081233
848.839	0.00090466
849.017	0.00099474
849.194	0.00106273
849.372	0.00105969
849.549	0.00105379
849.727	0.00099937
849.905	0.00091189
850.082	0.00072368
850.26	0.00060412
850.437	0.00061914
850.614	0.00058836
850.792	0.00057487
850.969	0.00067882
851.147	0.00075899
851.324	0.00086716
851.501	0.00093201
851.679	0.00090001
851.856	0.0008791
852.033	0.0008441
852.211	0.00080302
852.388	0.00070787
852.565	0.00060482
852.742	0.00061536
852.92	0.00058241
853.097	0.00057164
853.274	0.00063174
853.451	0.00056134
853.628	0.00058129
853.805	0.00068806
853.982	0.00069428
854.159	0.00070523
854.336	0.00071228
854.514	0.00064967
854.691	0.00063162
854.868	0.00068969
855.045	0.00063989
855.221	0.00066099
855.398	0.00066249
855.575	0.00060408
855.752	0.00057632
855.929	0.0006582
856.106	0.0006155
856.283	0.00071011
856.46	0.00073854
856.637	0.00076876
856.813	0.00089415
856.99	0.00099026
857.167	0.00100842
857.344	0.00101557
857.52	0.00089044
857.697	0.0007922
857.874	0.00068451
858.05	0.00060618
858.227	0.00060999
858.404	0.00057625
858.58	0.00063506
858.757	0.00067743
858.933	0.00071677
859.11	0.00079209
859.287	0.00087388
859.463	0.00080316
859.64	0.00080208
859.816	0.00071555
859.993	0.00066248
860.169	0.00062602
860.345	0.0006033
860.522	0.00057809
860.698	0.0005471
860.875	0.00052237
861.051	0.00055006
861.227	0.00063525
861.404	0.00070912
861.58	0.0007376
861.756	0.00066198
861.932	0.00078046
862.109	0.00082073
862.285	0.00083638
862.461	0.00078966
862.637	0.00071091
862.813	0.00063838
862.99	0.00055913
863.166	0.00048543
863.342	0.00052228
863.518	0.00056331
863.694	0.00065961
863.87	0.00077527
864.046	0.00091655
864.222	0.00114107
864.398	0.00127203
864.574	0.00121861
864.75	0.00118721
864.926	0.00115448
865.102	0.00103023
865.278	0.00097806
865.454	0.00084391
865.63	0.0006028
865.805	0.00053906
865.981	0.00048123
866.157	0.00045505
866.333	0.00054981
866.509	0.00059617
866.684	0.00074235
866.86	0.00094765
867.036	0.00114209
867.212	0.00127131
867.387	0.00131591
867.563	0.00129227
867.739	0.00117245
867.914	0.00101637
868.09	0.00085457
868.265	0.00067393
868.441	0.00055352
868.617	0.00039036
868.792	0.00031693
868.968	0.00039966
869.143	0.0004175
869.319	0.00052193
869.494	0.00066587
869.67	0.00073933
869.845	0.0008276
870.02	0.00082163
870.196	0.0007675
870.371	0.00078314
870.546	0.00076959
870.722	0.00061381
870.897	0.00058971
871.072	0.00060684
871.248	0.00065742
871.423	0.00062602
871.598	0.00067276
871.773	0.00062224
871.949	0.00072955
872.124	0.00074581
872.299	0.00069732
872.474	0.00078341
872.649	0.00086135
872.824	0.00087273
872.999	0.00081414
873.174	0.00070067
873.349	0.00059155
873.524	0.0004944
873.699	0.00028359
873.874	0.00023066
874.049	0.00015931
874.224	0.00030134
874.399	0.00030071
874.574	0.00037822
874.749	0.0005187
874.924	0.00072765
875.099	0.00076716
875.274	0.00087917
875.449	0.00091062
875.623	0.00103621
875.798	0.00103007
875.973	0.00105521
876.148	0.00102027
876.322	0.00099817
876.497	0.00090467
876.672	0.00079805
876.846	0.00077608
877.021	0.0007799
877.196	0.00071203
877.37	0.00065057
877.545	0.00056906
877.72	0.00063538
877.894	0.00061392
878.069	0.00057198
878.243	0.00047489
878.418	0.0005171
878.592	0.00048888
878.767	0.00054257
878.941	0.0003621
879.116	0.00031749
879.29	0.00025877
879.464	0.00028368
879.639	0.00026755
879.813	0.0002318
879.987	0.00030044
880.162	0.00039263
880.336	0.00062537
880.51	0.00072872
880.685	0.00077795
880.859	0.00072069
881.033	0.00076517
881.207	0.00065461
881.381	0.00061723
881.556	0.00042034
881.73	0.00035492
881.904	0.00033981
882.078	0.00037289
882.252	0.00032254
882.426	0.00034645
882.6	0.00044638
882.774	0.00051806
882.948	0.00054179
883.122	0.00053936
883.296	0.00057876
883.47	0.00056976
883.644	0.00065658
883.818	0.00055363
883.992	0.0005004
884.166	0.00044508
884.34	0.00046766
884.514	0.00045147
884.687	0.00054213
884.861	0.00050707
885.035	0.00060748
885.209	0.00074393
885.382	0.00094432
885.556	0.00113675
885.73	0.00121087
885.904	0.00128332
886.077	0.00137606
886.251	0.00136785
886.425	0.00120787
886.598	0.00106738
886.772	0.00079205
886.945	0.00069967
887.119	0.00069923
887.292	0.00062894
887.466	0.0005506
887.64	0.0006133
887.813	0.00067242
887.986	0.00080781
888.16	0.00091864
888.333	0.00089761
888.507	0.00091257
888.68	0.00096597
888.854	0.00093161
889.027	0.00081516
889.2	0.00067541
889.374	0.00052656
889.547	0.00042511
889.72	0.00034892
889.893	0.00029669
890.067	0.00029485
890.24	0.00032308
890.413	0.00037588
890.586	0.00043848
890.759	0.00052104
890.933	0.00057614
891.106	0.00064112
891.279	0.00076876
891.452	0.00082263
891.625	0.00086027
891.798	0.00085725
891.971	0.00086714
892.144	0.0008663
892.317	0.00084103
892.49	0.00071184
892.663	0.0007016
892.836	0.00062187
893.009	0.00056259
893.182	0.00044744
893.355	0.0003886
893.527	0.00034716
893.7	0.00033405
893.873	0.00025686
894.046	0.00023199
894.219	0.00024507
894.391	0.00023837
894.564	0.00025829
894.737	0.00025927
894.91	0.00027787
895.082	0.00025797
895.255	0.00026821
895.428	0.00022505
895.6	0.00025214
895.773	0.00024281
895.945	0.00025266
896.118	0.00024909
896.291	0.00027954
896.463	0.00034164
896.636	0.0005259
896.808	0.00060078
896.981	0.00059546
897.153	0.00062137
897.326	0.00074819
897.498	0.00086353
897.67	0.00090107
897.843	0.00081374
898.015	0.00073172
898.187	0.0008168
898.36	0.00077963
898.532	0.00071666
898.704	0.00059455
898.877	0.00060563
899.049	0.00059149
899.221	0.00063069
899.393	0.00062689
899.566	0.00080394
899.738	0.00084164
899.91	0.00095151
900.082	0.000901
900.254	0.00089898
900.426	0.00080142
900.598	0.00057153
900.77	0.00041305
900.942	0.00022765
901.114	0.00007803
901.286	0.0001232
901.458	0.00011039
901.63	0.00016027
901.802	0.00028795
901.974	0.00029608
902.146	0.00044137
902.318	0.00062292
902.49	0.00060511
902.662	0.00070459
902.834	0.00077502
903.005	0.00088475
903.177	0.00093147
903.349	0.00099193
903.521	0.00085051
903.693	0.000852
903.864	0.00074573
904.036	0.00065644
904.208	0.0005451
904.379	0.00042701
904.551	0.00024198
904.723	0.00028228
904.894	0.00019395
905.066	0.0001965
905.237	0.0002847
905.409	0.0003338
905.58	0.00042685
905.752	0.0005148
905.923	0.00042656
906.095	0.00042596
906.266	0.00037899
906.438	0.00023175
906.609	0.00018455
906.78	0.0000591
906.952	0.00003885
907.123	0.00004893
907.295	0.00010235
907.466	0.00004895
907.637	0.00007725
907.808	0.00017183
907.98	0.0003243
908.151	0.00026694
908.322	0.00038122
908.493	0.00043003
908.665	0.00058308
908.836	0.00066443
909.007	0.00060929
909.178	0.00064879
909.349	0.00076231
909.52	0.00067805
909.691	0.00066671
909.862	0.00060362
910.033	0.0005822
910.204	0.00054517
910.375	0.0004225
910.546	0.00032533
910.717	0.00043332
910.888	0.0004097
911.059	0.00039974
911.23	0.00043188
911.401	0.00057386
911.572	0.00072331
911.742	0.00088921
911.913	0.00091311
912.084	0.0008917
912.255	0.00098158
912.426	0.00098158
912.596	0.0008294
912.767	0.00064444
912.938	0.00049367
913.108	0.00030063
913.279	0.00039451
913.45	0.00039083
913.62	0.00056639
913.791	0.00070186
913.962	0.00090931
914.132	0.00103037
914.303	0.00128507
914.473	0.00134909
914.644	0.00136293
914.814	0.00125963
914.985	0.00117599
915.155	0.00103248
915.326	0.00092734
915.496	0.00073727
915.666	0.00056945
915.837	0.000406
916.007	0.00020815
916.177	0.00020682
916.348	0.00023807
916.518	0.00028519
916.688	0.00038673
916.858	0.00038654
917.029	0.00049575
917.199	0.0007343
917.369	0.00076494
917.539	0.00084474
917.709	0.00096487
917.88	0.00092611
918.05	0.00089521
918.22	0.00091486
918.39	0.00083883
918.56	0.00081426
918.73	0.00055537
918.9	0.00039873
919.07	0.00028877
919.24	0.00033539
919.41	0.00032381
919.58	0.00025602
919.75	0.00026484
919.92	0.0004176
920.09	0.0003548
920.26	0.00041277
920.429	0.00045855
920.599	0.00048584
920.769	0.00056585
920.939	0.00052826
921.109	0.00061664
921.278	0.00062985
921.448	0.00057012
921.618	0.00049765
921.787	0.00036697
921.957	0.00026069
922.127	0.00027155
922.296	0.00022984
922.466	0.00019008
922.636	0.00025857
922.805	0.00027793
922.975	0.00047767
923.144	0.00059135
923.314	0.00057141
923.483	0.00055744
923.653	0.00068139
923.822	0.00070311
923.992	0.00066713
924.161	0.00047321
924.331	0.00037849
924.5	0.00039251
924.669	0.00027731
924.839	0.00008556
925.008	0.00011257
925.177	0.00007201
925.347	0.00007904
925.516	0.0000299
925.685	-0.00000483
925.854	0.0001355
926.023	0.00026643
926.193	0.00014101
926.362	0.00032796
926.531	0.00040012
926.7	0.00043689
926.869	0.0005523
927.038	0.00043308
927.207	0.00043191
927.376	0.00052232
927.545	0.00036262
927.715	0.00032274
927.884	0.00034599
928.052	0.00014787
928.221	0.00017392
928.39	0.00016455
928.559	0.00024899
928.728	0.0002643
928.897	0.0001604
929.066	0.0001014
929.235	0.00034376
929.404	0.00028307
929.572	0.00024751
929.741	0.00011701
929.91	0.00003865
930.079	0.00014176
930.247	0.00007638
930.416	-0.00009488
930.585	0.00005505
930.753	0.00015143
930.922	0.00024314
931.091	0.00026258
931.259	0.00025666
931.428	0.00043038
931.596	0.0005243
931.765	0.00046432
931.934	0.00029623
932.102	0.00025098
932.27	0.00035597
932.439	0.00032379
932.607	0.00020022
932.776	-0.0000696
932.944	-0.00003178
933.113	-0.00003257
933.281	-0.00008698
933.449	-0.00031415
933.618	-0.00039872
933.786	-0.00034717
933.954	-0.00009934
934.123	-0.00013582
934.291	-0.00002357
934.459	-0.00005346
934.627	0.00013366
934.795	0.00043856
934.964	0.00022964
935.132	0.00020394
935.3	-0.00003996
935.468	-0.00001069
935.636	-0.00000591
935.804	-0.00001438
935.972	-0.00019372
936.14	0.00006342
936.308	-0.0000871
936.476	0.00000161
936.644	0.00007929
936.812	0.00005452
936.98	0.00013423
937.148	0.00006272
937.316	0.00016782
937.484	0.00017898
937.652	0.00051113
937.82	0.00067245
937.987	0.00065349
938.155	0.00078956
938.323	0.00089651
938.491	0.00101723
938.658	0.0012217
938.826	0.00110778
938.994	0.00052107
939.162	0.00080403
939.329	0.0006355
939.497	0.00026732
939.665	-0.00045773
939.832	-0.00048319
940	-0.00072175
940.167	-0.00031195
940.335	-0.00014844
940.502	-0.00036914
940.67	-0.00029715
940.837	-0.00050159
941.005	-0.00035923
941.172	-0.00074562
941.34	-0.00064484
941.507	-0.00121347
941.674	-0.0009675
941.842	-0.00068242
942.009	0.00021536
942.177	0.00006267
942.344	0.00036421
942.511	0.00054187
942.678	0.00073209
942.846	0.00007499
943.013	0.0004979
943.18	0.00038619
943.347	0.00036441
943.514	0.00036878
943.682	-0.00003732
943.849	0.00001523
944.016	0.00092263
944.183	0.00098043
944.35	0.00040121
944.517	0.00023681
944.684	-0.00001949
944.851	0.00008289
945.018	0.00008254
945.185	0.00037476
945.352	0.00001058
945.519	0.00062447
945.686	0.00072759
945.853	0.00062596
946.02	0.00060931
946.187	0.00065049
946.353	0.00045345
946.52	0.00083174
946.687	0.00110057
946.854	0.00081701
947.021	0.00103925
947.187	0.00092609
947.354	0.00112207
947.521	0.00086639
947.687	-0.0005012
947.854	-0.00048484
948.021	0.00026284
948.187	0.00064991
948.354	0.00030707
948.52	-0.00036712
948.687	-0.00020588
948.854	0.00005079
949.02	-0.00034443
949.187	-0.00109827
949.353	-0.00167737
949.52	-0.001465
949.686	-0.00088632
949.852	-0.00081918
950.019	-0.0001619
950.185	0.00013292
950.352	0.0004735
950.518	0.0011441
950.684	0.00097316
950.851	0.00044589
951.017	0.00036579
951.183	0.00008912
951.349	-0.0001678
951.516	-0.00094183
951.682	-0.00153351
951.848	-0.00126195
952.014	-0.00076755
952.18	-0.0009901
952.346	-0.00078268
952.512	-0.00032684
952.679	-0.00015328
952.845	0.00036584
953.011	0.00002471
953.177	0.000085
953.343	-0.0003259
953.509	-0.00045831
953.675	-0.00029871
953.841	-0.00026324
954.007	-0.00028231
954.172	-0.0002992
954.338	-0.00005093
954.504	0.00067858
954.67	0.0010085
954.836	0.00106418
955.002	0.00128488
955.167	0.00098414
955.333	0.00106195
955.499	0.00046399
955.665	0.00037288
955.83	0.0000296
955.996	-0.00073494
956.162	-0.00016587
956.327	-0.00013431
956.493	-0.00007565
956.659	0.0001259
956.824	-0.00043655
956.99	-0.00001338
957.155	0.00052382
957.321	0.00028881
957.486	0.00017104
957.652	0.0003235
957.817	0.00021069
957.983	0.00049314
958.148	0.00038151
958.314	0.0000178
958.479	-0.00011352
958.644	0.00030056
958.81	0.00005979
958.975	0.00036306
959.14	0.00013562
959.306	-0.00022808
959.471	-0.00020766
959.636	-0.00027398
959.801	-0.00056799
959.967	-0.00028463
960.132	-0.0003243
960.297	-0.00006768
960.462	-0.00001574
960.627	0.00028481
960.792	0.00055886
960.957	0.00053092
961.123	0.00042832
961.288	0.00032761
961.453	0.00036294
961.618	0.00019914
961.783	-0.00004407
961.948	-0.00047642
962.113	-0.00039995
962.277	-0.00067338
962.442	-0.00087809
962.607	-0.00108989
962.772	-0.00081069
962.937	-0.00114054
963.102	-0.00109374
963.267	-0.00122574
963.431	-0.00097452
963.596	-0.00081647
963.761	-0.00070927
963.926	-0.00050231
964.09	-0.00024272
964.255	0.00005932
964.42	0.00026718
964.584	0.00030836
964.749	0.00053738
964.914	0.00085378
965.078	0.00044624
965.243	0.00043554
965.407	0.0004968
965.572	0.00045044
965.736	0.00061821
965.901	0.00054288
966.065	-0.00003376
966.23	0.00018873
966.394	0.00037947
966.559	0.0000218
966.723	0.00008658
966.887	-0.00040561
967.052	-0.00080538
967.216	-0.00027118
967.38	-0.00023924
967.545	-0.0002567
967.709	-0.00010935
967.873	-0.00006559
968.037	0.0001237
968.202	-0.00007094
968.366	-0.00009384
968.53	-0.00032738
968.694	-0.00044152
968.858	-0.0007661
969.022	-0.0009892
969.187	-0.00100222
969.351	-0.00031413
969.515	-0.00051565
969.679	-0.00039336
969.843	-0.00041273
970.007	-0.00020496
970.171	-0.00027695
970.335	-0.00011192
970.499	-0.00048659
970.662	-0.00037677
970.826	-0.0004902
970.99	-0.00044083
971.154	-0.00042272
971.318	-0.00022844
971.482	-0.00021632
971.645	0.00001022
971.809	-0.00018568
971.973	0.00025375
972.137	0.00005488
972.3	0.00009825
972.464	0.00028551
972.628	0.00007041
972.791	0.00004195
972.955	0.00010803
973.119	-0.00022444
973.282	-0.00022482
973.446	-0.00043288
973.609	-0.00023892
973.773	0.00019134
973.936	-0.00008824
974.1	0.00007533
974.263	0.00022287
974.427	0.00035068
974.59	0.00060457
974.754	0.00032293
974.917	0.00003422
975.08	0.00043849
975.244	0.00028928
975.407	-0.00005293
975.57	0.00029599
975.734	0.00023049
975.897	0.00002474
976.06	0.00034704
976.223	0.0000232
976.387	0.00010638
976.55	0.00053035
976.713	-0.00006065
976.876	-0.00009861
977.039	-0.00016358
977.202	-0.00029874
977.365	-0.00008686
977.528	-0.00010736
977.692	-0.00013531
977.855	-0.00026121
978.018	-0.0001764
978.181	-0.00025454
978.344	-0.00052701
978.506	-0.00090954
978.669	-0.00077177
978.832	-0.00119257
978.995	-0.00081634
979.158	-0.00088725
979.321	-0.00059992
979.484	-0.0006561
979.646	-0.00065777
979.809	-0.00088663
979.972	-0.00062349
980.135	-0.00037304
980.297	-0.00013215
980.46	-0.00014111
980.623	0.0000121
980.786	0.00017463
980.948	0.0004859
981.111	0.00031262
981.273	-0.00014054
981.436	-0.00016152
981.599	0.00000726
981.761	0.00009602
981.924	0.00014374
982.086	-0.00003819
982.249	0.00019339
982.411	0.00064661
982.573	0.0002141
982.736	0.00015886
982.898	-0.00028897
983.061	-0.00014347
983.223	-0.00045732
983.385	-0.00066425
983.548	-0.00030413
983.71	0.00003034
983.872	-0.0001224
984.034	0.0001439
984.197	-0.00018188
984.359	0.00004194
984.521	-0.00022982
984.683	-0.00056207
984.845	-0.00067058
985.008	-0.00043858
985.17	-0.00078559
985.332	-0.00067034
985.494	-0.00097179
985.656	-0.00031916
985.818	-0.00062848
985.98	-0.00045879
986.142	-0.00065177
986.304	-0.00030433
986.466	0.00006988
986.628	0.00037205
986.79	0.00045032
986.952	0.00075271
987.113	0.00065971
987.275	0.00026414
987.437	-0.00004175
987.599	-0.00046794
987.761	-0.00016477
987.922	-0.00045352
988.084	-0.00094705
988.246	-0.0008167
988.408	-0.00017764
988.569	0.00027905
988.731	0.00082513
988.893	0.00022261
989.054	0.00048878
989.216	0.00086606
989.377	0.00051304
989.539	0.0005673
989.701	0.00004309
989.862	-0.00031115
990.024	-0.00024125
990.185	-0.00054912
990.347	-0.00067561
990.508	-0.00065674
990.669	-0.00069077
990.831	0.00026905
990.992	0.00027564
991.154	0.00061712
991.315	0.00081823
991.476	0.00049314
991.638	0.0007753
991.799	0.00032567
991.96	-0.00031516
992.121	-0.00006954
992.283	-0.00006338
992.444	0.00007333
992.605	0.00013667
992.766	-0.00008263
992.927	0.00009682
993.088	0.00068223
993.249	0.00031638
993.41	0.0001759
993.572	0.0003136
993.733	0.00055857
993.894	0.00110358
994.055	0.0019095
994.216	0.00161607
994.376	0.00178316
994.537	0.00208419
994.698	0.00129766
994.859	0.00134564
995.02	0.00095434
995.181	0.00004433
995.342	0.00021944
995.503	-0.0002312
995.663	-0.0007325
995.824	-0.0002276
995.985	0.00004023
996.146	0.00011134
996.306	0.00025142
996.467	0.00024537
996.628	0.00046778
996.788	0.00096287
996.949	0.00096869
997.11	0.00023527
997.27	-0.00006113
997.431	-0.00065608
997.591	-0.00127785
997.752	-0.00071111
997.912	-0.00087808
998.073	-0.00046837
998.233	0.00028145
998.394	0.00077277
998.554	0.00165031
998.714	0.00185779
998.875	0.00187873
999.035	0.00165123
999.196	0.00084676
999.356	0.00019695
999.516	-0.00077629
999.676	-0.00150532
999.837	-0.00158054
999.997	-0.00178344
1000.157	-0.00122616
1000.317	-0.00104015
1000.477	-0.00099772
1000.638	-0.00060169
1000.798	-0.00012331
1000.958	-0.00046655
1001.118	-0.00008659
1001.278	-0.00058582
1001.438	-0.00030785
1001.598	0.00012802
1001.758	0.00075597
1001.918	0.0007071
1002.078	0.0008895
1002.238	0.00045944
1002.398	0.00073407
1002.558	0.00036246
1002.718	-0.00060904
1002.878	-0.00100243
1003.037	-0.00127579
1003.197	-0.0011075
1003.357	-0.00229498
1003.517	-0.00217344
1003.677	-0.00266121
1003.836	-0.00241131
1003.996	-0.00206573
1004.156	-0.0021967
1004.315	-0.00194244
1004.475	-0.0018376
1004.635	-0.00186176
1004.794	-0.00105253
1004.954	-0.00040262
1005.114	-0.00121135
1005.273	-0.0011306
1005.433	-0.00078531
1005.592	0.00054107
1005.752	-0.00066792
1005.911	-0.00082049
1006.071	-0.00090072
1006.23	-0.00044235
1006.389	-0.0005257
1006.549	-0.00081038
1006.708	-0.00138525
1006.868	-0.00047063
1007.027	-0.00049521
1007.186	-0.0009432
1007.345	-0.00045772
1007.505	-0.00023215
1007.664	-0.00025831
1007.823	-0.00047047
1007.982	0.00047646
1008.142	0.00049605
1008.301	0.00106449
1008.46	0.00072998
1008.619	0.00016418
1008.778	-0.00143632
1008.937	-0.00083321
1009.096	-0.00123577
1009.255	-0.00091102
1009.414	-0.00167742
1009.573	-0.00142485
1009.732	-0.00114727
1009.891	-0.00006491
1010.05	-0.00125791
1010.209	-0.00243305
1010.368	-0.00246796
1010.527	-0.00234424
1010.686	-0.00190052
1010.845	-0.00179879
1011.003	-0.00183998
1011.162	-0.00048052
1011.321	0.00109825
1011.48	-0.00027697
1011.638	0.0003148
1011.797	-0.001998
1011.956	-0.00140428
1012.115	-0.0014302
1012.273	-0.00167363
1012.432	-0.0017514
1012.59	-0.000456
1012.749	-0.00056778
1012.908	0.00053916
1013.066	0.00057282
1013.225	0.00193483
1013.383	0.00210701
1013.542	0.00334576
1013.7	0.00316621
1013.859	0.00353796
1014.017	0.00386449
1014.175	0.00391926
1014.334	0.00282407
1014.492	0.00217129
1014.65	-0.00023112
1014.809	-0.00151181
1014.967	-0.00094224
1015.125	-0.00202841
1015.284	-0.0027197
1015.442	-0.00263855
1015.6	-0.00246614
1015.758	-0.00180504
1015.916	-0.00016381
1016.075	-0.00016947
1016.233	0.00132553
1016.391	0.00015903
1016.549	0.00027065
1016.707	-0.00007422
1016.865	-0.00039858
1017.023	0.00060716
1017.181	-0.00023459
1017.339	-0.00078717
1017.497	0.00103008
1017.655	-0.00035747
1017.813	0.00052877
1017.971	-0.00016631
1018.129	-0.00148081
1018.286	-0.00272135
1018.444	-0.00085194
1018.602	-0.00117042
1018.76	0.00099032
1018.918	0.00059567
1019.075	0.00157126
1019.233	0.00083851
1019.391	0.00214485
1019.549	0.00124211
1019.706	0.00136198
1019.864	0.00173341
1020.022	0.00081953
1020.179	-0.00150641
1020.337	-0.00104158
1020.494	-0.00232493
1020.652	-0.00370876
1020.809	-0.00298565
1020.967	-0.00273119
1021.124	-0.00126765
1021.282	-0.00078833
1021.439	-0.00095554
1021.597	-0.00212469
1021.754	-0.00200145
1021.911	-0.0026486
1022.069	-0.00657407
1022.226	-0.00698103
1022.384	-0.0045803
1022.541	-0.00420386
1022.698	-0.00157518
1022.855	-0.0009794
1023.013	-0.00016895
1023.17	0.00095149
1023.327	-0.00096227
1023.484	-0.00288724
1023.641	-0.00430924
1023.798	-0.00512722
1023.956	-0.00414961
1024.113	-0.00643465
1024.27	-0.00596171
1024.427	-0.00433099
1024.584	-0.00305068
1024.741	-0.00301066
1024.898	-0.0044546
1025.055	-0.00455651
1025.212	-0.0037702
1025.369	-0.00336982
1025.525	-0.00172301
1025.682	-0.00141348
1025.839	-0.00139364
1025.996	0.00000815
1026.153	-0.00386511
1026.31	-0.00484648
1026.466	-0.00535573
1026.623	-0.00747535
1026.78	-0.00813627
1026.937	-0.00647577
1027.093	-0.00543639
1027.25	-0.00433163
1027.407	-0.00604483
1027.563	-0.0047416
1027.72	-0.0034169
1027.876	-0.00537502
1028.033	-0.00490626
1028.19	-0.00349728
1028.346	-0.00152816
1028.503	-0.00040569
1028.659	0.00109792
1028.816	0.00170357
1028.972	0.00341853
1029.128	0.00216506
1029.285	0.00370936
1029.441	0.00391347
1029.598	0.00330607
1029.754	-0.00104861
1029.91	-0.00406003
1030.067	-0.00762241
1030.223	-0.00669034
1030.379	-0.00728672
1030.535	-0.00702097
1030.691	-0.00409388
1030.848	-0.00231343
1031.004	-0.00064516
1031.16	0.00800004
1031.316	0.01019304
1031.472	0.00758359
1031.628	0.00920846
1031.784	0.00578334
1031.94	0.00814537
1032.096	0.00767362
1032.252	0.00015747
1032.408	-0.0030734
1032.564	-0.00729647
1032.72	-0.00779107
1032.876	-0.00650453
1033.032	-0.00720982
1033.188	-0.009093
1033.344	-0.00479588
1033.5	-0.00326736
1033.655	0.0012198
1033.811	-0.00202137
1033.967	0.00053424
