Data from 0_1_mm_pl_0pc_Absorbance__0__16-06-38-304.txt Node

Date: Fri Feb 24 16:06:38 CET 2023
User: Ange
Spectrometer: FLMT08341
Trigger mode: 0
Integration Time (sec): 1.000000E-2
Scans to average: 400
Electric dark correction enabled: true
Nonlinearity correction enabled: false
Boxcar width: 3
XAxis mode: Wavelengths
Number of Pixels in Spectrum: 3648
>>>>>Begin Spectral Data<<<<<
345.271	0.04647275
345.487	0.04867018
345.704	0.04635014
345.921	0.05266129
346.137	0.05259885
346.354	0.03328723
346.571	0.05337267
346.787	0.20465073
347.004	-0.01482905
347.22	-0.08629533
347.437	-0.0570934
347.653	-0.03518578
347.87	0.06166064
348.086	-0.70769654
348.303	-0
348.519	-0.0014779
348.736	0.0162908
348.952	0.02409379
349.169	0.02709162
349.385	0.02694507
349.601	0.02762333
349.818	0.02896982
350.034	0.02814519
350.251	0.02766534
350.467	0.02702172
350.683	0.02658994
350.9	0.02742557
351.116	0.02637778
351.332	0.02652945
351.549	0.02751308
351.765	0.02643903
351.981	0.02554033
352.197	0.02475035
352.414	0.02330627
352.63	0.02411862
352.846	0.02446158
353.062	0.02309463
353.278	0.02283347
353.495	0.02318617
353.711	0.02393731
353.927	0.02561489
354.143	0.02503453
354.359	0.02399315
354.575	0.02401422
354.792	0.02557585
355.008	0.02440911
355.224	0.02374053
355.44	0.022561
355.656	0.02298986
355.872	0.02254571
356.088	0.02182642
356.304	0.02003425
356.52	0.02076632
356.736	0.02088168
356.952	0.01984761
357.168	0.01882212
357.384	0.01965979
357.6	0.02027618
357.816	0.02042723
358.032	0.01964083
358.248	0.01930609
358.464	0.02016815
358.679	0.01970648
358.895	0.01846119
359.111	0.01917442
359.327	0.01939649
359.543	0.01900568
359.759	0.01887598
359.974	0.01914494
360.19	0.01937424
360.406	0.019571
360.622	0.01835228
360.838	0.01802724
361.053	0.01872813
361.269	0.01767275
361.485	0.01806254
361.701	0.01706897
361.916	0.01680154
362.132	0.01635969
362.348	0.01614897
362.563	0.01571486
362.779	0.0159
362.995	0.01563376
363.21	0.01609644
363.426	0.01536398
363.641	0.01545544
363.857	0.01431629
364.073	0.01370297
364.288	0.0125979
364.504	0.01163027
364.719	0.01166615
364.935	0.01216197
365.15	0.01229811
365.366	0.0137463
365.581	0.01408064
365.797	0.01437344
366.012	0.0135818
366.228	0.01305894
366.443	0.01352274
366.658	0.01356019
366.874	0.0121027
367.089	0.01170138
367.305	0.01158297
367.52	0.0114067
367.735	0.01055963
367.951	0.01011215
368.166	0.00936501
368.381	0.00975295
368.597	0.00975756
368.812	0.01060515
369.027	0.01137727
369.243	0.01157138
369.458	0.01201684
369.673	0.01258995
369.888	0.0120385
370.104	0.01071331
370.319	0.00991479
370.534	0.00962837
370.749	0.01024279
370.964	0.00968554
371.179	0.00911435
371.395	0.01003835
371.61	0.01059654
371.825	0.01072524
372.04	0.00984471
372.255	0.00964517
372.47	0.00954711
372.685	0.00973501
372.9	0.00844581
373.115	0.00836588
373.33	0.00856052
373.545	0.00904056
373.76	0.00925158
373.975	0.00830719
374.19	0.008182
374.405	0.00867965
374.62	0.00868485
374.835	0.00901785
375.05	0.00902282
375.265	0.00887155
375.48	0.00958269
375.695	0.00947229
375.91	0.00899411
376.125	0.00886814
376.339	0.00791096
376.554	0.00786458
376.769	0.00752534
376.984	0.00743486
377.199	0.00783542
377.414	0.00850954
377.628	0.00873021
377.843	0.00922086
378.058	0.00907579
378.273	0.00898902
378.487	0.00906513
378.702	0.00799567
378.917	0.00772784
379.131	0.00799196
379.346	0.00757704
379.561	0.00755261
379.775	0.00766212
379.99	0.00739613
380.205	0.0077781
380.419	0.00779991
380.634	0.00742056
380.848	0.00719682
381.063	0.00729961
381.278	0.00695853
381.492	0.00695994
381.707	0.00701639
381.921	0.00674927
382.136	0.00661957
382.35	0.00629662
382.565	0.00658261
382.779	0.00664282
382.994	0.00622313
383.208	0.00627284
383.422	0.00621631
383.637	0.0059742
383.851	0.00643283
384.066	0.00590534
384.28	0.00578818
384.494	0.00620493
384.709	0.00561605
384.923	0.00555245
385.137	0.00586874
385.352	0.00527292
385.566	0.00519134
385.78	0.00549354
385.995	0.00513147
386.209	0.00524974
386.423	0.00497526
386.637	0.00489736
386.852	0.00509736
387.066	0.00506451
387.28	0.00492682
387.494	0.00482295
387.708	0.00517514
387.923	0.00520928
388.137	0.0049673
388.351	0.00529669
388.565	0.00566345
388.779	0.00539483
388.993	0.00548883
389.207	0.00544448
389.421	0.00547906
389.635	0.00535438
389.85	0.00457295
390.064	0.00428133
390.278	0.00401849
390.492	0.00391023
390.706	0.00379737
390.92	0.00338862
391.134	0.00325798
391.348	0.00400974
391.561	0.00360722
391.775	0.00376734
391.989	0.0038257
392.203	0.00334963
392.417	0.00365692
392.631	0.00406311
392.845	0.00377157
393.059	0.00424067
393.273	0.00394983
393.486	0.00414506
393.7	0.00433566
393.914	0.00443561
394.128	0.00416406
394.342	0.00428961
394.555	0.00417817
394.769	0.00417463
394.983	0.00391034
395.197	0.00372121
395.41	0.00314903
395.624	0.00308198
395.838	0.00297812
396.051	0.00268883
396.265	0.002646
396.479	0.00264272
396.692	0.00316044
396.906	0.00362751
397.12	0.0040513
397.333	0.00366996
397.547	0.003602
397.76	0.00374062
397.974	0.00378349
398.187	0.00328966
398.401	0.00309283
398.614	0.00286789
398.828	0.00290154
399.041	0.00297878
399.255	0.00292367
399.468	0.00284565
399.682	0.00295947
399.895	0.003228
400.109	0.00295171
400.322	0.00295234
400.536	0.00301967
400.749	0.00320174
400.962	0.00291689
401.176	0.00300348
401.389	0.00271576
401.602	0.002592
401.816	0.00250139
402.029	0.00234516
402.242	0.0020978
402.456	0.0022311
402.669	0.00218503
402.882	0.00246195
403.095	0.00287373
403.309	0.0029437
403.522	0.0028076
403.735	0.00275864
403.948	0.00301118
404.161	0.00273177
404.375	0.00274605
404.588	0.00256437
404.801	0.00266015
405.014	0.00279721
405.227	0.00281028
405.44	0.00266917
405.653	0.00285606
405.866	0.00265472
406.079	0.00253751
406.293	0.00246285
406.506	0.0023081
406.719	0.00235334
406.932	0.00208265
407.145	0.00194088
407.358	0.00193688
407.571	0.00194154
407.784	0.00194263
407.996	0.00211968
408.209	0.0021406
408.422	0.00224425
408.635	0.00242293
408.848	0.00229821
409.061	0.0019567
409.274	0.00180998
409.487	0.00161876
409.7	0.00164133
409.912	0.00153922
410.125	0.00139588
410.338	0.00126321
410.551	0.00163353
410.764	0.00172897
410.976	0.00198003
411.189	0.00187101
411.402	0.00182983
411.615	0.00178482
411.827	0.00200428
412.04	0.00188123
412.253	0.00196513
412.465	0.00196484
412.678	0.00199668
412.891	0.00207467
413.103	0.00206184
413.316	0.00177075
413.529	0.00166053
413.741	0.00141956
413.954	0.0012582
414.166	0.00110866
414.379	0.00105496
414.591	0.00119111
414.804	0.00140734
415.016	0.00162858
415.229	0.00194991
415.441	0.00169718
415.654	0.00171994
415.866	0.00190585
416.079	0.00202719
416.291	0.00179215
416.504	0.00156123
416.716	0.00138633
416.928	0.00169054
417.141	0.00161067
417.353	0.00142314
417.566	0.00132634
417.778	0.00153461
417.99	0.00144729
418.203	0.00142764
418.415	0.00137938
418.627	0.00159021
418.839	0.00162857
419.052	0.00154192
419.264	0.00124453
419.476	0.0013297
419.688	0.00145507
419.901	0.00126748
420.113	0.00111866
420.325	0.00098722
420.537	0.00101197
420.749	0.00122143
420.961	0.00142727
421.174	0.00119603
421.386	0.00124275
421.598	0.0013319
421.81	0.00124354
422.022	0.001247
422.234	0.00116976
422.446	0.00090044
422.658	0.00110012
422.87	0.00110615
423.082	0.00122495
423.294	0.00145554
423.506	0.00131771
423.718	0.00124939
423.93	0.00138307
424.142	0.00125348
424.354	0.00119088
424.566	0.00097907
424.778	0.0008775
424.99	0.00086494
425.202	0.00085414
425.414	0.00087934
425.625	0.00082215
425.837	0.00093678
426.049	0.00100343
426.261	0.00116325
426.473	0.00119656
426.684	0.00114818
426.896	0.00112249
427.108	0.00097548
427.32	0.00104572
427.531	0.00109075
427.743	0.00088795
427.955	0.00086532
428.167	0.00072278
428.378	0.0006271
428.59	0.00073864
428.802	0.00066597
429.013	0.0005112
429.225	0.00064436
429.436	0.00057652
429.648	0.00092722
429.86	0.00099481
430.071	0.00089939
430.283	0.00083918
430.494	0.00078597
430.706	0.00067057
430.917	0.00082806
431.129	0.00067257
431.34	0.00062232
431.552	0.00054857
431.763	0.00044651
431.975	0.00046898
432.186	0.00046325
432.398	0.00041402
432.609	0.00042389
432.821	0.00021975
433.032	0.00052932
433.243	0.00067276
433.455	0.00064074
433.666	0.00067158
433.877	0.00051376
434.089	0.00055802
434.3	0.00077691
434.511	0.00067059
434.723	0.00044686
434.934	0.00059417
435.145	0.00044748
435.356	0.00060676
435.568	0.00057933
435.779	0.00062291
435.99	0.00053983
436.201	0.00090756
436.412	0.00089561
436.624	0.00092723
436.835	0.00093371
437.046	0.0009015
437.257	0.00084569
437.468	0.00085374
437.679	0.00052851
437.89	0.0004659
438.101	0.00047534
438.312	0.00024806
438.523	0.00017013
438.734	0.00016621
438.945	0.0002309
439.156	0.00031208
439.367	0.00030368
439.578	0.0003289
439.789	0.00058054
440	0.00063836
440.211	0.00063132
440.422	0.00058283
440.633	0.0004798
440.844	0.0004088
441.055	0.00048227
441.266	0.00035862
441.477	0.00042197
441.687	0.00033781
441.898	0.00035833
442.109	0.00030152
442.32	0.00041996
442.531	0.00040079
442.741	0.00039697
442.952	0.00022126
443.163	0.00034446
443.374	0.00037191
443.584	0.00054341
443.795	0.00036947
444.006	0.0003369
444.216	0.00028648
444.427	0.00050183
444.638	0.0005311
444.848	0.00046733
445.059	0.00048274
445.27	0.00047001
445.48	0.00053199
445.691	0.00056535
445.901	0.00047939
446.112	0.00041699
446.323	0.00045208
446.533	0.00030292
446.744	0.00045945
446.954	0.00039469
447.165	0.00036116
447.375	0.00042582
447.586	0.00045611
447.796	0.00044035
448.006	0.00048799
448.217	0.00036209
448.427	0.00021977
448.638	0.00020415
448.848	0.00001989
449.058	-0.00019878
449.269	-0.00012739
449.479	-0.00010394
449.689	0.00001055
449.9	0.0001975
450.11	0.00034313
450.32	0.00036827
450.531	0.00047131
450.741	0.00042306
450.951	0.00049187
451.161	0.00040904
451.372	0.00041707
451.582	0.00037933
451.792	0.00057534
452.002	0.00068887
452.212	0.00071471
452.422	0.00061417
452.633	0.00064475
452.843	0.0005871
453.053	0.00057669
453.263	0.00048339
453.473	0.00045392
453.683	0.00045873
453.893	0.00048978
454.103	0.00054948
454.313	0.00059803
454.523	0.00057267
454.733	0.00062372
454.943	0.00062961
455.153	0.00068872
455.363	0.00071469
455.573	0.00069491
455.783	0.0007299
455.993	0.00058729
456.203	0.0005104
456.413	0.00037576
456.623	0.0002294
456.833	0.00022139
457.042	0.00027452
457.252	0.00015683
457.462	0.00029422
457.672	0.00032401
457.882	0.00038433
458.091	0.00049221
458.301	0.00049351
458.511	0.00039587
458.721	0.00038157
458.931	0.00036715
459.14	0.00039376
459.35	0.00039438
459.56	0.0003013
459.769	0.00027776
459.979	0.00032502
460.189	0.00035644
460.398	0.00035672
460.608	0.00037584
460.817	0.00047071
461.027	0.00044995
461.237	0.00047782
461.446	0.00051924
461.656	0.00052768
461.865	0.00049821
462.075	0.00039716
462.284	0.00033268
462.494	0.00047991
462.703	0.00044266
462.913	0.00038603
463.122	0.00033304
463.332	0.00038021
463.541	0.00051745
463.751	0.00051636
463.96	0.00033428
464.169	0.00031911
464.379	0.00035084
464.588	0.0003775
464.797	0.00034339
465.007	0.00033827
465.216	0.00031115
465.425	0.000522
465.635	0.00059353
465.844	0.00054318
466.053	0.00057027
466.263	0.00060823
466.472	0.00063778
466.681	0.00071779
466.89	0.00052867
467.099	0.0005648
467.309	0.0005769
467.518	0.00063206
467.727	0.00073809
467.936	0.00062642
468.145	0.00059114
468.354	0.00063639
468.563	0.00062667
468.772	0.00061622
468.982	0.00058536
469.191	0.00054635
469.4	0.00060032
469.609	0.00068145
469.818	0.00070299
470.027	0.00062799
470.236	0.00072103
470.445	0.00083291
470.654	0.00076477
470.863	0.0007292
471.072	0.00064588
471.28	0.00070949
471.489	0.00081006
471.698	0.00077572
471.907	0.00074775
472.116	0.0008184
472.325	0.00093094
472.534	0.00101099
472.743	0.00097754
472.951	0.00102471
473.16	0.00109673
473.369	0.00097347
473.578	0.00092998
473.786	0.00087625
473.995	0.00088296
474.204	0.00097499
474.413	0.0009541
474.621	0.00090433
474.83	0.00095597
475.039	0.00095539
475.247	0.0009476
475.456	0.0008864
475.665	0.00079495
475.873	0.00080514
476.082	0.00084911
476.291	0.00086794
476.499	0.00088993
476.708	0.00090299
476.916	0.00098954
477.125	0.00105913
477.333	0.00111509
477.542	0.00106253
477.75	0.00103151
477.959	0.00109789
478.167	0.00119376
478.376	0.00112983
478.584	0.00109113
478.793	0.00101318
479.001	0.00096621
479.209	0.00097776
479.418	0.00097778
479.626	0.00088578
479.834	0.00092922
480.043	0.00099748
480.251	0.00098036
480.459	0.00111982
480.668	0.0011918
480.876	0.001109
481.084	0.00116802
481.293	0.0011504
481.501	0.00113583
481.709	0.00118249
481.917	0.00119366
482.125	0.00119069
482.334	0.00123437
482.542	0.00121656
482.75	0.00127322
482.958	0.0012837
483.166	0.00131222
483.374	0.00129818
483.583	0.00130534
483.791	0.00138653
483.999	0.00137767
484.207	0.001367
484.415	0.00140304
484.623	0.00139363
484.831	0.00143894
485.039	0.00152042
485.247	0.00146002
485.455	0.00150697
485.663	0.00156086
485.871	0.0015527
486.079	0.00153672
486.287	0.00152755
486.495	0.00147643
486.702	0.00148745
486.91	0.00150053
487.118	0.00153262
487.326	0.00159054
487.534	0.0016745
487.742	0.0016663
487.95	0.00176739
488.157	0.00182223
488.365	0.00178786
488.573	0.00178656
488.781	0.00179709
488.988	0.00180147
489.196	0.00187209
489.404	0.00185179
489.612	0.00191726
489.819	0.00201053
490.027	0.00198528
490.235	0.00196392
490.442	0.00197475
490.65	0.00199327
490.857	0.00200737
491.065	0.00201155
491.273	0.00197765
491.48	0.00200431
491.688	0.00207263
491.895	0.00215701
492.103	0.00212224
492.31	0.00212832
492.518	0.00213887
492.725	0.00223903
492.933	0.00229975
493.14	0.00234517
493.348	0.00239686
493.555	0.00245046
493.763	0.00245799
493.97	0.00250973
494.177	0.00248899
494.385	0.00251591
494.592	0.00250029
494.8	0.00242616
495.007	0.00249392
495.214	0.00252473
495.422	0.00245283
495.629	0.00245669
495.836	0.0025387
496.043	0.00256206
496.251	0.00262532
496.458	0.00266758
496.665	0.00267987
496.872	0.00279389
497.08	0.00285258
497.287	0.00280007
497.494	0.00279672
497.701	0.00282722
497.908	0.00280573
498.115	0.00284552
498.322	0.00283143
498.53	0.00285391
498.737	0.00292287
498.944	0.00298424
499.151	0.00304263
499.358	0.00310309
499.565	0.00313604
499.772	0.00318028
499.979	0.00322037
500.186	0.00322115
500.393	0.00324382
500.6	0.00323743
500.807	0.00328242
501.014	0.00329789
501.221	0.0033274
501.427	0.00335333
501.634	0.00341636
501.841	0.0034895
502.048	0.00353629
502.255	0.00353071
502.462	0.00358207
502.669	0.0036339
502.875	0.00363431
503.082	0.00367439
503.289	0.00366697
503.496	0.00365276
503.702	0.00368231
503.909	0.00372819
504.116	0.00374982
504.323	0.00383019
504.529	0.00380416
504.736	0.00384208
504.943	0.00392798
505.149	0.00398534
505.356	0.00404238
505.563	0.00413479
505.769	0.00419878
505.976	0.00428389
506.182	0.00431416
506.389	0.00437048
506.595	0.00442025
506.802	0.00445688
507.008	0.00444625
507.215	0.00444173
507.421	0.00446973
507.628	0.00450157
507.834	0.00455051
508.041	0.00460233
508.247	0.00460762
508.454	0.00466104
508.66	0.00468755
508.866	0.00469228
509.073	0.00477567
509.279	0.00476282
509.486	0.00474301
509.692	0.00478788
509.898	0.00483556
510.105	0.00493716
510.311	0.00502226
510.517	0.00498922
510.723	0.00496829
510.93	0.00501676
511.136	0.00510349
511.342	0.00515478
511.548	0.00519843
511.754	0.00521946
511.961	0.00528295
512.167	0.00541296
512.373	0.00546381
512.579	0.0054862
512.785	0.00554399
512.991	0.00554734
513.197	0.00563289
513.404	0.00576973
513.61	0.00583977
513.816	0.0059104
514.022	0.00599505
514.228	0.0060235
514.434	0.00609803
514.64	0.00613037
514.846	0.00607526
515.052	0.00605952
515.258	0.00612802
515.464	0.00613971
515.669	0.00617397
515.875	0.00620087
516.081	0.00624796
516.287	0.00635356
516.493	0.00648614
516.699	0.00652995
516.905	0.00658105
517.111	0.00661699
517.316	0.00668775
517.522	0.0066884
517.728	0.00673416
517.934	0.00677977
518.139	0.00679636
518.345	0.00685035
518.551	0.0069415
518.757	0.006954
518.962	0.00705669
519.168	0.00712078
519.374	0.00713628
519.579	0.00719432
519.785	0.0072944
519.991	0.00732398
520.196	0.00744685
520.402	0.00749934
520.607	0.00758731
520.813	0.00767543
521.018	0.00773684
521.224	0.00782553
521.429	0.00790544
521.635	0.00796319
521.84	0.00804854
522.046	0.00809212
522.251	0.00815847
522.457	0.00822439
522.662	0.00822804
522.868	0.00829718
523.073	0.00835236
523.279	0.00840358
523.484	0.00844488
523.689	0.0085028
523.895	0.00856112
524.1	0.00864465
524.305	0.00873772
524.511	0.00883194
524.716	0.00894392
524.921	0.00906352
525.126	0.00908437
525.332	0.00918465
525.537	0.00927696
525.742	0.00939236
525.947	0.00945166
526.153	0.00948367
526.358	0.00953258
526.563	0.00966354
526.768	0.00975157
526.973	0.00978655
527.178	0.00977554
527.383	0.00984547
527.588	0.00991468
527.794	0.01000888
527.999	0.01001356
528.204	0.01008157
528.409	0.01016306
528.614	0.01027054
528.819	0.01029962
529.024	0.01034266
529.229	0.01038423
529.434	0.01052469
529.639	0.01058358
529.843	0.0106688
530.048	0.01071848
530.253	0.01085536
530.458	0.01099981
530.663	0.01110832
530.868	0.01119183
531.073	0.01126223
531.278	0.01135012
531.482	0.01144961
531.687	0.01153988
531.892	0.01164823
532.097	0.01168377
532.302	0.01181495
532.506	0.01191935
532.711	0.01199505
532.916	0.01209892
533.12	0.01211111
533.325	0.01210312
533.53	0.01224069
533.734	0.01224586
533.939	0.01234727
534.144	0.01243734
534.348	0.01249988
534.553	0.01260571
534.757	0.01275152
534.962	0.01284136
535.167	0.01296194
535.371	0.01308079
535.576	0.0131789
535.78	0.01330091
535.985	0.0134313
536.189	0.0134972
536.394	0.01360417
536.598	0.01374165
536.803	0.01379961
537.007	0.01390542
537.211	0.01397357
537.416	0.01407235
537.62	0.01420657
537.825	0.01429105
538.029	0.01437602
538.233	0.01446359
538.438	0.01455597
538.642	0.01468847
538.846	0.01473945
539.05	0.01485009
539.255	0.01493337
539.459	0.01499589
539.663	0.01514774
539.867	0.01525845
540.072	0.01537963
540.276	0.01551479
540.48	0.01560838
540.684	0.01576862
540.888	0.01591814
541.092	0.01604038
541.297	0.01616129
541.501	0.01623321
541.705	0.01635561
541.909	0.01647855
542.113	0.01660051
542.317	0.01672497
542.521	0.01681741
542.725	0.01694948
542.929	0.01710371
543.133	0.01723318
543.337	0.01733447
543.541	0.01740399
543.745	0.01752592
543.949	0.01766384
544.153	0.01778788
544.357	0.01788039
544.56	0.0180347
544.764	0.01817528
544.968	0.01826328
545.172	0.01836754
545.376	0.01846622
545.58	0.01856102
545.783	0.01869011
545.987	0.01878848
546.191	0.01891342
546.395	0.01913852
546.598	0.01927469
546.802	0.01940424
547.006	0.01954854
547.21	0.01970602
547.413	0.01987892
547.617	0.02003592
547.821	0.02010811
548.024	0.02023716
548.228	0.02038384
548.431	0.02051679
548.635	0.02062209
548.839	0.02075366
549.042	0.02087651
549.246	0.0210357
549.449	0.02113602
549.653	0.02123161
549.856	0.02140526
550.06	0.02157968
550.263	0.0217058
550.467	0.02182107
550.67	0.0219244
550.874	0.02210734
551.077	0.02229671
551.28	0.02242211
551.484	0.022579
551.687	0.02272436
551.891	0.02294954
552.094	0.02313595
552.297	0.02329113
552.501	0.02339795
552.704	0.02350357
552.907	0.02362289
553.11	0.02376352
553.314	0.02389666
553.517	0.02405836
553.72	0.02425697
553.923	0.02449826
554.127	0.02472765
554.33	0.02490442
554.533	0.02503299
554.736	0.02517176
554.939	0.02533324
555.142	0.02547839
555.345	0.02558976
555.549	0.02570983
555.752	0.02582909
555.955	0.02604387
556.158	0.02621075
556.361	0.02636861
556.564	0.02649935
556.767	0.02668456
556.97	0.02689291
557.173	0.02709058
557.376	0.02727764
557.579	0.02745143
557.782	0.02762794
557.984	0.02780882
558.187	0.02801737
558.39	0.02816825
558.593	0.02833928
558.796	0.02848092
558.999	0.02859774
559.202	0.02879948
559.404	0.02895244
559.607	0.02906529
559.81	0.02923163
560.013	0.02942563
560.216	0.02961856
560.418	0.02982657
560.621	0.02997212
560.824	0.03015091
561.026	0.03037278
561.229	0.03052572
561.432	0.03069348
561.634	0.03084869
561.837	0.0310233
562.04	0.03118279
562.242	0.03133958
562.445	0.03149551
562.647	0.03169034
562.85	0.03185525
563.053	0.03205043
563.255	0.03225354
563.458	0.03245998
563.66	0.03267668
563.863	0.03287574
564.065	0.0330771
564.268	0.0333171
564.47	0.0335298
564.672	0.03370999
564.875	0.03390146
565.077	0.03408476
565.28	0.03428562
565.482	0.03452139
565.684	0.03468426
565.887	0.03484621
566.089	0.03505626
566.291	0.03524778
566.494	0.03545807
566.696	0.03563231
566.898	0.03579881
567.1	0.03598403
567.303	0.03620937
567.505	0.03639054
567.707	0.0365847
567.909	0.0368161
568.111	0.03703391
568.314	0.03725442
568.516	0.03751401
568.718	0.03773348
568.92	0.03795207
569.122	0.03814147
569.324	0.03836592
569.526	0.03856534
569.728	0.03876476
569.93	0.03892366
570.132	0.0391148
570.334	0.03933085
570.536	0.03954647
570.738	0.03971953
570.94	0.03993139
571.142	0.04017253
571.344	0.04038235
571.546	0.04056179
571.748	0.04079244
571.95	0.04102643
572.152	0.04127594
572.354	0.04151273
572.555	0.04168884
572.757	0.04191834
572.959	0.04213051
573.161	0.0423326
573.363	0.04252171
573.564	0.04273274
573.766	0.04290643
573.968	0.04313892
574.17	0.04331298
574.371	0.04349281
574.573	0.04367868
574.775	0.04391243
574.976	0.04409613
575.178	0.04433092
575.38	0.04450334
575.581	0.04474345
575.783	0.04502534
575.985	0.04528994
576.186	0.04551312
576.388	0.04576098
576.589	0.04596262
576.791	0.04623152
576.992	0.04646696
577.194	0.04669754
577.395	0.0469728
577.597	0.04729546
577.798	0.04751438
578	0.04776625
578.201	0.04799053
578.402	0.04824098
578.604	0.04847257
578.805	0.04867339
579.007	0.04886107
579.208	0.04911221
579.409	0.04925753
579.611	0.049496
579.812	0.04972129
580.013	0.04997238
580.215	0.05012362
580.416	0.05032769
580.617	0.05049724
580.818	0.05077701
581.019	0.05095958
581.221	0.05116521
581.422	0.05136609
581.623	0.05169041
581.824	0.05190642
582.025	0.05226078
582.226	0.0525428
582.428	0.05289665
582.629	0.05313435
582.83	0.05341019
583.031	0.05358595
583.232	0.05385985
583.433	0.05406756
583.634	0.05430374
583.835	0.05445808
584.036	0.05469567
584.237	0.05487242
584.438	0.05512507
584.639	0.05532775
584.84	0.05551742
585.041	0.0557434
585.242	0.05595712
585.442	0.05619587
585.643	0.0565137
585.844	0.05675353
586.045	0.05697173
586.246	0.05719382
586.447	0.05743181
586.647	0.05772381
586.848	0.05801612
587.049	0.05820617
587.25	0.05839289
587.45	0.05862592
587.651	0.05884398
587.852	0.0590587
588.053	0.05933749
588.253	0.05958627
588.454	0.05987194
588.655	0.06019637
588.855	0.06051077
589.056	0.06081668
589.256	0.06109902
589.457	0.0613207
589.658	0.06154667
589.858	0.0617454
590.059	0.06199426
590.259	0.06217948
590.46	0.06244167
590.66	0.06265958
590.861	0.06288844
591.061	0.06313213
591.262	0.06344285
591.462	0.06369648
591.662	0.0639728
591.863	0.06418662
592.063	0.06450249
592.264	0.06479051
592.464	0.06503772
592.664	0.06526428
592.865	0.06553696
593.065	0.06578115
593.265	0.06606584
593.465	0.06627681
593.666	0.06649977
593.866	0.06674167
594.066	0.06700648
594.266	0.06718462
594.467	0.06739704
594.667	0.06757441
594.867	0.06784942
595.067	0.06802592
595.267	0.06825807
595.467	0.0684639
595.668	0.06874446
595.868	0.06904443
596.068	0.06932151
596.268	0.06953154
596.468	0.06983748
596.668	0.07010983
596.868	0.07038154
597.068	0.07055649
597.268	0.07077636
597.468	0.07100227
597.668	0.07123409
597.868	0.07144044
598.068	0.07165385
598.268	0.07185295
598.467	0.07214865
598.667	0.07237965
598.867	0.07263173
599.067	0.07286992
599.267	0.07311905
599.467	0.07334934
599.667	0.07357581
599.866	0.07379837
600.066	0.07406119
600.266	0.07428189
600.466	0.07451948
600.665	0.07473886
600.865	0.0749919
601.065	0.07526108
601.264	0.07549011
601.464	0.07569612
601.664	0.07594468
601.863	0.07619187
602.063	0.0764068
602.263	0.076544
602.462	0.07678179
602.662	0.07701604
602.861	0.07729465
603.061	0.07753696
603.26	0.07778201
603.46	0.07801888
603.659	0.07831483
603.859	0.07848604
604.058	0.07867908
604.258	0.07889449
604.457	0.07916552
604.657	0.07933523
604.856	0.07953433
605.056	0.07980819
605.255	0.08002368
605.454	0.08029327
605.654	0.08045937
605.853	0.08063996
606.052	0.08091078
606.252	0.08121852
606.451	0.0814193
606.65	0.08169576
606.849	0.08182177
607.049	0.08206693
607.248	0.08229249
607.447	0.08251292
607.646	0.08270116
607.845	0.08293556
608.045	0.08310876
608.244	0.08348184
608.443	0.08370714
608.642	0.08391964
608.841	0.08405915
609.04	0.08419337
609.239	0.08437515
609.438	0.0845173
609.637	0.08469219
609.836	0.08489827
610.035	0.08509881
610.234	0.08538738
610.433	0.08567407
610.632	0.08584097
610.831	0.08619918
611.03	0.08638494
611.229	0.08669286
611.428	0.08693868
611.627	0.08713867
611.826	0.08738946
612.025	0.08773881
612.224	0.08790257
612.422	0.08811558
612.621	0.08831569
612.82	0.08852505
613.019	0.08874132
613.218	0.08894534
613.416	0.08909415
613.615	0.08932514
613.814	0.08958716
614.012	0.08976274
614.211	0.08993076
614.41	0.09020463
614.608	0.09039994
614.807	0.09058447
615.006	0.09082304
615.204	0.09100792
615.403	0.09120544
615.602	0.09144401
615.8	0.09168439
615.999	0.0918663
616.197	0.09208279
616.396	0.09231956
616.594	0.09245933
616.793	0.09269394
616.991	0.09291272
617.19	0.09295751
617.388	0.0932337
617.586	0.0934543
617.785	0.09361537
617.983	0.09385273
618.182	0.09399329
618.38	0.09411546
618.578	0.09439678
618.777	0.09459059
618.975	0.09480699
619.173	0.09501418
619.372	0.0952266
619.57	0.09538847
619.768	0.09562154
619.966	0.09584975
620.165	0.09600968
620.363	0.09621982
620.561	0.09633174
620.759	0.09655675
620.957	0.09688364
621.155	0.09718584
621.354	0.09731397
621.552	0.09759739
621.75	0.09777436
621.948	0.09808478
622.146	0.09828248
622.344	0.0984216
622.542	0.09855671
622.74	0.09881181
622.938	0.09887125
623.136	0.09913416
623.334	0.0993453
623.532	0.0994499
623.73	0.09959135
623.928	0.09980855
624.126	0.09998205
624.324	0.1002993
624.522	0.10038958
624.719	0.10054152
624.917	0.10084428
625.115	0.10101575
625.313	0.10121773
625.511	0.10146729
625.708	0.10149256
625.906	0.10166391
626.104	0.10181646
626.302	0.10204733
626.499	0.10232885
626.697	0.10248297
626.895	0.10257386
627.093	0.10284742
627.29	0.10310391
627.488	0.10333828
627.686	0.10346933
627.883	0.10359442
628.081	0.10375812
628.278	0.10412936
628.476	0.10431073
628.673	0.10453565
628.871	0.10470136
629.068	0.10488715
629.266	0.10517239
629.463	0.10529093
629.661	0.10537209
629.858	0.10548644
630.056	0.10563713
630.253	0.10581408
630.451	0.10604355
630.648	0.10618701
630.845	0.1064037
631.043	0.1065724
631.24	0.10687466
631.438	0.10706667
631.635	0.10726958
631.832	0.10735802
632.029	0.10753787
632.227	0.10777655
632.424	0.10796096
632.621	0.10810536
632.818	0.10822955
633.016	0.10837585
633.213	0.10852267
633.41	0.10873896
633.607	0.10889403
633.804	0.10908367
634.001	0.10919469
634.199	0.10947789
634.396	0.10973273
634.593	0.10989385
634.79	0.11010306
634.987	0.11037355
635.184	0.11060295
635.381	0.11088015
635.578	0.11106176
635.775	0.11113927
635.972	0.11137371
636.169	0.11150234
636.366	0.11153912
636.563	0.11164071
636.76	0.11173641
636.957	0.11187623
637.153	0.11198876
637.35	0.11218874
637.547	0.11232438
637.744	0.11254472
637.941	0.11271229
638.138	0.11295047
638.334	0.11307999
638.531	0.11342221
638.728	0.11358271
638.925	0.11387057
639.121	0.11405943
639.318	0.11425692
639.515	0.11438141
639.711	0.11461122
639.908	0.11465044
640.105	0.11487353
640.301	0.11496082
640.498	0.11508453
640.695	0.11527573
640.891	0.11545851
641.088	0.11558605
641.284	0.1158265
641.481	0.11588291
641.677	0.1159849
641.874	0.11610792
642.07	0.11625978
642.267	0.11649552
642.463	0.11664022
642.66	0.11688259
642.856	0.11710714
643.053	0.11725419
643.249	0.11753756
643.445	0.11769369
643.642	0.11781838
643.838	0.11801823
644.034	0.11808472
644.231	0.11822168
644.427	0.11847954
644.623	0.11861782
644.82	0.11879514
645.016	0.11895321
645.212	0.11907845
645.408	0.1192887
645.604	0.11960337
645.801	0.11975082
645.997	0.11992475
646.193	0.12006185
646.389	0.1202722
646.585	0.12043744
646.781	0.12063478
646.977	0.12071512
647.173	0.12087368
647.37	0.12095881
647.566	0.12117091
647.762	0.12127475
647.958	0.12147841
648.154	0.12160347
648.35	0.12177644
648.546	0.12196272
648.742	0.12232452
648.937	0.12241247
649.133	0.1226634
649.329	0.12292739
649.525	0.12310947
649.721	0.12325368
649.917	0.12343562
650.113	0.12342627
650.309	0.12367249
650.504	0.12371355
650.7	0.12376267
650.896	0.12393642
651.092	0.12404008
651.287	0.12412993
651.483	0.12439008
651.679	0.1244969
651.875	0.1247526
652.07	0.1249033
652.266	0.12505336
652.462	0.12524473
652.657	0.12543691
652.853	0.12551528
653.048	0.12564425
653.244	0.12573195
653.44	0.12591919
653.635	0.12597863
653.831	0.12619729
654.026	0.12642799
654.222	0.12662723
654.417	0.12689333
654.613	0.12707592
654.808	0.12723137
655.004	0.12748603
655.199	0.12756214
655.394	0.12763583
655.59	0.12784177
655.785	0.12793153
655.98	0.12813076
656.176	0.12825909
656.371	0.12850557
656.566	0.12873496
656.762	0.12890598
656.957	0.12907987
657.152	0.12923403
657.348	0.1293884
657.543	0.12961438
657.738	0.12978367
657.933	0.12990728
658.128	0.13005886
658.324	0.130125
658.519	0.13032956
658.714	0.13050524
658.909	0.13061286
659.104	0.13071233
659.299	0.13091671
659.494	0.13112866
659.689	0.13140202
659.884	0.13158222
660.079	0.13173911
660.274	0.13197529
660.469	0.13219484
660.664	0.13239667
660.859	0.13254853
661.054	0.13263098
661.249	0.13279993
661.444	0.13298096
661.639	0.13306661
661.834	0.13316225
662.029	0.13332112
662.224	0.13349321
662.418	0.13371054
662.613	0.13387015
662.808	0.13395133
663.003	0.13415679
663.198	0.1343188
663.392	0.13446028
663.587	0.13470389
663.782	0.13479402
663.977	0.13492272
664.171	0.13517558
664.366	0.13538398
664.561	0.13557944
664.755	0.13579523
664.95	0.1358696
665.144	0.13607591
665.339	0.13627587
665.534	0.1364195
665.728	0.13653775
665.923	0.13669787
666.117	0.1368146
666.312	0.13701057
666.506	0.1373079
666.701	0.13746677
666.895	0.13765542
667.09	0.13786181
667.284	0.13806965
667.479	0.13823425
667.673	0.13837589
667.867	0.13851062
668.062	0.13863444
668.256	0.13878523
668.45	0.13901536
668.645	0.13915918
668.839	0.13937456
669.033	0.13957443
669.228	0.13967642
669.422	0.13990979
669.616	0.14011021
669.81	0.14026088
670.004	0.1403906
670.199	0.14052998
670.393	0.14066135
670.587	0.14087301
670.781	0.14108045
670.975	0.14134017
671.169	0.14149044
671.363	0.14173793
671.558	0.14193324
671.752	0.14221419
671.946	0.14243622
672.14	0.14258805
672.334	0.14265043
672.528	0.14287608
672.722	0.14293634
672.916	0.14311715
673.11	0.14317331
673.304	0.14336636
673.497	0.14350996
673.691	0.1437464
673.885	0.14383993
674.079	0.14412718
674.273	0.14425334
674.467	0.14453369
674.661	0.14467138
674.854	0.14488248
675.048	0.14510016
675.242	0.14537445
675.436	0.14560492
675.629	0.14590553
675.823	0.1460581
676.017	0.14627441
676.211	0.14643857
676.404	0.14663032
676.598	0.14682704
676.792	0.14697111
676.985	0.14718326
677.179	0.14739175
677.372	0.14758365
677.566	0.14788575
677.76	0.14804166
677.953	0.1482138
678.147	0.14844636
678.34	0.14865086
678.534	0.14883485
678.727	0.1490433
678.921	0.14927666
679.114	0.14943193
679.307	0.14966257
679.501	0.14992909
679.694	0.15008671
679.888	0.15034196
680.081	0.15060557
680.274	0.15072192
680.468	0.15099605
680.661	0.15115031
680.854	0.15137279
681.048	0.15160828
681.241	0.15178077
681.434	0.15188681
681.627	0.15212798
681.821	0.15232465
682.014	0.15264389
682.207	0.15277625
682.4	0.15300924
682.593	0.15324166
682.786	0.1534529
682.98	0.15360074
683.173	0.15386073
683.366	0.1540043
683.559	0.15424522
683.752	0.1544447
683.945	0.15469214
684.138	0.15494677
684.331	0.15515482
684.524	0.15539698
684.717	0.155601
684.91	0.15583489
685.103	0.15604131
685.296	0.15629862
685.489	0.15652059
685.682	0.15675126
685.874	0.15695215
686.067	0.15715563
686.26	0.15731794
686.453	0.15745195
686.646	0.15755728
686.839	0.15777203
687.031	0.15800509
687.224	0.15808439
687.417	0.15835764
687.61	0.15853896
687.802	0.15878241
687.995	0.15907954
688.188	0.1592996
688.38	0.15952483
688.573	0.159808
688.766	0.15994703
688.958	0.16008767
689.151	0.16027923
689.343	0.16045798
689.536	0.16063943
689.729	0.16081637
689.921	0.16109142
690.114	0.16128405
690.306	0.16158203
690.499	0.16186051
690.691	0.162104
690.884	0.16233763
691.076	0.16264373
691.268	0.16282166
691.461	0.16296847
691.653	0.16325894
691.846	0.16351193
692.038	0.16371301
692.23	0.16388101
692.423	0.16406965
692.615	0.16426814
692.807	0.16456713
692.999	0.16473424
693.192	0.16479746
693.384	0.16500651
693.576	0.1651746
693.768	0.16537842
693.961	0.16559818
694.153	0.16586141
694.345	0.16603904
694.537	0.16635526
694.729	0.16658266
694.921	0.16684008
695.113	0.16708697
695.305	0.16732818
695.498	0.16748497
695.69	0.16777052
695.882	0.16792518
696.074	0.16815419
696.266	0.16840229
696.458	0.16860046
696.65	0.16877621
696.842	0.16900577
697.033	0.16916638
697.225	0.16941635
697.417	0.16964006
697.609	0.16986559
697.801	0.17007402
697.993	0.17036458
698.185	0.17063364
698.376	0.17091354
698.568	0.17115023
698.76	0.1713873
698.952	0.17162489
699.144	0.17181785
699.335	0.17203677
699.527	0.17227388
699.719	0.17245602
699.91	0.17277447
700.102	0.17294114
700.294	0.17318733
700.485	0.17344228
700.677	0.17364488
700.869	0.17386128
701.06	0.17416474
701.252	0.17428391
701.443	0.17456568
701.635	0.17477687
701.826	0.17503265
702.018	0.17524061
702.209	0.17548603
702.401	0.17564498
702.592	0.17594207
702.784	0.17612466
702.975	0.17634769
703.166	0.17658747
703.358	0.17680669
703.549	0.17703022
703.741	0.17725326
703.932	0.17742963
704.123	0.17763241
704.315	0.17788697
704.506	0.17816534
704.697	0.17841383
704.888	0.17865425
705.08	0.17890901
705.271	0.1791779
705.462	0.17942365
705.653	0.17964578
705.844	0.17981559
706.035	0.18005628
706.227	0.18023151
706.418	0.18042892
706.609	0.18059641
706.8	0.18084949
706.991	0.18102472
707.182	0.18123687
707.373	0.18142617
707.564	0.18168819
707.755	0.18197487
707.946	0.18228182
708.137	0.18249561
708.328	0.18276697
708.519	0.18306072
708.71	0.18337551
708.901	0.18357525
709.092	0.18383086
709.283	0.18400071
709.473	0.1842213
709.664	0.18450265
709.855	0.18463311
710.046	0.18484928
710.237	0.18510584
710.427	0.18528289
710.618	0.18559784
710.809	0.18582092
711	0.18604054
711.19	0.18627444
711.381	0.18653416
711.572	0.18674658
711.762	0.18701154
711.953	0.1871857
712.144	0.1873948
712.334	0.1875885
712.525	0.18793511
712.715	0.18816777
712.906	0.18842368
713.097	0.18858939
713.287	0.18883814
713.478	0.18909703
713.668	0.18929807
713.859	0.18939687
714.049	0.18958194
714.239	0.18981337
714.43	0.19009036
714.62	0.19027448
714.811	0.19053426
715.001	0.19079014
715.191	0.19110337
715.382	0.19130294
715.572	0.19158358
715.762	0.19179179
715.953	0.19213959
716.143	0.19241263
716.333	0.19267417
716.523	0.19288886
716.714	0.19317237
716.904	0.19333718
717.094	0.19361575
717.284	0.19374469
717.474	0.19393131
717.664	0.19416446
717.855	0.19439164
718.045	0.1945778
718.235	0.19480608
718.425	0.19503255
718.615	0.19529237
718.805	0.1955655
718.995	0.19578114
719.185	0.19602451
719.375	0.1963418
719.565	0.19660567
719.755	0.19685506
719.945	0.19706337
720.135	0.19730333
720.325	0.19757134
720.515	0.19781891
720.704	0.19801206
720.894	0.19827036
721.084	0.19847322
721.274	0.19879783
721.464	0.19910272
721.654	0.19938309
721.843	0.1996669
722.033	0.19997073
722.223	0.20022481
722.413	0.20048947
722.602	0.20068526
722.792	0.20084554
722.982	0.20099308
723.171	0.20121174
723.361	0.20138542
723.55	0.20162154
723.74	0.20180063
723.93	0.20203803
724.119	0.2022662
724.309	0.20252756
724.498	0.20266919
724.688	0.20288007
724.877	0.20303823
725.067	0.20330184
725.256	0.20348261
725.446	0.20373502
725.635	0.2039041
725.825	0.20409012
726.014	0.20424427
726.203	0.20442326
726.393	0.20453162
726.582	0.20469004
726.771	0.20479761
726.961	0.20495668
727.15	0.20511586
727.339	0.20528547
727.529	0.20544739
727.718	0.20560961
727.907	0.20576812
728.096	0.20595034
728.286	0.20606492
728.475	0.20632417
728.664	0.20651507
728.853	0.20667392
729.042	0.2068357
729.231	0.20701649
729.42	0.20716418
729.609	0.20742684
729.799	0.20751841
729.988	0.20767599
730.177	0.20784409
730.366	0.20806138
730.555	0.20821921
730.744	0.20840871
730.933	0.20857196
731.122	0.20871091
731.31	0.20887834
731.499	0.20899139
731.688	0.20913104
731.877	0.20924047
732.066	0.20936852
732.255	0.20949107
732.444	0.20965718
732.632	0.20974873
732.821	0.20996014
733.01	0.21015201
733.199	0.21034787
733.388	0.21050795
733.576	0.21062268
733.765	0.21078596
733.954	0.21100405
734.142	0.21115261
734.331	0.21126368
734.52	0.21146004
734.708	0.21159687
734.897	0.21174924
735.086	0.21183194
735.274	0.21187
735.463	0.21198716
735.651	0.21207047
735.84	0.21218338
736.028	0.21236186
736.217	0.21258472
736.405	0.21277182
736.594	0.21297198
736.782	0.21310544
736.971	0.21327118
737.159	0.21340358
737.347	0.21349932
737.536	0.21352175
737.724	0.21367543
737.912	0.21384481
738.101	0.21405075
738.289	0.21425643
738.477	0.2144354
738.666	0.21461869
738.854	0.21476594
739.042	0.21491651
739.23	0.2150021
739.418	0.21506572
739.607	0.21515326
739.795	0.21521629
739.983	0.21531256
740.171	0.21546998
740.359	0.21557482
740.547	0.21569344
740.735	0.21585509
740.923	0.21600118
741.112	0.21612955
741.3	0.21632757
741.488	0.21651262
741.676	0.2167405
741.864	0.21693788
742.052	0.21711597
742.239	0.21722054
742.427	0.21735199
742.615	0.21729753
742.803	0.21730603
742.991	0.21731169
743.179	0.21743452
743.367	0.21753291
743.555	0.2177047
743.742	0.217862
743.93	0.21812049
744.118	0.21827876
744.306	0.21841931
744.494	0.21848362
744.681	0.21858838
744.869	0.21861313
745.057	0.21862698
745.244	0.21867686
745.432	0.21878035
745.62	0.21893355
745.807	0.2190529
745.995	0.21907756
746.182	0.21915358
746.37	0.21928243
746.558	0.2193408
746.745	0.21940469
746.933	0.21953291
747.12	0.21958904
747.308	0.21977701
747.495	0.21992546
747.683	0.22000804
747.87	0.22013046
748.057	0.22032566
748.245	0.22035883
748.432	0.22043958
748.62	0.22041423
748.807	0.22049884
748.994	0.22062884
749.182	0.22075156
749.369	0.22077437
749.556	0.22084875
749.743	0.22095898
749.931	0.22109781
750.118	0.22119975
750.305	0.22125478
750.492	0.22134179
750.68	0.22145299
750.867	0.22145353
751.054	0.22154511
751.241	0.22162556
751.428	0.22161097
751.615	0.22163088
751.802	0.22170533
751.989	0.22176676
752.176	0.22195955
752.363	0.22202027
752.55	0.22205257
752.737	0.22215211
752.924	0.22221897
753.111	0.22224368
753.298	0.22228024
753.485	0.22227087
753.672	0.22236208
753.859	0.22247954
754.046	0.22262985
754.233	0.22273822
754.42	0.22282245
754.606	0.22285193
754.793	0.2229358
754.98	0.22291587
755.167	0.2229193
755.353	0.22291038
755.54	0.22296248
755.727	0.22300199
755.914	0.22310233
756.1	0.22314797
756.287	0.22332281
756.474	0.22338563
756.66	0.2234899
756.847	0.22363132
757.033	0.22369426
757.22	0.22371486
757.407	0.22377829
757.593	0.22377701
757.78	0.22383979
757.966	0.22385683
758.153	0.22385308
758.339	0.22385298
758.526	0.22388823
758.712	0.2238534
758.898	0.22387379
759.085	0.22381023
759.271	0.22380072
759.458	0.22375553
759.644	0.22383613
759.83	0.22391378
760.017	0.22397838
760.203	0.22400664
760.389	0.22412998
760.576	0.2241933
760.762	0.22423624
760.948	0.22416788
761.134	0.22409505
761.32	0.22409401
761.507	0.22410288
761.693	0.22413335
761.879	0.22409218
762.065	0.22411497
762.251	0.22419558
762.437	0.2242931
762.623	0.22435414
762.809	0.22438416
762.995	0.22432211
763.181	0.22429392
763.367	0.22430533
763.553	0.22425182
763.739	0.22420477
763.925	0.22418557
764.111	0.22417391
764.297	0.22428423
764.483	0.22430992
764.669	0.2242076
764.855	0.22420686
765.041	0.22417718
765.227	0.22411373
765.412	0.22403517
765.598	0.22392404
765.784	0.22389281
765.97	0.22391582
766.156	0.22388998
766.341	0.22389822
766.527	0.22389018
766.713	0.22392656
766.898	0.22393976
767.084	0.22399618
767.27	0.22396319
767.455	0.22397629
767.641	0.22395208
767.827	0.22394621
768.012	0.22393031
768.198	0.22391816
768.383	0.22385403
768.569	0.22401255
768.754	0.22404169
768.94	0.22408559
769.125	0.22410658
769.311	0.2240471
769.496	0.22400233
769.682	0.22398981
769.867	0.22383485
770.052	0.22377159
770.238	0.22367083
770.423	0.22358726
770.608	0.22352581
770.794	0.22343778
770.979	0.2233804
771.164	0.22329454
771.35	0.22313966
771.535	0.22302342
771.72	0.22297666
771.905	0.22296328
772.09	0.22292363
772.276	0.22292196
772.461	0.22288183
772.646	0.22292671
772.831	0.22293622
773.016	0.22288599
773.201	0.222807
773.386	0.22277381
773.571	0.22263685
773.756	0.22258459
773.941	0.22248905
774.126	0.22246383
774.311	0.22234102
774.496	0.22229996
774.681	0.2221976
774.866	0.222143
775.051	0.22199415
775.236	0.22185363
775.421	0.22169725
775.606	0.22164701
775.791	0.22153048
775.976	0.22149824
776.16	0.22141212
776.345	0.22140006
776.53	0.22141695
776.715	0.2213715
776.899	0.22128824
777.084	0.22121662
777.269	0.22110907
777.454	0.22098409
777.638	0.22096746
777.823	0.22076785
778.008	0.22064555
778.192	0.22055665
778.377	0.22043401
778.561	0.22030199
778.746	0.2202102
778.931	0.22008741
779.115	0.22005522
779.3	0.21996382
779.484	0.21982003
779.669	0.21963726
779.853	0.21952093
780.037	0.21947128
780.222	0.2193059
780.406	0.2192451
780.591	0.21918254
780.775	0.21912999
780.959	0.21910756
781.144	0.21900437
781.328	0.21886246
781.512	0.21873323
781.697	0.21857879
781.881	0.21840975
782.065	0.21826819
782.249	0.2180755
782.434	0.21796852
782.618	0.21788041
782.802	0.21784717
782.986	0.21776082
783.17	0.21767204
783.354	0.21756643
783.539	0.21751705
783.723	0.2173963
783.907	0.21725829
784.091	0.21699735
784.275	0.21684674
784.459	0.21663217
784.643	0.21647065
784.827	0.2162932
785.011	0.21613978
785.195	0.21597807
785.379	0.2159299
785.563	0.2157943
785.747	0.21574444
785.93	0.21564
786.114	0.2154362
786.298	0.21525315
786.482	0.21502461
786.666	0.21482371
786.85	0.21464323
787.033	0.21450297
787.217	0.21432573
787.401	0.21423471
787.585	0.21413596
787.768	0.21411134
787.952	0.2139658
788.136	0.2138059
788.319	0.21360447
788.503	0.21342562
788.687	0.21328717
788.87	0.21309977
789.054	0.21287535
789.237	0.21263799
789.421	0.21242387
789.605	0.212195
789.788	0.21199022
789.972	0.21173316
790.155	0.21151532
790.338	0.21135544
790.522	0.21126581
790.705	0.21108802
790.889	0.21086143
791.072	0.21075141
791.256	0.2107018
791.439	0.21065292
791.622	0.21051218
791.806	0.21037291
791.989	0.21027019
792.172	0.2102368
792.355	0.21009155
792.539	0.20989496
792.722	0.2096667
792.905	0.20939913
793.088	0.20917947
793.271	0.2089805
793.455	0.20873214
793.638	0.20847492
793.821	0.20827463
794.004	0.20804311
794.187	0.20791679
794.37	0.20779888
794.553	0.20767431
794.736	0.20751782
794.919	0.20740016
795.102	0.207256
795.285	0.2070907
795.468	0.20687182
795.651	0.20661361
795.834	0.2063677
796.017	0.20620411
796.2	0.20602359
796.383	0.20579906
796.566	0.20561806
796.749	0.20542631
796.931	0.20521561
797.114	0.20486152
797.297	0.20455361
797.48	0.20421488
797.663	0.20405163
797.845	0.203859
798.028	0.2036676
798.211	0.20345674
798.393	0.20336984
798.576	0.20322758
798.759	0.20304184
798.941	0.20279623
799.124	0.202548
799.307	0.20230768
799.489	0.20220023
799.672	0.20203377
799.854	0.20186655
800.037	0.20170728
800.219	0.20153465
800.402	0.20135995
800.584	0.20120815
800.767	0.20093563
800.949	0.20070721
801.132	0.20048258
801.314	0.20023527
801.496	0.19993521
801.679	0.19962183
801.861	0.1993485
802.043	0.19905554
802.226	0.19876625
802.408	0.19859306
802.59	0.19843105
802.772	0.19832722
802.955	0.19829532
803.137	0.19810822
803.319	0.19795771
803.501	0.19777863
803.684	0.19747987
803.866	0.19723087
804.048	0.19690485
804.23	0.19658696
804.412	0.19633429
804.594	0.196079
804.776	0.19595117
804.958	0.19580038
805.14	0.19559406
805.322	0.19542997
805.504	0.19522229
805.686	0.19500406
805.868	0.19480294
806.05	0.19450971
806.232	0.19419035
806.414	0.19396519
806.596	0.19366991
806.778	0.19339885
806.96	0.19315109
807.141	0.19281533
807.323	0.1925805
807.505	0.19237334
807.687	0.19211181
807.869	0.1919021
808.05	0.19165563
808.232	0.19141813
808.414	0.1912675
808.595	0.19101653
808.777	0.19081223
808.959	0.19062637
809.14	0.19046721
809.322	0.19029139
809.504	0.19008081
809.685	0.18999457
809.867	0.18980242
810.048	0.18961166
810.23	0.18939096
810.411	0.18911456
810.593	0.18881472
810.774	0.18859551
810.956	0.1882322
811.137	0.18790404
811.319	0.18750655
811.5	0.1871631
811.681	0.18683364
811.863	0.18652682
812.044	0.18615962
812.225	0.18586522
812.407	0.18562709
812.588	0.18533825
812.769	0.18501484
812.951	0.18473327
813.132	0.1844794
813.313	0.18421395
813.494	0.18394039
813.675	0.1836377
813.857	0.18342303
814.038	0.18319491
814.219	0.18291949
814.4	0.18264815
814.581	0.18250288
814.762	0.18220142
814.943	0.18196402
815.124	0.18170839
815.305	0.18152146
815.486	0.18128043
815.667	0.18102332
815.848	0.1806467
816.029	0.18031065
816.21	0.18002
816.391	0.17969873
816.572	0.17930492
816.753	0.17908289
816.934	0.1788677
817.115	0.17864552
817.295	0.17837749
817.476	0.17797382
817.657	0.1777215
817.838	0.17747322
818.019	0.17705536
818.199	0.17657848
818.38	0.17618725
818.561	0.17588649
818.741	0.17562717
818.922	0.17526018
819.103	0.17495779
819.283	0.17481247
819.464	0.17470454
819.645	0.17452271
819.825	0.17430746
820.006	0.17407235
820.186	0.1738349
820.367	0.17356181
820.547	0.17318144
820.728	0.17281875
820.908	0.17251482
821.089	0.17227815
821.269	0.17206356
821.45	0.17183872
821.63	0.17154941
821.81	0.17134279
821.991	0.17115734
822.171	0.17087285
822.351	0.17056885
822.532	0.17026451
822.712	0.16993772
822.892	0.16964437
823.072	0.16930539
823.253	0.16896214
823.433	0.16870993
823.613	0.1684722
823.793	0.16822359
823.973	0.1679979
824.154	0.16778206
824.334	0.16753435
824.514	0.16723207
824.694	0.16690032
824.874	0.16651418
825.054	0.16613749
825.234	0.16581817
825.414	0.1653987
825.594	0.16495349
825.774	0.16463701
825.954	0.16427565
826.134	0.16388868
826.314	0.16354396
826.494	0.16322867
826.674	0.16292459
826.854	0.16269876
827.033	0.16243308
827.213	0.16219099
827.393	0.16197221
827.573	0.16177658
827.753	0.16148384
827.932	0.16131974
828.112	0.16105958
828.292	0.16084531
828.472	0.1605859
828.651	0.16035758
828.831	0.16005459
829.011	0.1597858
829.19	0.15950049
829.37	0.15922281
829.549	0.15880902
829.729	0.1584525
829.909	0.15814887
830.088	0.15782576
830.268	0.15743749
830.447	0.15704972
830.627	0.15677641
830.806	0.15652175
830.986	0.15625255
831.165	0.15601796
831.344	0.1557927
831.524	0.15554906
831.703	0.15524291
831.883	0.1547613
832.062	0.15437267
832.241	0.15400084
832.421	0.15354422
832.6	0.15314951
832.779	0.15279448
832.958	0.15256035
833.138	0.15235791
833.317	0.15213599
833.496	0.15188581
833.675	0.1516285
833.854	0.15130347
834.034	0.15101864
834.213	0.15063638
834.392	0.15028073
834.571	0.14989863
834.75	0.14954561
834.929	0.14915412
835.108	0.14887652
835.287	0.14854398
835.466	0.1481989
835.645	0.14786393
835.824	0.14752569
836.003	0.14717286
836.182	0.14691351
836.361	0.14667072
836.54	0.14635798
836.719	0.14614663
836.897	0.14593858
837.076	0.14570136
837.255	0.14541967
837.434	0.14507139
837.613	0.1447244
837.791	0.14447016
837.97	0.14419605
838.149	0.14389704
838.328	0.143651
838.506	0.14341921
838.685	0.14320579
838.864	0.14291616
839.042	0.14257152
839.221	0.14222671
839.4	0.14194265
839.578	0.14152294
839.757	0.14114596
839.935	0.14069355
840.114	0.14025707
840.292	0.14001854
840.471	0.139653
840.649	0.13932642
840.828	0.13918271
841.006	0.13907394
841.185	0.1389337
841.363	0.13877353
841.541	0.13842852
841.72	0.13818789
841.898	0.13783035
842.076	0.13745694
842.255	0.13697005
842.433	0.13662791
842.611	0.13623506
842.789	0.13583418
842.968	0.13548247
843.146	0.13518555
843.324	0.13482864
843.502	0.13455153
843.68	0.13426435
843.859	0.13393005
844.037	0.13373144
844.215	0.13341376
844.393	0.13308287
844.571	0.1327475
844.749	0.13240792
844.927	0.13198147
845.105	0.13164099
845.283	0.1312943
845.461	0.13103678
845.639	0.1307729
845.817	0.1304789
845.995	0.13024741
846.173	0.13011058
846.351	0.12987098
846.529	0.12962395
846.706	0.12927563
846.884	0.12897692
847.062	0.12873727
847.24	0.12833836
847.418	0.12789039
847.595	0.1275129
847.773	0.1271718
847.951	0.12683041
848.129	0.12645663
848.306	0.12608453
848.484	0.12585619
848.662	0.12564219
848.839	0.12546998
849.017	0.1252082
849.194	0.12503485
849.372	0.12486087
849.549	0.12451345
849.727	0.12416271
849.905	0.12375781
850.082	0.12332495
850.26	0.12285856
850.437	0.12247808
850.614	0.12209369
850.792	0.12190011
850.969	0.12162513
851.147	0.12131865
851.324	0.12110541
851.501	0.12088914
851.679	0.12057225
851.856	0.12025095
852.033	0.11985122
852.211	0.11952234
852.388	0.11916463
852.565	0.1187648
852.742	0.1183857
852.92	0.11799702
853.097	0.11764769
853.274	0.11736997
853.451	0.11700006
853.628	0.11677961
853.805	0.11657771
853.982	0.1163332
854.159	0.11608118
854.336	0.11580944
854.514	0.11543518
854.691	0.1151345
854.868	0.11481924
855.045	0.11446137
855.221	0.11421274
855.398	0.11392294
855.575	0.11358883
855.752	0.11335837
855.929	0.11315349
856.106	0.11294541
856.283	0.11271386
856.46	0.11249198
856.637	0.11225244
856.813	0.11200091
856.99	0.11170908
857.167	0.11146297
857.344	0.11118318
857.52	0.11084299
857.697	0.11046661
857.874	0.11015089
858.05	0.10988707
858.227	0.10957996
858.404	0.10922939
858.58	0.1089162
858.757	0.10865135
858.933	0.10835987
859.11	0.10803471
859.287	0.10761774
859.463	0.10723543
859.64	0.10690425
859.816	0.10647574
859.993	0.10617235
860.169	0.10585967
860.345	0.10551559
860.522	0.10533688
860.698	0.10512997
860.875	0.10489273
861.051	0.10470648
861.227	0.10434507
861.404	0.10402039
861.58	0.10379626
861.756	0.10356362
861.932	0.10336937
862.109	0.10306769
862.285	0.10276212
862.461	0.10257102
862.637	0.10238578
862.813	0.10221319
862.99	0.10186204
863.166	0.10143662
863.342	0.10127327
863.518	0.10102672
863.694	0.1008381
863.87	0.10048576
864.046	0.10004958
864.222	0.09987664
864.398	0.09971658
864.574	0.09936352
864.75	0.09912917
864.926	0.09870102
865.102	0.0985376
865.278	0.09818776
865.454	0.09783599
865.63	0.09751085
865.805	0.09717122
865.981	0.09680836
866.157	0.09663361
866.333	0.09634267
866.509	0.09637381
866.684	0.09606899
866.86	0.09583355
867.036	0.09566371
867.212	0.09552204
867.387	0.09526295
867.563	0.09507961
867.739	0.094772
867.914	0.09458525
868.09	0.09432905
868.265	0.09391861
868.441	0.09341541
868.617	0.09308995
868.792	0.09254088
868.968	0.09207279
869.143	0.09166877
869.319	0.09147657
869.494	0.09131377
869.67	0.09123756
869.845	0.09091796
870.02	0.09076943
870.196	0.09051813
870.371	0.09026611
870.546	0.08984192
870.722	0.08952383
870.897	0.08917378
871.072	0.08903618
871.248	0.08871461
871.423	0.08845486
871.598	0.08834476
871.773	0.08826597
871.949	0.08809518
872.124	0.08796129
872.299	0.08764001
872.474	0.08750335
872.649	0.08728403
872.824	0.08695225
872.999	0.08648417
873.174	0.08616732
873.349	0.0857536
873.524	0.08556313
873.699	0.08527633
873.874	0.08496692
874.049	0.08472656
874.224	0.08461958
874.399	0.08440304
874.574	0.08427281
874.749	0.08392869
874.924	0.08371294
875.099	0.08360678
875.274	0.08336012
875.449	0.08307421
875.623	0.08272724
875.798	0.08235184
875.973	0.0820291
876.148	0.08158818
876.322	0.08124799
876.497	0.08090205
876.672	0.08058449
876.846	0.08033142
877.021	0.08003735
877.196	0.0797231
877.37	0.0794934
877.545	0.07915914
877.72	0.0788596
877.894	0.07862969
878.069	0.07843099
878.243	0.07825447
878.418	0.07806055
878.592	0.07781426
878.767	0.07755512
878.941	0.07740647
879.116	0.07703329
879.29	0.07664643
879.464	0.0761914
879.639	0.07601204
879.813	0.07587958
879.987	0.07577227
880.162	0.07552076
880.336	0.07542206
880.51	0.07531378
880.685	0.07525117
880.859	0.07506091
881.033	0.07475016
881.207	0.07430904
881.381	0.07397513
881.556	0.07364539
881.73	0.07333761
881.904	0.07306482
882.078	0.07278097
882.252	0.07265283
882.426	0.07255404
882.6	0.0724357
882.774	0.07228313
882.948	0.07216226
883.122	0.07206021
883.296	0.0718969
883.47	0.07162834
883.644	0.07143201
883.818	0.07113053
883.992	0.07087884
884.166	0.07057669
884.34	0.07028374
884.514	0.0700117
884.687	0.06965136
884.861	0.06947413
885.035	0.06933644
885.209	0.06928242
885.382	0.06921554
885.556	0.0691707
885.73	0.06904706
885.904	0.06904746
886.077	0.06886619
886.251	0.06880358
886.425	0.06853533
886.598	0.06822944
886.772	0.06782925
886.945	0.06747838
887.119	0.06718678
887.292	0.06686783
887.466	0.06643114
887.64	0.06611225
887.813	0.06586181
887.986	0.06580186
888.16	0.06565022
888.333	0.06540315
888.507	0.06520163
888.68	0.06506797
888.854	0.06478709
889.027	0.06455989
889.2	0.06425277
889.374	0.06410471
889.547	0.06391417
889.72	0.06367072
889.893	0.0634733
890.067	0.06324323
890.24	0.0630713
890.413	0.06273304
890.586	0.06233963
890.759	0.06207098
890.933	0.06191842
891.106	0.06168881
891.279	0.06154977
891.452	0.06134996
891.625	0.06125935
891.798	0.0610992
891.971	0.06094003
892.144	0.06075363
892.317	0.06050811
892.49	0.06028712
892.663	0.06000126
892.836	0.05973368
893.009	0.05947522
893.182	0.05913515
893.355	0.0588934
893.527	0.05872231
893.7	0.05854996
893.873	0.05832304
894.046	0.05811242
894.219	0.05798604
894.391	0.05782854
894.564	0.05755776
894.737	0.05729759
894.91	0.05703512
895.082	0.05690517
895.255	0.05657197
895.428	0.05627428
895.6	0.05602355
895.773	0.05575331
895.945	0.05552068
896.118	0.05537399
896.291	0.05511781
896.463	0.0551118
896.636	0.05504159
896.808	0.05502034
896.981	0.05496146
897.153	0.0548028
897.326	0.05472478
897.498	0.0545725
897.67	0.05435781
897.843	0.05420087
898.015	0.05406472
898.187	0.05386033
898.36	0.05365325
898.532	0.05337839
898.704	0.05320963
898.877	0.0530438
899.049	0.05290509
899.221	0.0526882
899.393	0.05258986
899.566	0.05258589
899.738	0.05241773
899.91	0.05234838
900.082	0.05206729
900.254	0.05175397
900.426	0.05151411
900.598	0.0511504
900.77	0.05076627
900.942	0.05052265
901.114	0.05029711
901.286	0.05025049
901.458	0.0500973
901.63	0.04986626
901.802	0.04971914
901.974	0.04967221
902.146	0.04953816
902.318	0.04925378
902.49	0.04899405
902.662	0.04879634
902.834	0.04867476
903.005	0.04857218
903.177	0.04827667
903.349	0.04817255
903.521	0.04797929
903.693	0.04789269
903.864	0.04770771
904.036	0.04749985
904.208	0.04727684
904.379	0.0471711
904.551	0.04685535
904.723	0.04671155
904.894	0.04642797
905.066	0.04642705
905.237	0.04637692
905.409	0.04617473
905.58	0.04606422
905.752	0.04591882
905.923	0.04570573
906.095	0.04555625
906.266	0.045165
906.438	0.04492793
906.609	0.04471455
906.78	0.04437602
906.952	0.04424745
907.123	0.04416056
907.295	0.04402507
907.466	0.04389658
907.637	0.04380606
907.808	0.04385384
907.98	0.0437565
908.151	0.04372785
908.322	0.04364865
908.493	0.04362673
908.665	0.04357191
908.836	0.04329948
909.007	0.04303189
909.178	0.0429266
909.349	0.04269016
909.52	0.04241855
909.691	0.04191566
909.862	0.04173391
910.033	0.04154389
910.204	0.04140117
910.375	0.04129569
910.546	0.04121351
910.717	0.04111326
910.888	0.04122905
911.059	0.04111268
911.23	0.04106636
911.401	0.0409881
911.572	0.0407497
911.742	0.04054351
911.913	0.04039843
912.084	0.04017993
912.255	0.03999994
912.426	0.03980463
912.596	0.03952943
912.767	0.03940101
912.938	0.039242
913.108	0.03911371
913.279	0.03890007
913.45	0.03877255
913.62	0.03863986
913.791	0.03857686
913.962	0.03848192
914.132	0.03827718
914.303	0.03817965
914.473	0.03823664
914.644	0.03819023
914.814	0.03813539
914.985	0.03812114
915.155	0.03801451
915.326	0.03796389
915.496	0.03779276
915.666	0.03760891
915.837	0.03747324
916.007	0.03728418
916.177	0.03713341
916.348	0.0369122
916.518	0.03676613
916.688	0.03662898
916.858	0.0364516
917.029	0.03619931
917.199	0.03605523
917.369	0.03588097
917.539	0.03585227
917.709	0.03583458
917.88	0.0356775
918.05	0.03553207
918.22	0.03534495
918.39	0.03518716
918.56	0.0348871
918.73	0.0346705
918.9	0.03436867
919.07	0.03410365
919.24	0.03389347
919.41	0.03380509
919.58	0.03359562
919.75	0.03351777
919.92	0.03328526
920.09	0.03315164
920.26	0.03307432
920.429	0.03300736
920.599	0.03287507
920.769	0.03271752
920.939	0.03259455
921.109	0.03247396
921.278	0.03230643
921.448	0.03214368
921.618	0.03194539
921.787	0.03166614
921.957	0.03155065
922.127	0.03145094
922.296	0.03147197
922.466	0.03138065
922.636	0.03138208
922.805	0.03130383
922.975	0.03131915
923.144	0.03127387
923.314	0.03113202
923.483	0.03095036
923.653	0.03071558
923.822	0.03037429
923.992	0.03036461
924.161	0.03023304
924.331	0.03006795
924.5	0.02999912
924.669	0.02992797
924.839	0.02988186
925.008	0.0299326
925.177	0.02973941
925.347	0.02959339
925.516	0.02960076
925.685	0.02952939
925.854	0.02931959
926.023	0.02918366
926.193	0.02894099
926.362	0.02870987
926.531	0.02860131
926.7	0.02846894
926.869	0.02836627
927.038	0.02824426
927.207	0.02833369
927.376	0.02839455
927.545	0.02840779
927.715	0.02838661
927.884	0.0282167
928.052	0.02803358
928.221	0.02792074
928.39	0.02766891
928.559	0.02750557
928.728	0.02746053
928.897	0.02750514
929.066	0.02743365
929.235	0.02727755
929.404	0.02721757
929.572	0.02713544
929.741	0.02703391
929.91	0.02675939
930.079	0.02658215
930.247	0.02647614
930.416	0.02642648
930.585	0.02619737
930.753	0.02608347
930.922	0.02605143
931.091	0.02609193
931.259	0.02598876
931.428	0.02584528
931.596	0.02572041
931.765	0.02600875
931.934	0.02603721
932.102	0.02598958
932.27	0.02606225
932.439	0.02605694
932.607	0.0261411
932.776	0.02626654
932.944	0.02602879
933.113	0.02585064
933.281	0.02583607
933.449	0.02556728
933.618	0.02513464
933.786	0.02497187
933.954	0.02468794
934.123	0.02461494
934.291	0.02425501
934.459	0.02396894
934.627	0.0239304
934.795	0.02407311
934.964	0.02385919
935.132	0.02369613
935.3	0.02358754
935.468	0.02383293
935.636	0.02389039
935.804	0.02376238
935.972	0.02381734
936.14	0.0237847
936.308	0.02395933
936.476	0.02396996
936.644	0.02394318
936.812	0.0237105
936.98	0.023639
937.148	0.02353405
937.316	0.0236763
937.484	0.02362354
937.652	0.02344387
937.82	0.02346486
937.987	0.02388501
938.155	0.02409871
938.323	0.0242004
938.491	0.02395277
938.658	0.02415847
938.826	0.02426101
938.994	0.02467463
939.162	0.02466467
939.329	0.02458321
939.497	0.02460646
939.665	0.0249318
939.832	0.02505017
940	0.02486256
940.167	0.02456339
940.335	0.02411545
940.502	0.02408081
940.67	0.02330636
940.837	0.02349736
941.005	0.0229635
941.172	0.023537
941.34	0.02322972
941.507	0.02383564
941.674	0.02443245
941.842	0.02508213
942.009	0.02537948
942.177	0.02561224
942.344	0.02531787
942.511	0.02582814
942.678	0.02516413
942.846	0.02513239
943.013	0.02542478
943.18	0.02535216
943.347	0.02591096
943.514	0.02598381
943.682	0.02580157
943.849	0.02618541
944.016	0.02585482
944.183	0.02531374
944.35	0.0253289
944.517	0.02432512
944.684	0.0247872
944.851	0.02469598
945.018	0.0242822
945.185	0.0239706
945.352	0.02479263
945.519	0.02338065
945.686	0.02321405
945.853	0.02301854
946.02	0.02269242
946.187	0.02290177
946.353	0.02279395
946.52	0.02186438
946.687	0.02311581
946.854	0.02345087
947.021	0.02344527
947.187	0.02289743
947.354	0.0231665
947.521	0.02319967
947.687	0.0240711
947.854	0.02383275
948.021	0.02364539
948.187	0.02369474
948.354	0.02370718
948.52	0.02342103
948.687	0.02312521
948.854	0.02259772
949.02	0.02254447
949.187	0.02265837
949.353	0.02200856
949.52	0.02189731
949.686	0.02117677
949.852	0.02147952
950.019	0.02140895
950.185	0.02009819
950.352	0.0200601
950.518	0.01988444
950.684	0.02067611
950.851	0.02162387
951.017	0.02071221
951.183	0.02071489
951.349	0.02130506
951.516	0.02098498
951.682	0.02115873
951.848	0.02054378
952.014	0.01964351
952.18	0.02023093
952.346	0.01978855
952.512	0.01991849
952.679	0.01982854
952.845	0.0194127
953.011	0.01887002
953.177	0.01872815
953.343	0.01861207
953.509	0.01830693
953.675	0.01773046
953.841	0.01767291
954.007	0.01794462
954.172	0.01785362
954.338	0.0176738
954.504	0.01679041
954.67	0.01641862
954.836	0.01654122
955.002	0.01647333
955.167	0.01647742
955.333	0.01661403
955.499	0.01655712
955.665	0.0169551
955.83	0.01717169
955.996	0.01681042
956.162	0.01646068
956.327	0.01591799
956.493	0.01552423
956.659	0.01541219
956.824	0.01514264
956.99	0.01553478
957.155	0.01553443
957.321	0.01504463
957.486	0.0148349
957.652	0.0148302
957.817	0.0147594
957.983	0.01456141
958.148	0.01420588
958.314	0.01414764
958.479	0.01437307
958.644	0.01457061
958.81	0.01451139
958.975	0.01446553
959.14	0.01438726
959.306	0.01418608
959.471	0.01415692
959.636	0.01419688
959.801	0.01432887
959.967	0.01403016
960.132	0.01408981
960.297	0.01426597
960.462	0.01419856
960.627	0.01408672
960.792	0.0138607
960.957	0.01350153
961.123	0.01390625
961.288	0.01390758
961.453	0.01399322
961.618	0.0139652
961.783	0.01384283
961.948	0.01383898
962.113	0.01380497
962.277	0.01342119
962.442	0.0135219
962.607	0.0131572
962.772	0.01313344
962.937	0.01315199
963.102	0.01329912
963.267	0.01320771
963.431	0.01354344
963.596	0.0130256
963.761	0.01352513
963.926	0.01341732
964.09	0.01329539
964.255	0.01290461
964.42	0.01295727
964.584	0.01277146
964.749	0.01274219
964.914	0.01191769
965.078	0.01150479
965.243	0.01135061
965.407	0.0112571
965.572	0.01100389
965.736	0.01061334
965.901	0.01059199
966.065	0.01102862
966.23	0.01137248
966.394	0.01169636
966.559	0.01179293
966.723	0.01172887
966.887	0.01199656
967.052	0.01209994
967.216	0.01173717
967.38	0.01181919
967.545	0.01142623
967.709	0.01144451
967.873	0.01141429
968.037	0.01158645
968.202	0.01140508
968.366	0.01130598
968.53	0.01118601
968.694	0.01130249
968.858	0.01105184
969.022	0.01144683
969.187	0.01074788
969.351	0.01048624
969.515	0.01056094
969.679	0.01020366
969.843	0.01031016
970.007	0.01053176
970.171	0.0105925
970.335	0.01096548
970.499	0.01112779
970.662	0.01131211
970.826	0.01158674
970.99	0.01089848
971.154	0.01098892
971.318	0.01066728
971.482	0.0104903
971.645	0.01045521
971.809	0.01033652
971.973	0.0100794
972.137	0.01054099
972.3	0.00980645
972.464	0.00981823
972.628	0.00984305
972.791	0.00991577
972.955	0.00975877
973.119	0.00980173
973.282	0.01008923
973.446	0.01072858
973.609	0.01039689
973.773	0.01025679
973.936	0.01045339
974.1	0.01059507
974.263	0.01064031
974.427	0.01003804
974.59	0.00982099
974.754	0.01033969
974.917	0.01039553
975.08	0.00958699
975.244	0.00927208
975.407	0.00863514
975.57	0.00913013
975.734	0.00901501
975.897	0.00856574
976.06	0.00849277
976.223	0.00908599
976.387	0.00920091
976.55	0.00992247
976.713	0.00951186
976.876	0.0097652
977.039	0.00976727
977.202	0.01016361
977.365	0.01016035
977.528	0.00990245
977.692	0.01000376
977.855	0.01006414
978.018	0.0099305
978.181	0.00985697
978.344	0.00934496
978.506	0.00903215
978.669	0.00893934
978.832	0.00859153
978.995	0.00865969
979.158	0.00850511
979.321	0.00830551
979.484	0.00881828
979.646	0.00889986
979.809	0.00945236
979.972	0.00960142
980.135	0.0096827
980.297	0.00955362
980.46	0.00983604
980.623	0.00936922
980.786	0.00950887
980.948	0.00947258
981.111	0.00929777
981.273	0.00865195
981.436	0.0091452
981.599	0.00872797
981.761	0.00921784
981.924	0.0089347
982.086	0.00887243
982.249	0.0090025
982.411	0.00914922
982.573	0.00876365
982.736	0.00911241
982.898	0.00904466
983.061	0.00897835
983.223	0.00893398
983.385	0.00859073
983.548	0.00920791
983.71	0.00902407
983.872	0.00857717
984.034	0.00817638
984.197	0.00849271
984.359	0.0076894
984.521	0.00786786
984.683	0.00714982
984.845	0.00744696
985.008	0.00744507
985.17	0.00744128
985.332	0.00685805
985.494	0.00714049
985.656	0.00712487
985.818	0.00700021
985.98	0.00710736
986.142	0.00780773
986.304	0.0076547
986.466	0.00819507
986.628	0.00835452
986.79	0.00823298
986.952	0.0081394
987.113	0.00777106
987.275	0.00737887
987.437	0.00752441
987.599	0.00703136
987.761	0.00717965
987.922	0.00710691
988.084	0.00734647
988.246	0.00755532
988.408	0.00726191
988.569	0.00742009
988.731	0.00804401
988.893	0.00820495
989.054	0.00869143
989.216	0.00848945
989.377	0.00810499
989.539	0.00854511
989.701	0.00829734
989.862	0.0082227
990.024	0.00814268
990.185	0.00736557
990.347	0.00790506
990.508	0.00799638
990.669	0.00795245
990.831	0.00780847
990.992	0.00797873
991.154	0.00779642
991.315	0.00833154
991.476	0.00784014
991.638	0.00814831
991.799	0.00858603
991.96	0.00829799
992.121	0.0078477
992.283	0.008082
992.444	0.00755456
992.605	0.00810361
992.766	0.00814477
992.927	0.00776151
993.088	0.00817596
993.249	0.00806649
993.41	0.00813299
993.572	0.00790468
993.733	0.00755884
993.894	0.00741741
994.055	0.00711904
994.216	0.00743292
994.376	0.00705049
994.537	0.006756
994.698	0.00756553
994.859	0.00847459
995.02	0.0087555
995.181	0.00846902
995.342	0.00844368
995.503	0.00883664
995.663	0.00920044
995.824	0.00872292
995.985	0.00788222
996.146	0.00751089
996.306	0.00848255
996.467	0.00803206
996.628	0.00804649
996.788	0.00751206
996.949	0.00759751
997.11	0.00764582
997.27	0.00778374
997.431	0.00679323
997.591	0.00661741
997.752	0.00655165
997.912	0.00709592
998.073	0.00718779
998.233	0.00750309
998.394	0.00736985
998.554	0.00772602
998.714	0.00806613
998.875	0.00802265
999.035	0.00763535
999.196	0.00781491
999.356	0.00717951
999.516	0.00719667
999.676	0.00701417
999.837	0.00679744
999.997	0.00689373
1000.157	0.00628765
1000.317	0.00593127
1000.477	0.00662455
1000.638	0.0068101
1000.798	0.0065605
1000.958	0.00700887
1001.118	0.00822542
1001.278	0.00916513
1001.438	0.00838132
1001.598	0.00815727
1001.758	0.00790584
1001.918	0.00782474
1002.078	0.00752432
1002.238	0.00647413
1002.398	0.00574283
1002.558	0.00677632
1002.718	0.00704784
1002.878	0.00727292
1003.037	0.00755134
1003.197	0.007001
1003.357	0.00709121
1003.517	0.00685754
1003.677	0.00743301
1003.836	0.00690439
1003.996	0.00673751
1004.156	0.00717045
1004.315	0.00726843
1004.475	0.0072122
1004.635	0.00816361
1004.794	0.00808049
1004.954	0.00873637
1005.114	0.00847397
1005.273	0.00810635
1005.433	0.00835734
1005.592	0.00782874
1005.752	0.00769137
1005.911	0.00760687
1006.071	0.00771384
1006.23	0.00763781
1006.389	0.00847979
1006.549	0.0087792
1006.708	0.00898281
1006.868	0.00911168
1007.027	0.00949932
1007.186	0.00852853
1007.345	0.00906361
1007.505	0.00927743
1007.664	0.00914136
1007.823	0.00988025
1007.982	0.00906858
1008.142	0.00948171
1008.301	0.00999409
1008.46	0.01087025
1008.619	0.00919458
1008.778	0.00912652
1008.937	0.00870364
1009.096	0.00924306
1009.255	0.00906834
1009.414	0.00883334
1009.573	0.00889182
1009.732	0.00992625
1009.891	0.01006651
1010.05	0.01013848
1010.209	0.01113338
1010.368	0.01050577
1010.527	0.01095856
1010.686	0.01058464
1010.845	0.00988275
1011.003	0.01080345
1011.162	0.01106195
1011.321	0.00907328
1011.48	0.00914406
1011.638	0.0088779
1011.797	0.00759221
1011.956	0.00812202
1012.115	0.008295
1012.273	0.00902238
1012.432	0.00978745
1012.59	0.00957972
1012.749	0.01086868
1012.908	0.0123799
1013.066	0.01361994
1013.225	0.01237369
1013.383	0.01145194
1013.542	0.01260461
1013.7	0.01244789
1013.859	0.01130372
1014.017	0.01017456
1014.175	0.00895008
1014.334	0.00917579
1014.492	0.00991134
1014.65	0.0094741
1014.809	0.01039134
1014.967	0.01017281
1015.125	0.01118739
1015.284	0.0119492
1015.442	0.01199825
1015.6	0.01304125
1015.758	0.01308666
1015.916	0.01249061
1016.075	0.01306645
1016.233	0.01310133
1016.391	0.01264224
1016.549	0.01535162
1016.707	0.01475072
1016.865	0.01526593
1017.023	0.01320326
1017.181	0.01468529
1017.339	0.01498896
1017.497	0.01412351
1017.655	0.01412112
1017.813	0.01403286
1017.971	0.0141593
1018.129	0.01645104
1018.286	0.01507818
1018.444	0.0131285
1018.602	0.01342762
1018.76	0.01159462
1018.918	0.0115283
1019.075	0.01104962
1019.233	0.01038226
1019.391	0.01004434
1019.549	0.010812
1019.706	0.01307315
1019.864	0.01173905
1020.022	0.01283131
1020.179	0.01314653
1020.337	0.01522734
1020.494	0.01357626
1020.652	0.01481873
1020.809	0.01438863
1020.967	0.01494404
1021.124	0.01533847
1021.282	0.01482282
1021.439	0.01261272
1021.597	0.01389064
1021.754	0.01457237
1021.911	0.01277797
1022.069	0.01207774
1022.226	0.00874556
1022.384	0.01047573
1022.541	0.00881832
1022.698	0.00799507
1022.855	0.00760455
1023.013	0.00811914
1023.17	0.00841557
1023.327	0.01019058
1023.484	0.00948182
1023.641	0.01350365
1023.798	0.01506534
1023.956	0.01468011
1024.113	0.01428829
1024.27	0.0138719
1024.427	0.01365702
1024.584	0.01390405
1024.741	0.01504028
1024.898	0.0150488
1025.055	0.01340073
1025.212	0.01354487
1025.369	0.0138249
1025.525	0.01138577
1025.682	0.0081452
1025.839	0.00612208
1025.996	0.00696524
1026.153	0.00796142
1026.31	0.00797954
1026.466	0.00961056
1026.623	0.01187123
1026.78	0.01536815
1026.937	0.01672787
1027.093	0.01629478
1027.25	0.01912732
1027.407	0.01977958
1027.563	0.01856921
1027.72	0.02063094
1027.876	0.01986544
1028.033	0.01979714
1028.19	0.02044461
1028.346	0.01794224
1028.503	0.01902027
1028.659	0.02063127
1028.816	0.01919815
1028.972	0.01949325
1029.128	0.0208365
1029.285	0.02131746
1029.441	0.01940957
1029.598	0.0188755
1029.754	0.01780056
1029.91	0.02119374
1030.067	0.02116054
1030.223	0.01853074
1030.379	0.01696877
1030.535	0.02140536
1030.691	0.01928701
1030.848	0.02027264
1031.004	0.02076741
1031.16	0.02031856
1031.316	0.02472579
1031.472	0.02871789
1031.628	0.02507553
1031.784	0.02601684
1031.94	0.02551508
1032.096	0.02018696
1032.252	0.02495693
1032.408	0.02738393
1032.564	0.02782979
1032.72	0.02859325
1032.876	0.0305548
1033.032	0.03114551
1033.188	0.0273665
1033.344	0.02892095
1033.5	0.02802988
1033.655	0.02603282
1033.811	0.0279832
1033.967	0.02971959
