Data from 0_1_mm_pl_100pc_Absorbance__0__16-36-49-759.txt Node

Date: Fri Feb 24 16:36:49 CET 2023
User: Ange
Spectrometer: FLMT08341
Trigger mode: 0
Integration Time (sec): 1.000000E-2
Scans to average: 400
Electric dark correction enabled: true
Nonlinearity correction enabled: false
Boxcar width: 3
XAxis mode: Wavelengths
Number of Pixels in Spectrum: 3648
>>>>>Begin Spectral Data<<<<<
345.271	0.0234751
345.487	0.0112174
345.704	0.01841395
345.921	0.00050883
346.137	0.01414437
346.354	-0.01540823
346.571	-0.00719949
346.787	0.12731634
347.004	-0.12358093
347.22	-0.11610754
347.437	-0.2828614
347.653	-0.03361291
347.87	0.29958685
348.086	-0.17895559
348.303	0.46893152
348.519	0.22039226
348.736	0.22806651
348.952	0.23831849
349.169	0.25365732
349.385	0.26441491
349.601	0.26852218
349.818	0.26741476
350.034	0.27134678
350.251	0.27382509
350.467	0.27935816
350.683	0.2781791
350.9	0.28086659
351.116	0.27953997
351.332	0.27901166
351.549	0.28663392
351.765	0.29625738
351.981	0.30194054
352.197	0.31253758
352.414	0.32464747
352.63	0.33429957
352.846	0.3459022
353.062	0.34349767
353.278	0.3428714
353.495	0.35137385
353.711	0.35241044
353.927	0.35272851
354.143	0.35783701
354.359	0.35442147
354.575	0.35296572
354.792	0.35944301
355.008	0.35416884
355.224	0.35182759
355.44	0.35161459
355.656	0.35111606
355.872	0.35919155
356.088	0.37918594
356.304	0.38509632
356.52	0.39142515
356.736	0.40090189
356.952	0.40791819
357.168	0.41125391
357.384	0.41574428
357.6	0.40715043
357.816	0.41299258
358.032	0.42226849
358.248	0.43304432
358.464	0.43544695
358.679	0.4410256
358.895	0.44515955
359.111	0.45421576
359.327	0.44811915
359.543	0.44916649
359.759	0.45172626
359.974	0.45443265
360.19	0.45524637
360.406	0.45699583
360.622	0.45717847
360.838	0.4585078
361.053	0.4628121
361.269	0.46511792
361.485	0.46796782
361.701	0.47310943
361.916	0.470894
362.132	0.47402559
362.348	0.47800357
362.563	0.48229531
362.779	0.48185014
362.995	0.48727404
363.21	0.49448805
363.426	0.50028653
363.641	0.5028362
363.857	0.50813171
364.073	0.50507245
364.288	0.50222153
364.504	0.51115532
364.719	0.5112776
364.935	0.51203778
365.15	0.514566
365.366	0.51707401
365.581	0.52626816
365.797	0.53222302
366.012	0.52616446
366.228	0.52253384
366.443	0.53195136
366.658	0.53438439
366.874	0.53238179
367.089	0.53645069
367.305	0.539708
367.52	0.54098849
367.735	0.54359951
367.951	0.53718205
368.166	0.53858153
368.381	0.54819636
368.597	0.54465444
368.812	0.54820934
369.027	0.5525828
369.243	0.55408759
369.458	0.56749065
369.673	0.56923874
369.888	0.56764098
370.104	0.56711296
370.319	0.56967367
370.534	0.56837703
370.749	0.57210917
370.964	0.57059618
371.179	0.57246301
371.395	0.57289426
371.61	0.57757507
371.825	0.57130987
372.04	0.57517763
372.255	0.57324424
372.47	0.56912727
372.685	0.56568099
372.9	0.56634963
373.115	0.56135552
373.33	0.56664274
373.545	0.56718315
373.76	0.57080181
373.975	0.57018958
374.19	0.5694383
374.405	0.57104739
374.62	0.58015214
374.835	0.58586534
375.05	0.58678477
375.265	0.58544517
375.48	0.58901978
375.695	0.59951459
375.91	0.59616162
376.125	0.58705299
376.339	0.57850822
376.554	0.5783088
376.769	0.57800157
376.984	0.57689145
377.199	0.57653657
377.414	0.57623431
377.628	0.58439065
377.843	0.5905022
378.058	0.59137692
378.273	0.59701526
378.487	0.59863338
378.702	0.59876939
378.917	0.60122342
379.131	0.59615671
379.346	0.59033419
379.561	0.58817401
379.775	0.58359216
379.99	0.57872008
380.205	0.57266571
380.419	0.56876727
380.634	0.56424444
380.848	0.56866656
381.063	0.56834979
381.278	0.57284581
381.492	0.57112652
381.707	0.57651617
381.921	0.57643936
382.136	0.58378518
382.35	0.58023184
382.565	0.57694017
382.779	0.57585666
382.994	0.57774598
383.208	0.57175491
383.422	0.57648107
383.637	0.57359267
383.851	0.57704329
384.066	0.57970674
384.28	0.58038888
384.494	0.57958525
384.709	0.58304284
384.923	0.5810334
385.137	0.57656203
385.352	0.57377217
385.566	0.57473279
385.78	0.57213396
385.995	0.57023908
386.209	0.56534856
386.423	0.56623414
386.637	0.56858496
386.852	0.56533121
387.066	0.56306582
387.28	0.55931731
387.494	0.56092315
387.708	0.56150939
387.923	0.55791761
388.137	0.55869302
388.351	0.55970673
388.565	0.55967749
388.779	0.56096837
388.993	0.56363665
389.207	0.56475276
389.421	0.56514751
389.635	0.56168552
389.85	0.55943601
390.064	0.55846384
390.278	0.55727686
390.492	0.55526234
390.706	0.55340523
390.92	0.55184857
391.134	0.55332978
391.348	0.55698302
391.561	0.55371884
391.775	0.55099799
391.989	0.54581276
392.203	0.54526802
392.417	0.54435134
392.631	0.54350033
392.845	0.53824898
393.059	0.53896215
393.273	0.5372321
393.486	0.53527264
393.7	0.52976219
393.914	0.52925345
394.128	0.5261798
394.342	0.52400325
394.555	0.51868699
394.769	0.51705818
394.983	0.51700637
395.197	0.51869188
395.41	0.51580611
395.624	0.51550968
395.838	0.51334581
396.051	0.51705101
396.265	0.51393229
396.479	0.51232711
396.692	0.51013069
396.906	0.50770185
397.12	0.50408734
397.333	0.5044588
397.547	0.50063659
397.76	0.50115617
397.974	0.49966526
398.187	0.4987899
398.401	0.49819517
398.614	0.49685789
398.828	0.49420418
399.041	0.49211877
399.255	0.48920622
399.468	0.48726506
399.682	0.48438848
399.895	0.483109
400.109	0.48158728
400.322	0.4797678
400.536	0.47610712
400.749	0.47628659
400.962	0.47481099
401.176	0.47276384
401.389	0.47033535
401.602	0.46631616
401.816	0.46546324
402.029	0.46570606
402.242	0.46257803
402.456	0.46068277
402.669	0.45837223
402.882	0.45440947
403.095	0.45530721
403.309	0.45312286
403.522	0.45110835
403.735	0.44919293
403.948	0.44745869
404.161	0.44832918
404.375	0.44815265
404.588	0.44641973
404.801	0.44460532
405.014	0.44229672
405.227	0.44195699
405.44	0.44063237
405.653	0.43917996
405.866	0.4366829
406.079	0.43399374
406.293	0.43200221
406.506	0.4303917
406.719	0.42812846
406.932	0.42590993
407.145	0.42205504
407.358	0.42150406
407.571	0.41870789
407.784	0.41730077
407.996	0.41577397
408.209	0.41308117
408.422	0.41084649
408.635	0.40990958
408.848	0.40813104
409.061	0.40583894
409.274	0.40415501
409.487	0.40184601
409.7	0.4001424
409.912	0.39911399
410.125	0.39727349
410.338	0.39574437
410.551	0.39433593
410.764	0.3921856
410.976	0.39100651
411.189	0.38960568
411.402	0.38702623
411.615	0.38529096
411.827	0.38344306
412.04	0.38262704
412.253	0.38070652
412.465	0.37866334
412.678	0.37710496
412.891	0.37614471
413.103	0.37318958
413.316	0.37114029
413.529	0.36980707
413.741	0.36886858
413.954	0.36771754
414.166	0.36596407
414.379	0.36407097
414.591	0.36346909
414.804	0.36140002
415.016	0.35943989
415.229	0.35713117
415.441	0.35453601
415.654	0.3529069
415.866	0.35122346
416.079	0.3498431
416.291	0.34823169
416.504	0.34734245
416.716	0.34613437
416.928	0.34527047
417.141	0.34375834
417.353	0.34251511
417.566	0.34023633
417.778	0.33879535
417.99	0.33616996
418.203	0.33396864
418.415	0.33232103
418.627	0.33072836
418.839	0.32884583
419.052	0.32837092
419.264	0.32727931
419.476	0.32596905
419.688	0.32452501
419.901	0.32279413
420.113	0.32123698
420.325	0.3196433
420.537	0.31752736
420.749	0.31617647
420.961	0.3149221
421.174	0.31334171
421.386	0.31153001
421.598	0.31009786
421.81	0.30864956
422.022	0.30675829
422.234	0.30504316
422.446	0.30310472
422.658	0.30193069
422.87	0.30042146
423.082	0.29893491
423.294	0.29754251
423.506	0.2964068
423.718	0.29491972
423.93	0.2936543
424.142	0.29191414
424.354	0.29054194
424.566	0.28906319
424.778	0.2877028
424.99	0.28619193
425.202	0.28476355
425.414	0.28336098
425.625	0.2825254
425.837	0.28090189
426.049	0.27977149
426.261	0.27830386
426.473	0.27681233
426.684	0.27532997
426.896	0.27441456
427.108	0.27251388
427.32	0.27167351
427.531	0.26999279
427.743	0.2688932
427.955	0.2679536
428.167	0.2665174
428.378	0.26497067
428.59	0.26385382
428.802	0.26251722
429.013	0.26128312
429.225	0.2596936
429.436	0.25822378
429.648	0.25747955
429.86	0.25623717
430.071	0.255238
430.283	0.2540542
430.494	0.25295248
430.706	0.25186751
430.917	0.25060341
431.129	0.2492388
431.34	0.24797396
431.552	0.2467691
431.763	0.24548604
431.975	0.24436022
432.186	0.24303484
432.398	0.2420986
432.609	0.24033611
432.821	0.23922713
433.032	0.23784166
433.243	0.2366158
433.455	0.23543983
433.666	0.2344029
433.877	0.23350578
434.089	0.2323299
434.3	0.23109862
434.511	0.22976979
434.723	0.22852088
434.934	0.22711907
435.145	0.22591897
435.356	0.22427884
435.568	0.22338437
435.779	0.22210583
435.99	0.22109386
436.201	0.22014841
436.412	0.21915326
436.624	0.21825385
436.835	0.21745455
437.046	0.21643701
437.257	0.21549698
437.468	0.21460865
437.679	0.21364002
437.89	0.21247471
438.101	0.21133539
438.312	0.21012841
438.523	0.20897729
438.734	0.20793205
438.945	0.20693693
439.156	0.20559055
439.367	0.20447087
439.578	0.20360921
439.789	0.20251933
440	0.20147346
440.211	0.20033526
440.422	0.19921194
440.633	0.1984308
440.844	0.19739503
441.055	0.19631186
441.266	0.19546683
441.477	0.19448497
441.687	0.19343002
441.898	0.19234129
442.109	0.19123101
442.32	0.19039738
442.531	0.18916383
442.741	0.18792828
442.952	0.18702146
443.163	0.18618017
443.374	0.18516391
443.584	0.18404975
443.795	0.18296374
444.006	0.18210086
444.216	0.18108232
444.427	0.17996979
444.638	0.17881898
444.848	0.17767358
445.059	0.17668981
445.27	0.17549293
445.48	0.17435999
445.691	0.17330692
445.901	0.17245877
446.112	0.17136437
446.323	0.17035773
446.533	0.16953474
446.744	0.16874979
446.954	0.1676617
447.165	0.16669324
447.375	0.16563514
447.586	0.16501163
447.796	0.16406361
448.006	0.16304392
448.217	0.16209007
448.427	0.16121477
448.638	0.16027264
448.848	0.1593287
449.058	0.1582698
449.269	0.15751806
449.479	0.15645027
449.689	0.15555143
449.9	0.1547513
450.11	0.15403563
450.32	0.15331166
450.531	0.15234321
450.741	0.15144674
450.951	0.15070357
451.161	0.14974783
451.372	0.14890108
451.582	0.14827287
451.792	0.14722663
452.002	0.1463298
452.212	0.14546898
452.422	0.14455029
452.633	0.14365383
452.843	0.14268969
453.053	0.1413926
453.263	0.14060483
453.473	0.13982926
453.683	0.13905999
453.893	0.13822246
454.103	0.13758271
454.313	0.13685512
454.523	0.1361451
454.733	0.13546163
454.943	0.13474831
455.153	0.13400214
455.363	0.13309547
455.573	0.13229904
455.783	0.1315706
455.993	0.13096324
456.203	0.13008581
456.413	0.12937924
456.623	0.12853085
456.833	0.12787183
457.042	0.12700535
457.252	0.12625472
457.462	0.12532332
457.672	0.1246291
457.882	0.12378548
458.091	0.12309072
458.301	0.12230669
458.511	0.1217643
458.721	0.12098625
458.931	0.12020887
459.14	0.11954687
459.35	0.11893476
459.56	0.11831329
459.769	0.11781074
459.979	0.117016
460.189	0.11643296
460.398	0.11580257
460.608	0.11509318
460.817	0.11420249
461.027	0.11348722
461.237	0.11276262
461.446	0.11198331
461.656	0.11120999
461.865	0.11054379
462.075	0.10982623
462.284	0.10934233
462.494	0.10859987
462.703	0.10789335
462.913	0.10720593
463.122	0.10649932
463.332	0.10579604
463.541	0.10524143
463.751	0.10449696
463.96	0.10380621
464.169	0.10321627
464.379	0.1027856
464.588	0.10217789
464.797	0.10150354
465.007	0.10082302
465.216	0.10015233
465.425	0.09952146
465.635	0.09893586
465.844	0.09822423
466.053	0.09759727
466.263	0.09709093
466.472	0.09637352
466.681	0.0958854
466.89	0.0952449
467.099	0.09442921
467.309	0.0936424
467.518	0.09313451
467.727	0.09248824
467.936	0.09190355
468.145	0.09128194
468.354	0.09069714
468.563	0.09014625
468.772	0.08959029
468.982	0.08894495
469.191	0.08830652
469.4	0.08769318
469.609	0.08705499
469.818	0.08651616
470.027	0.0859815
470.236	0.08536982
470.445	0.08479187
470.654	0.0842702
470.863	0.08371433
471.072	0.08322702
471.28	0.08265039
471.489	0.08213663
471.698	0.08164868
471.907	0.08110122
472.116	0.08054846
472.325	0.07997749
472.534	0.079399
472.743	0.07887367
472.951	0.07829073
473.16	0.07772096
473.369	0.07710593
473.578	0.07660731
473.786	0.07620097
473.995	0.0757042
474.204	0.07524446
474.413	0.07472866
474.621	0.07433141
474.83	0.07397648
475.039	0.07348326
475.247	0.07295894
475.456	0.07246935
475.665	0.07193309
475.873	0.07148228
476.082	0.07100997
476.291	0.0704754
476.499	0.07005717
476.708	0.06955951
476.916	0.06913846
477.125	0.06867989
477.333	0.06816905
477.542	0.06764353
477.75	0.06710236
477.959	0.06655841
478.167	0.06613778
478.376	0.06559034
478.584	0.06509017
478.793	0.06469793
479.001	0.06414436
479.209	0.0637403
479.418	0.06322734
479.626	0.06270267
479.834	0.06222505
480.043	0.06178554
480.251	0.06128507
480.459	0.06093371
480.668	0.06052451
480.876	0.06015707
481.084	0.05972757
481.293	0.05937443
481.501	0.05892837
481.709	0.05851906
481.917	0.05819507
482.125	0.05783602
482.334	0.0574685
482.542	0.05717091
482.75	0.05675139
482.958	0.05644736
483.166	0.0560308
483.374	0.05556499
483.583	0.05513927
483.791	0.05472042
483.999	0.05428983
484.207	0.05388548
484.415	0.0534623
484.623	0.05310684
484.831	0.05270308
485.039	0.05229486
485.247	0.05189664
485.455	0.05140167
485.663	0.05094556
485.871	0.05056323
486.079	0.05013643
486.287	0.04972501
486.495	0.04932013
486.702	0.04892703
486.91	0.04862965
487.118	0.0482715
487.326	0.04789205
487.534	0.04754614
487.742	0.04719784
487.95	0.04689214
488.157	0.04658373
488.365	0.0462628
488.573	0.04603045
488.781	0.04575305
488.988	0.04544681
489.196	0.0451863
489.404	0.04483037
489.612	0.04448532
489.819	0.04415219
490.027	0.04374882
490.235	0.04335806
490.442	0.04302285
490.65	0.04262074
490.857	0.04231633
491.065	0.04196875
491.273	0.04166753
491.48	0.04141284
491.688	0.04107651
491.895	0.04075909
492.103	0.04046167
492.31	0.04016027
492.518	0.03982582
492.725	0.03945498
492.933	0.03904919
493.14	0.03875959
493.348	0.0384933
493.555	0.0381978
493.763	0.03791958
493.97	0.03771125
494.177	0.03746955
494.385	0.03722872
494.592	0.03690163
494.8	0.03654578
495.007	0.03622362
495.214	0.03586858
495.422	0.0355648
495.629	0.03524663
495.836	0.03498353
496.043	0.03473835
496.251	0.03447829
496.458	0.03425298
496.665	0.03407115
496.872	0.03380991
497.08	0.03359644
497.287	0.03333354
497.494	0.03311459
497.701	0.03288634
497.908	0.03261484
498.115	0.03229279
498.322	0.03201515
498.53	0.03172403
498.737	0.03146667
498.944	0.03123312
499.151	0.03097339
499.358	0.03077817
499.565	0.03059962
499.772	0.03030998
499.979	0.03006526
500.186	0.02984509
500.393	0.02959772
500.6	0.02933907
500.807	0.02908739
501.014	0.02881276
501.221	0.02862659
501.427	0.02844864
501.634	0.0282378
501.841	0.02796482
502.048	0.02771972
502.255	0.02753616
502.462	0.02735203
502.669	0.02715243
502.875	0.02688272
503.082	0.02667043
503.289	0.0264159
503.496	0.02620522
503.702	0.025925
503.909	0.02566914
504.116	0.02542037
504.323	0.0252603
504.529	0.02505072
504.736	0.02491383
504.943	0.02470803
505.149	0.02450455
505.356	0.02431807
505.563	0.02410525
505.769	0.02388153
505.976	0.02364692
506.182	0.02342164
506.389	0.0232803
506.595	0.02310762
506.802	0.02292474
507.008	0.02275808
507.215	0.0225456
507.421	0.02236239
507.628	0.02222071
507.834	0.02205981
508.041	0.021927
508.247	0.02174202
508.454	0.02155681
508.66	0.02138661
508.866	0.02123419
509.073	0.02101561
509.279	0.02078525
509.486	0.02055524
509.692	0.02035935
509.898	0.02022403
510.105	0.02007376
510.311	0.01988095
510.517	0.01968496
510.723	0.01953441
510.93	0.01939807
511.136	0.019268
511.342	0.01908334
511.548	0.01890851
511.754	0.01877475
511.961	0.01867061
512.167	0.0185189
512.373	0.01834344
512.579	0.0181808
512.785	0.01807093
512.991	0.01793012
513.197	0.01775543
513.404	0.01761238
513.61	0.0174725
513.816	0.0173591
514.022	0.01723547
514.228	0.01705291
514.434	0.01693905
514.64	0.01681108
514.846	0.01665121
515.052	0.0165161
515.258	0.01637276
515.464	0.01626
515.669	0.0161443
515.875	0.01604676
516.081	0.0159313
516.287	0.0158005
516.493	0.01567278
516.699	0.01557512
516.905	0.01541301
517.111	0.01522273
517.316	0.01503307
517.522	0.0149138
517.728	0.01481431
517.934	0.01463799
518.139	0.01446874
518.345	0.01430433
518.551	0.01426031
518.757	0.01415256
518.962	0.01401748
519.168	0.01387708
519.374	0.01379459
519.579	0.01370722
519.785	0.01363961
519.991	0.01349786
520.196	0.01336571
520.402	0.01325239
520.607	0.01312276
520.813	0.0130273
521.018	0.01290804
521.224	0.01279154
521.429	0.01272359
521.635	0.0126159
521.84	0.01251436
522.046	0.01244956
522.251	0.01240097
522.457	0.01229956
522.662	0.0122049
522.868	0.01209824
523.073	0.01205733
523.279	0.01197146
523.484	0.01188813
523.689	0.01175174
523.895	0.01168766
524.1	0.0116222
524.305	0.01151069
524.511	0.01139672
524.716	0.01130323
524.921	0.01118942
525.126	0.01110873
525.332	0.01101662
525.537	0.01094339
525.742	0.01082901
525.947	0.01074503
526.153	0.01067081
526.358	0.01056765
526.563	0.01042896
526.768	0.01028412
526.973	0.01018534
527.178	0.01015144
527.383	0.01003914
527.588	0.00995956
527.794	0.00991229
527.999	0.00988337
528.204	0.00984993
528.409	0.00973302
528.614	0.00964432
528.819	0.00957983
529.024	0.00948314
529.229	0.00934657
529.434	0.0092069
529.639	0.00912356
529.843	0.00905016
530.048	0.00896724
530.253	0.0089017
530.458	0.0088057
530.663	0.00876268
530.868	0.00875218
531.073	0.00868592
531.278	0.00864511
531.482	0.00857478
531.687	0.008502
531.892	0.00851321
532.097	0.00847502
532.302	0.00841907
532.506	0.00835659
532.711	0.00828632
532.916	0.00818266
533.12	0.00814905
533.325	0.00799852
533.53	0.0078963
533.734	0.00780789
533.939	0.00770911
534.144	0.00765245
534.348	0.0076093
534.553	0.00753769
534.757	0.00756472
534.962	0.00755651
535.167	0.00752017
535.371	0.00752859
535.576	0.00746879
535.78	0.00740037
535.985	0.00731898
536.189	0.00720511
536.394	0.00710328
536.598	0.00696547
536.803	0.00682067
537.007	0.00676075
537.211	0.00672664
537.416	0.00667906
537.62	0.00664822
537.825	0.0065933
538.029	0.00661457
538.233	0.00663995
538.438	0.00656288
538.642	0.00650794
538.846	0.00646963
539.05	0.00641998
539.255	0.00637347
539.459	0.00629363
539.663	0.00620902
539.867	0.00616366
540.072	0.00612868
540.276	0.0060697
540.48	0.00600598
540.684	0.00595459
540.888	0.00589947
541.092	0.00587048
541.297	0.00584911
541.501	0.00578196
541.705	0.0057234
541.909	0.00567343
542.113	0.00563472
542.317	0.00558955
542.521	0.00557286
542.725	0.00552939
542.929	0.00551867
543.133	0.00548536
543.337	0.00547274
543.541	0.00548234
543.745	0.00547228
543.949	0.0054272
544.153	0.00539365
544.357	0.00534889
544.56	0.00536116
544.764	0.00528277
544.968	0.00521276
545.172	0.00516044
545.376	0.00509718
545.58	0.00502384
545.783	0.00498372
545.987	0.00491768
546.191	0.00489018
546.395	0.00485518
546.598	0.00485771
546.802	0.00480449
547.006	0.0047953
547.21	0.00478707
547.413	0.00474918
547.617	0.00474517
547.821	0.00476777
548.024	0.00473433
548.228	0.00467078
548.431	0.00462966
548.635	0.00454998
548.839	0.00451161
549.042	0.00445238
549.246	0.00438556
549.449	0.00433389
549.653	0.00432395
549.856	0.00428172
550.06	0.00427051
550.263	0.0042448
550.467	0.00419674
550.67	0.00412696
550.874	0.00409131
551.077	0.00405933
551.28	0.00402758
551.484	0.00398507
551.687	0.00390594
551.891	0.00387776
552.094	0.00381464
552.297	0.00377369
552.501	0.00376698
552.704	0.00374099
552.907	0.00372214
553.11	0.00375504
553.314	0.00379195
553.517	0.00383826
553.72	0.00378952
553.923	0.00376858
554.127	0.00374711
554.33	0.0036902
554.533	0.00364196
554.736	0.00358021
554.939	0.00351617
555.142	0.00352929
555.345	0.00349006
555.549	0.00347937
555.752	0.00347708
555.955	0.00346425
556.158	0.00345513
556.361	0.00343016
556.564	0.00341709
556.767	0.00343581
556.97	0.00343353
557.173	0.00345144
557.376	0.00341774
557.579	0.00341271
557.782	0.00342609
557.984	0.0033783
558.187	0.0032852
558.39	0.00317953
558.593	0.00310007
558.796	0.00309778
558.999	0.00307645
559.202	0.00301219
559.404	0.00299983
559.607	0.00301359
559.81	0.00305925
560.013	0.00305693
560.216	0.00304085
560.418	0.00295514
560.621	0.00295517
560.824	0.00291311
561.026	0.00289867
561.229	0.00286357
561.432	0.00281172
561.634	0.00276933
561.837	0.00277565
562.04	0.00278263
562.242	0.0027859
562.445	0.00277868
562.647	0.00278903
562.85	0.00281991
563.053	0.00275424
563.255	0.00271446
563.458	0.00264602
563.66	0.00262608
563.863	0.00259611
564.065	0.00256456
564.268	0.00257433
564.47	0.00260968
564.672	0.00263035
564.875	0.00265951
565.077	0.00263433
565.28	0.00258695
565.482	0.00255977
565.684	0.00250572
565.887	0.00244826
566.089	0.00242083
566.291	0.00237701
566.494	0.00239324
566.696	0.00240605
566.898	0.00239307
567.1	0.00235097
567.303	0.00235167
567.505	0.0023441
567.707	0.00233262
567.909	0.00229996
568.111	0.00227792
568.314	0.00224591
568.516	0.00225798
568.718	0.00227988
568.92	0.00226238
569.122	0.00225649
569.324	0.00224789
569.526	0.00223507
569.728	0.00224487
569.93	0.00223293
570.132	0.00222648
570.334	0.0022285
570.536	0.00223818
570.738	0.00220679
570.94	0.00222155
571.142	0.00220508
571.344	0.00217764
571.546	0.00215867
571.748	0.00215528
571.95	0.00215464
572.152	0.0021468
572.354	0.00215091
572.555	0.00214022
572.757	0.00216349
572.959	0.00216168
573.161	0.00215345
573.363	0.00212486
573.564	0.00215167
573.766	0.0020987
573.968	0.00211382
574.17	0.00209944
574.371	0.00207992
574.573	0.00203418
574.775	0.00201278
574.976	0.00200255
575.178	0.00203282
575.38	0.00198707
575.581	0.00195969
575.783	0.00193748
575.985	0.00193945
576.186	0.00193556
576.388	0.00190063
576.589	0.00185186
576.791	0.0018318
576.992	0.00181038
577.194	0.00178693
577.395	0.00176328
577.597	0.00176468
577.798	0.00176614
578	0.00174321
578.201	0.00170839
578.402	0.00168583
578.604	0.0016512
578.805	0.00160631
579.007	0.00155699
579.208	0.00150075
579.409	0.00150103
579.611	0.00152842
579.812	0.0015201
580.013	0.00155675
580.215	0.00159303
580.416	0.00164807
580.617	0.0017002
580.818	0.00170444
581.019	0.00170734
581.221	0.00172674
581.422	0.00172828
581.623	0.00174212
581.824	0.00170834
582.025	0.00166501
582.226	0.0016699
582.428	0.00166866
582.629	0.00166955
582.83	0.00161893
583.031	0.00160111
583.232	0.00159898
583.433	0.00161752
583.634	0.00159414
583.835	0.00159958
584.036	0.00159967
584.237	0.00162364
584.438	0.00163805
584.639	0.00161978
584.84	0.00158505
585.041	0.00160789
585.242	0.00160273
585.442	0.00156231
585.643	0.00156433
585.844	0.00153338
586.045	0.0015446
586.246	0.00154085
586.447	0.00152146
586.647	0.0014868
586.848	0.00147786
587.049	0.0014512
587.25	0.00142913
587.45	0.00137615
587.651	0.00139011
587.852	0.00137987
588.053	0.00138371
588.253	0.00137801
588.454	0.00135703
588.655	0.00135908
588.855	0.00138495
589.056	0.00135268
589.256	0.00132201
589.457	0.00133307
589.658	0.00134635
589.858	0.00137428
590.059	0.00134928
590.259	0.00133502
590.46	0.00130782
590.66	0.00130802
590.861	0.00128341
591.061	0.00125099
591.262	0.0012242
591.462	0.0012862
591.662	0.00129078
591.863	0.00129814
592.063	0.00127863
592.264	0.00126283
592.464	0.00128569
592.664	0.00127627
592.865	0.0012434
593.065	0.00121952
593.265	0.00124013
593.465	0.00130274
593.666	0.00132482
593.866	0.0013689
594.066	0.00138056
594.266	0.00135064
594.467	0.00133771
594.667	0.00130026
594.867	0.00122408
595.067	0.00119244
595.267	0.00111477
595.467	0.00109777
595.668	0.00107801
595.868	0.00107645
596.068	0.00109753
596.268	0.00107848
596.468	0.00104839
596.668	0.00101401
596.868	0.00098731
597.068	0.000982
597.268	0.00093882
597.468	0.00092891
597.668	0.00093766
597.868	0.00096234
598.068	0.00098011
598.268	0.00099788
598.467	0.00103765
598.667	0.00106891
598.867	0.00108335
599.067	0.0011104
599.267	0.001106
599.467	0.00112753
599.667	0.00112309
599.866	0.00105263
600.066	0.00103183
600.266	0.00099234
600.466	0.00096299
600.665	0.00096314
600.865	0.00091897
601.065	0.00089723
601.264	0.00092212
601.464	0.0009181
601.664	0.00095705
601.863	0.00096017
602.063	0.00092294
602.263	0.00093598
602.462	0.00095301
602.662	0.00100084
602.861	0.00103518
603.061	0.00102535
603.26	0.00103059
603.46	0.00106343
603.659	0.00108306
603.859	0.00105737
604.058	0.00098202
604.258	0.00094802
604.457	0.00090808
604.657	0.00088808
604.856	0.00085289
605.056	0.00085549
605.255	0.00088523
605.454	0.00091704
605.654	0.00094197
605.853	0.00097243
606.052	0.00098021
606.252	0.00101837
606.451	0.00103782
606.65	0.00102216
606.849	0.00105484
607.049	0.00102599
607.248	0.00101844
607.447	0.00101851
607.646	0.00096983
607.845	0.00092114
608.045	0.00092097
608.244	0.00089217
608.443	0.00089201
608.642	0.00091092
608.841	0.00090921
609.04	0.0009436
609.239	0.00096901
609.438	0.00096937
609.637	0.00093499
609.836	0.00095253
610.035	0.00094524
610.234	0.00093648
610.433	0.00093988
610.632	0.0009362
610.831	0.00094997
611.03	0.0009637
611.229	0.00094675
611.428	0.00092521
611.627	0.00096841
611.826	0.00095726
612.025	0.00098138
612.224	0.0009712
612.422	0.0009186
612.621	0.00094591
612.82	0.0009532
613.019	0.00090558
613.218	0.00088924
613.416	0.00084509
613.615	0.00078914
613.814	0.00081417
614.012	0.00074149
614.211	0.00071239
614.41	0.00067269
614.608	0.00066997
614.807	0.00068445
615.006	0.00070763
615.204	0.00074571
615.403	0.00079689
615.602	0.00079207
615.8	0.00084891
615.999	0.00087167
616.197	0.00087939
616.396	0.00085753
616.594	0.00082892
616.793	0.00081779
616.991	0.00081338
617.19	0.00074171
617.388	0.00073384
617.586	0.00068706
617.785	0.00074594
617.983	0.00076331
618.182	0.00076075
618.38	0.00077449
618.578	0.00084832
618.777	0.00084669
618.975	0.00088436
619.173	0.00081988
619.372	0.00081615
619.57	0.00081714
619.768	0.00081141
619.966	0.00079746
620.165	0.00077621
620.363	0.00075609
620.561	0.00082108
620.759	0.00079611
620.957	0.00082574
621.155	0.00082837
621.354	0.00081752
621.552	0.00080304
621.75	0.00076934
621.948	0.00070018
622.146	0.00072734
622.344	0.00067071
622.542	0.00065416
622.74	0.00064584
622.938	0.00064892
623.136	0.00067257
623.334	0.00069611
623.532	0.00065397
623.73	0.0006695
623.928	0.00070746
624.126	0.00071385
624.324	0.00076083
624.522	0.00080331
624.719	0.00084561
624.917	0.00089657
625.115	0.00092134
625.313	0.0008971
625.511	0.00088841
625.708	0.00087512
625.906	0.00086843
626.104	0.00086668
626.302	0.00084529
626.499	0.00082794
626.697	0.00082472
626.895	0.00081052
627.093	0.00079977
627.29	0.00078411
627.488	0.00074289
627.686	0.00069488
627.883	0.00066846
628.081	0.00065313
628.278	0.00067289
628.476	0.00064612
628.673	0.00062636
628.871	0.00060944
629.068	0.00065197
629.266	0.00067042
629.463	0.00068703
629.661	0.00068605
629.858	0.00070783
630.056	0.00070355
630.253	0.00070874
630.451	0.00068206
630.648	0.00069651
630.845	0.00068347
631.043	0.0006529
631.24	0.00062824
631.438	0.0006172
631.635	0.00064601
631.832	0.00068098
632.029	0.00064611
632.227	0.0006617
632.424	0.00067096
632.621	0.00070722
632.818	0.00072402
633.016	0.00069294
633.213	0.00067
633.41	0.00066079
633.607	0.00065695
633.804	0.0006686
634.001	0.00064218
634.199	0.00065321
634.396	0.00067746
634.593	0.00069893
634.79	0.00070202
634.987	0.00067253
635.184	0.00061072
635.381	0.00060154
635.578	0.00057657
635.775	0.00055771
635.972	0.00053906
636.169	0.00053594
636.366	0.00055557
636.563	0.0006222
636.76	0.00057987
636.957	0.00057524
637.153	0.00056439
637.35	0.00056993
637.547	0.0005718
637.744	0.00058851
637.941	0.0006091
638.138	0.00066526
638.334	0.00068348
638.531	0.00072367
638.728	0.00074218
638.925	0.00076336
639.121	0.000765
639.318	0.0007178
639.515	0.0007129
639.711	0.0006845
639.908	0.00064957
640.105	0.00062863
640.301	0.00066104
640.498	0.00064537
640.695	0.00067585
640.891	0.00069129
641.088	0.00069928
641.284	0.00073048
641.481	0.00071739
641.677	0.00068419
641.874	0.00068558
642.07	0.00066445
642.267	0.00062407
642.463	0.00063857
642.66	0.00060875
642.856	0.0006402
643.053	0.00067849
643.249	0.00071037
643.445	0.00073331
643.642	0.00075581
643.838	0.00075385
644.034	0.00076141
644.231	0.00073634
644.427	0.00069605
644.623	0.00063612
644.82	0.00059426
645.016	0.00057828
645.212	0.00058323
645.408	0.00058541
645.604	0.00059397
645.801	0.00059795
645.997	0.00060808
646.193	0.00064165
646.389	0.00065661
646.585	0.00065763
646.781	0.00066731
646.977	0.00064381
647.173	0.00062041
647.37	0.00062731
647.566	0.00062857
647.762	0.00059405
647.958	0.0005847
648.154	0.00056421
648.35	0.00059244
648.546	0.00059718
648.742	0.0005723
648.937	0.0005402
649.133	0.00056402
649.329	0.00057551
649.525	0.00058529
649.721	0.00060622
649.917	0.00063807
650.113	0.00068278
650.309	0.00075293
650.504	0.00079716
650.7	0.00077931
650.896	0.00080409
651.092	0.00079288
651.287	0.00081332
651.483	0.00082969
651.679	0.0007837
651.875	0.00077577
652.07	0.0007693
652.266	0.00073603
652.462	0.0007046
652.657	0.00068174
652.853	0.00069853
653.048	0.00076437
653.244	0.00076582
653.44	0.0007708
653.635	0.00079807
653.831	0.0008123
654.026	0.00083017
654.222	0.00079422
654.417	0.00077902
654.613	0.00079511
654.808	0.00084551
655.004	0.0008525
655.199	0.00088554
655.394	0.0008877
655.59	0.00087496
655.785	0.00081793
655.98	0.00077241
656.176	0.00072723
656.371	0.00074593
656.566	0.00067796
656.762	0.00060018
656.957	0.0005585
657.152	0.00056566
657.348	0.00055294
657.543	0.00057789
657.738	0.00053552
657.933	0.00060137
658.128	0.00065994
658.324	0.00073861
658.519	0.00076718
658.714	0.00082459
658.909	0.00084848
659.104	0.0008847
659.299	0.00088719
659.494	0.00089083
659.689	0.00086177
659.884	0.00087657
660.079	0.00081061
660.274	0.00074877
660.469	0.00072447
660.664	0.0007029
660.859	0.00070085
661.054	0.00074443
661.249	0.0007151
661.444	0.00073822
661.639	0.00075039
661.834	0.0007433
662.029	0.00072584
662.224	0.0007105
662.418	0.00071321
662.613	0.00073548
662.808	0.00077369
663.003	0.0008094
663.198	0.00082784
663.392	0.00082762
663.587	0.00083534
663.782	0.00080858
663.977	0.0007832
664.171	0.0007426
664.366	0.00075295
664.561	0.00075683
664.755	0.00082715
664.95	0.00086775
665.144	0.00083708
665.339	0.00085037
665.534	0.00083938
665.728	0.00081039
665.923	0.00077424
666.117	0.00072475
666.312	0.00073257
666.506	0.00075469
666.701	0.00077694
666.895	0.00082289
667.09	0.0008995
667.284	0.00094433
667.479	0.00096246
667.673	0.00094905
667.867	0.00095175
668.062	0.00094068
668.256	0.00091807
668.45	0.00085367
668.645	0.00081197
668.839	0.00078003
669.033	0.00076716
669.228	0.00076276
669.422	0.00077758
669.616	0.00082145
669.81	0.00083744
670.004	0.00087045
670.199	0.00087097
670.393	0.00090153
670.587	0.0009358
670.781	0.00091004
670.975	0.00088268
671.169	0.00086529
671.363	0.00081779
671.558	0.0008422
671.752	0.00081668
671.946	0.00081126
672.14	0.00080629
672.334	0.00081481
672.528	0.00077697
672.722	0.00078052
672.916	0.0007669
673.11	0.00075522
673.304	0.00074003
673.497	0.0008023
673.691	0.00081056
673.885	0.00086885
674.079	0.00089801
674.273	0.000845
674.467	0.00081339
674.661	0.00080425
674.854	0.00074673
675.048	0.0007223
675.242	0.00065535
675.436	0.00063427
675.629	0.00066302
675.823	0.00068736
676.017	0.00069225
676.211	0.00068593
676.404	0.00067778
676.598	0.00073335
676.792	0.00073285
676.985	0.00072517
677.179	0.00070119
677.372	0.00071349
677.566	0.0007279
677.76	0.00072202
677.953	0.00072436
678.147	0.00076728
678.34	0.00079388
678.534	0.00082909
678.727	0.00080583
678.921	0.00078072
679.114	0.00077172
679.307	0.00075613
679.501	0.00070795
679.694	0.00071671
679.888	0.00071072
680.081	0.00074704
680.274	0.00076812
680.468	0.00078378
680.661	0.00072679
680.854	0.00077485
681.048	0.00078904
681.241	0.00078349
681.434	0.00077752
681.627	0.00076257
681.821	0.00076171
682.014	0.00076506
682.207	0.00070837
682.4	0.00068392
682.593	0.00071271
682.786	0.00069399
682.98	0.00071956
683.173	0.00071004
683.366	0.00076145
683.559	0.00077867
683.752	0.00080962
683.945	0.00080688
684.138	0.00082327
684.331	0.00082141
684.524	0.00088112
684.717	0.00088613
684.91	0.00087573
685.103	0.00083653
685.296	0.00081744
685.489	0.00078019
685.682	0.00077303
685.874	0.00074625
686.067	0.00071026
686.26	0.00073436
686.453	0.00070296
686.646	0.00071437
686.839	0.00075212
687.031	0.00073504
687.224	0.00074499
687.417	0.00078247
687.61	0.00078689
687.802	0.00083353
687.995	0.00083979
688.188	0.00082767
688.38	0.00086136
688.573	0.00084541
688.766	0.00082448
688.958	0.00085193
689.151	0.00084291
689.343	0.00081475
689.536	0.0007816
689.729	0.00076235
689.921	0.00074412
690.114	0.00078073
690.306	0.00075716
690.499	0.00076553
690.691	0.00078506
690.884	0.00081191
691.076	0.00079972
691.268	0.00079121
691.461	0.00075755
691.653	0.00073305
691.846	0.00069829
692.038	0.00065041
692.23	0.00065168
692.423	0.00068941
692.615	0.00069842
692.807	0.00070771
692.999	0.00070714
693.192	0.00073608
693.384	0.00077171
693.576	0.00074895
693.768	0.00068932
693.961	0.00068315
694.153	0.00065759
694.345	0.00067944
694.537	0.0007
694.729	0.0007167
694.921	0.0007364
695.113	0.00077936
695.305	0.00079527
695.498	0.00083068
695.69	0.00080846
695.882	0.00078623
696.074	0.00073885
696.266	0.00072027
696.458	0.00070643
696.65	0.00067192
696.842	0.00065325
697.033	0.00067625
697.225	0.00066197
697.417	0.00064432
697.609	0.00062149
697.801	0.00059936
697.993	0.0006108
698.185	0.00062334
698.376	0.00063228
698.568	0.00067845
698.76	0.00072785
698.952	0.00075263
699.144	0.00076377
699.335	0.00076133
699.527	0.00075047
699.719	0.00074292
699.91	0.00071206
700.102	0.00072007
700.294	0.00070795
700.485	0.00068043
700.677	0.00069401
700.869	0.0006965
701.06	0.00067109
701.252	0.00068107
701.443	0.00064868
701.635	0.00061302
701.826	0.0006335
702.018	0.00063235
702.209	0.00061568
702.401	0.0006704
702.592	0.00066339
702.784	0.00064198
702.975	0.00067272
703.166	0.00069324
703.358	0.00068461
703.549	0.00066451
703.741	0.00062327
703.932	0.00058067
704.123	0.00058908
704.315	0.0005588
704.506	0.00050786
704.697	0.00051321
704.888	0.00054486
705.08	0.00054357
705.271	0.00059902
705.462	0.00062042
705.653	0.00068936
705.844	0.00075647
706.035	0.00077392
706.227	0.00077706
706.418	0.00079443
706.609	0.00079504
706.8	0.00077997
706.991	0.0007647
707.182	0.00073804
707.373	0.00074939
707.564	0.00077325
707.755	0.00078096
707.946	0.00077868
708.137	0.00078064
708.328	0.00081956
708.519	0.00082899
708.71	0.00083936
708.901	0.00083157
709.092	0.00083782
709.283	0.00083454
709.473	0.0008681
709.664	0.0008482
709.855	0.00080104
710.046	0.00074884
710.237	0.00074902
710.427	0.00075894
710.618	0.00078885
710.809	0.00078054
711	0.00073772
711.19	0.0007509
711.381	0.00077589
711.572	0.00076396
711.762	0.00074686
711.953	0.00071144
712.144	0.00069978
712.334	0.00072419
712.525	0.00071854
712.715	0.00069391
712.906	0.00070953
713.097	0.00071935
713.287	0.00072016
713.478	0.00075899
713.668	0.00075246
713.859	0.00076134
714.049	0.00076821
714.239	0.00076862
714.43	0.00074041
714.62	0.00070605
714.811	0.00065526
715.001	0.00063305
715.191	0.00062211
715.382	0.00062825
715.572	0.00057597
715.762	0.00058117
715.953	0.00062573
716.143	0.00062284
716.333	0.0006571
716.523	0.00066884
716.714	0.00065783
716.904	0.00069245
717.094	0.000705
717.284	0.00071177
717.474	0.00070903
717.664	0.00071847
717.855	0.0007365
718.045	0.00074968
718.235	0.00075353
718.425	0.00072981
718.615	0.00072367
718.805	0.00078086
718.995	0.00079812
719.185	0.00080246
719.375	0.00084672
719.565	0.00089954
719.755	0.00096895
719.945	0.00095109
720.135	0.00091101
720.325	0.00089343
720.515	0.00088437
720.704	0.00083716
720.894	0.00078855
721.084	0.00074449
721.274	0.00081043
721.464	0.00082734
721.654	0.00080108
721.843	0.00081616
722.033	0.00080897
722.223	0.00079926
722.413	0.0007969
722.602	0.00073436
722.792	0.00072525
722.982	0.00072242
723.171	0.00072441
723.361	0.0007427
723.55	0.00073763
723.74	0.00071153
723.93	0.00068728
724.119	0.00072175
724.309	0.00079208
724.498	0.00075122
724.688	0.00074391
724.877	0.0007031
725.067	0.00068593
725.256	0.00069283
725.446	0.00065931
725.635	0.00060466
725.825	0.00062956
726.014	0.00058697
726.203	0.00063789
726.393	0.00059629
726.582	0.0005854
726.771	0.00056323
726.961	0.00054107
727.15	0.00054155
727.339	0.00059528
727.529	0.00060323
727.718	0.00067036
727.907	0.00068226
728.096	0.00067791
728.286	0.00070767
728.475	0.00074811
728.664	0.00079456
728.853	0.00073182
729.042	0.00071211
729.231	0.00070999
729.42	0.00075689
729.609	0.00072881
729.799	0.00069821
729.988	0.00064709
730.177	0.00074222
730.366	0.0008123
730.555	0.00083802
730.744	0.00083297
730.933	0.00082453
731.122	0.00076142
731.31	0.00072607
731.499	0.00063444
731.688	0.00055794
731.877	0.00052474
732.066	0.00048401
732.255	0.00045192
732.444	0.00046202
732.632	0.00050001
732.821	0.00049586
733.01	0.00052904
733.199	0.00050619
733.388	0.00051202
733.576	0.00059001
733.765	0.00064533
733.954	0.00065445
734.142	0.00071697
734.331	0.00069681
734.52	0.00069345
734.708	0.00064225
734.897	0.00058361
735.086	0.00056908
735.274	0.00050585
735.463	0.00042604
735.651	0.00041455
735.84	0.00046628
736.028	0.00056657
736.217	0.00061793
736.405	0.00062691
736.594	0.00070567
736.782	0.00076092
736.971	0.00075384
737.159	0.00069458
737.347	0.00063578
737.536	0.00061133
737.724	0.00056274
737.912	0.00051886
738.101	0.00052755
738.289	0.00056822
738.477	0.00061607
738.666	0.00064006
738.854	0.00062852
739.042	0.00063692
739.23	0.00059465
739.418	0.00060006
739.607	0.00057027
739.795	0.0005579
739.983	0.00054413
740.171	0.00057128
740.359	0.00061079
740.547	0.00066714
740.735	0.00062971
740.923	0.00063621
741.112	0.00067928
741.3	0.00068409
741.488	0.00066177
741.676	0.00066366
741.864	0.00068235
742.052	0.00075596
742.239	0.00076775
742.427	0.00076442
742.615	0.00075208
742.803	0.00076303
742.991	0.00079486
743.179	0.00078552
743.367	0.00076852
743.555	0.00075352
743.742	0.00072129
743.93	0.00074698
744.118	0.00075919
744.306	0.00071767
744.494	0.00066034
744.681	0.00062443
744.869	0.00063815
745.057	0.00064782
745.244	0.00067631
745.432	0.00066593
745.62	0.00065147
745.807	0.00070869
745.995	0.00072511
746.182	0.00076432
746.37	0.00074931
746.558	0.00077122
746.745	0.00079196
746.933	0.00081462
747.12	0.00083507
747.308	0.00086481
747.495	0.00087633
747.683	0.00089692
747.87	0.0008587
748.057	0.00088356
748.245	0.00091926
748.432	0.00090567
748.62	0.00084849
748.807	0.00077995
748.994	0.0007665
749.182	0.0007679
749.369	0.00074154
749.556	0.00072016
749.743	0.00072283
749.931	0.00079351
750.118	0.00083973
750.305	0.00086247
750.492	0.00088048
750.68	0.00085059
750.867	0.00085106
751.054	0.00084996
751.241	0.00083799
751.428	0.00087744
751.615	0.00086083
751.802	0.00082985
751.989	0.00082243
752.176	0.00080503
752.363	0.00075771
752.55	0.00071636
752.737	0.00062463
752.924	0.00057813
753.111	0.00061103
753.298	0.00063146
753.485	0.00071062
753.672	0.00077256
753.859	0.00078692
754.046	0.00081007
754.233	0.00082236
754.42	0.00081367
754.606	0.000817
754.793	0.00074678
754.98	0.00074955
755.167	0.00078268
755.353	0.00081602
755.54	0.0009081
755.727	0.0009174
755.914	0.00096574
756.1	0.00098382
756.287	0.00100801
756.474	0.00099531
756.66	0.0009898
756.847	0.00102208
757.033	0.00104263
757.22	0.00102175
757.407	0.00106894
757.593	0.00107075
757.78	0.001074
757.966	0.00109454
758.153	0.00102937
758.339	0.00101018
758.526	0.00099545
758.712	0.00090298
758.898	0.00083031
759.085	0.00081304
759.271	0.00076725
759.458	0.00076737
759.644	0.00076423
759.83	0.00076148
760.017	0.0007896
760.203	0.00084468
760.389	0.00080933
760.576	0.00082339
760.762	0.00081553
760.948	0.00083246
761.134	0.00086514
761.32	0.00088351
761.507	0.00085376
761.693	0.00086057
761.879	0.00083643
762.065	0.00077784
762.251	0.00071104
762.437	0.00063918
762.623	0.00061835
762.809	0.00065687
762.995	0.00065848
763.181	0.00069709
763.367	0.0007377
763.553	0.00070134
763.739	0.00070294
763.925	0.00067987
764.111	0.00064318
764.297	0.00067203
764.483	0.00064965
764.669	0.00065531
764.855	0.00071569
765.041	0.00076574
765.227	0.00079687
765.412	0.00075245
765.598	0.0007353
765.784	0.00073947
765.97	0.000721
766.156	0.00067532
766.341	0.00062884
766.527	0.00055768
766.713	0.00049725
766.898	0.00046574
767.084	0.00043038
767.27	0.00043349
767.455	0.00047572
767.641	0.000468
767.827	0.00049893
768.012	0.00063253
768.198	0.00073378
768.383	0.00077856
768.569	0.0008311
768.754	0.00081387
768.94	0.00081428
769.125	0.00081207
769.311	0.00075336
769.496	0.00068804
769.682	0.00067225
769.867	0.000662
770.052	0.00071155
770.238	0.00077196
770.423	0.00086505
770.608	0.00089982
770.794	0.00092095
770.979	0.00092404
771.164	0.00093085
771.35	0.0009395
771.535	0.00096779
771.72	0.00097515
771.905	0.00098955
772.09	0.00101511
772.276	0.0010309
772.461	0.00104172
772.646	0.00105885
772.831	0.00100645
773.016	0.00100206
773.201	0.00096405
773.386	0.00090866
773.571	0.00089223
773.756	0.0009054
773.941	0.00083607
774.126	0.00086713
774.311	0.00081313
774.496	0.00082739
774.681	0.00089569
774.866	0.00092078
775.051	0.00086273
775.236	0.00085342
775.421	0.000795
775.606	0.00081963
775.791	0.00086215
775.976	0.00083277
776.16	0.00082816
776.345	0.00084303
776.53	0.00091886
776.715	0.0009408
776.899	0.00089572
777.084	0.00086995
777.269	0.00085844
777.454	0.00086497
777.638	0.00088862
777.823	0.00083718
778.008	0.00085722
778.192	0.00089486
778.377	0.00087462
778.561	0.00091397
778.746	0.00097278
778.931	0.00096718
779.115	0.00097658
779.3	0.00098073
779.484	0.00092135
779.669	0.00089997
779.853	0.00079078
780.037	0.00071978
780.222	0.00068294
780.406	0.00068189
780.591	0.00063365
780.775	0.00070387
780.959	0.00077725
781.144	0.00086394
781.328	0.00087593
781.512	0.00087255
781.697	0.00084501
781.881	0.00084506
782.065	0.00079632
782.249	0.0006988
782.434	0.00062103
782.618	0.00055512
782.802	0.00050761
782.986	0.00047526
783.17	0.00047104
783.354	0.00043154
783.539	0.00043625
783.723	0.00041989
783.907	0.00046919
784.091	0.00058767
784.275	0.00069526
784.459	0.00074358
784.643	0.00085311
784.827	0.00096638
785.011	0.00105116
785.195	0.00109841
785.379	0.0010335
785.563	0.00093215
785.747	0.00088535
785.93	0.00083824
786.114	0.0007863
786.298	0.00074964
786.482	0.0007037
786.666	0.00073096
786.85	0.00073002
787.033	0.0007867
787.217	0.00084843
787.401	0.00088431
787.585	0.00093583
787.768	0.00096664
787.952	0.00092039
788.136	0.00095768
788.319	0.00093439
788.503	0.00089027
788.687	0.00086781
788.87	0.00086558
789.054	0.00084918
789.237	0.00089883
789.421	0.00093402
789.605	0.00098336
789.788	0.00096393
789.972	0.00094294
790.155	0.00089215
790.338	0.00083941
790.522	0.00077097
790.705	0.000715
790.889	0.00063843
791.072	0.00063514
791.256	0.00060477
791.439	0.00064408
791.622	0.00070546
791.806	0.00078939
791.989	0.00085553
792.172	0.00088755
792.355	0.0009067
792.539	0.00097321
792.722	0.0009664
792.905	0.00094179
793.088	0.00089704
793.271	0.00085751
793.455	0.00087492
793.638	0.00090004
793.821	0.00090661
794.004	0.00092456
794.187	0.00097164
794.37	0.00101166
794.553	0.00105253
794.736	0.00099342
794.919	0.00096447
795.102	0.00093899
795.285	0.00086917
795.468	0.00076225
795.651	0.00069679
795.834	0.00072684
796.017	0.00077803
796.2	0.00076775
796.383	0.00077178
796.566	0.00086412
796.749	0.00099221
796.931	0.00103657
797.114	0.00095429
797.297	0.00090667
797.48	0.00089459
797.663	0.00080358
797.845	0.00076087
798.028	0.00066025
798.211	0.00063853
798.393	0.00072508
798.576	0.00083701
798.759	0.0008594
798.941	0.00096672
799.124	0.00101836
799.307	0.0011001
799.489	0.00113115
799.672	0.00107932
799.854	0.0009871
800.037	0.00092812
800.219	0.00090191
800.402	0.00089121
800.584	0.00088157
800.767	0.00095185
800.949	0.00098925
801.132	0.00101185
801.314	0.00106183
801.496	0.00106466
801.679	0.0010183
801.861	0.00096699
802.043	0.00089561
802.226	0.00086358
802.408	0.00089568
802.59	0.0009255
802.772	0.00099561
802.955	0.00108015
803.137	0.00113435
803.319	0.0011247
803.501	0.00110364
803.684	0.00112068
803.866	0.00106545
804.048	0.00101276
804.23	0.00090499
804.412	0.00088438
804.594	0.00088866
804.776	0.00089968
804.958	0.00089177
805.14	0.00093841
805.322	0.00088528
805.504	0.00084626
805.686	0.00077123
805.868	0.00075131
806.05	0.0007185
806.232	0.0006765
806.414	0.00065126
806.596	0.00068427
806.778	0.00075433
806.96	0.00087318
807.141	0.0009146
807.323	0.00097345
807.505	0.00104502
807.687	0.00106808
807.869	0.00110382
808.05	0.00113847
808.232	0.00109128
808.414	0.00107871
808.595	0.00102479
808.777	0.00096298
808.959	0.0009485
809.14	0.00094389
809.322	0.00094393
809.504	0.00097206
809.685	0.00097386
809.867	0.00096443
810.048	0.00096317
810.23	0.00095148
810.411	0.00090942
810.593	0.00085491
810.774	0.00079704
810.956	0.00079337
811.137	0.00078858
811.319	0.00081361
811.5	0.00078788
811.681	0.00083719
811.863	0.00088887
812.044	0.00094597
812.225	0.00091953
812.407	0.00094906
812.588	0.00089477
812.769	0.00094835
812.951	0.00090293
813.132	0.00083962
813.313	0.00077277
813.494	0.00080983
813.675	0.00087122
813.857	0.00093085
814.038	0.0009792
814.219	0.00107055
814.4	0.0011126
814.581	0.00111772
814.762	0.00112312
814.943	0.00108087
815.124	0.00110179
815.305	0.00099191
815.486	0.00089767
815.667	0.00087064
815.848	0.00084237
816.029	0.00083086
816.21	0.0007885
816.391	0.00074563
816.572	0.00085563
816.753	0.00088644
816.934	0.00091639
817.115	0.0009377
817.295	0.0009258
817.476	0.00092079
817.657	0.00082735
817.838	0.00067514
818.019	0.0006143
818.199	0.00054619
818.38	0.00055178
818.561	0.00059017
818.741	0.00064036
818.922	0.00076619
819.103	0.00083662
819.283	0.00086947
819.464	0.00087591
819.645	0.00083617
819.825	0.0007992
820.006	0.00075624
820.186	0.00072783
820.367	0.00071945
820.547	0.00073907
820.728	0.00081696
820.908	0.0008712
821.089	0.00083157
821.269	0.00083419
821.45	0.00075965
821.63	0.00074685
821.81	0.00063084
821.991	0.00055667
822.171	0.00048374
822.351	0.00045171
822.532	0.00048349
822.712	0.00057999
822.892	0.00063323
823.072	0.00074238
823.253	0.000775
823.433	0.00084171
823.613	0.00091936
823.793	0.00091041
823.973	0.00096588
824.154	0.00099248
824.334	0.00099871
824.514	0.00100955
824.694	0.00103829
824.874	0.00103037
825.054	0.00099141
825.234	0.00090926
825.414	0.00082404
825.594	0.00079114
825.774	0.00074396
825.954	0.0007517
826.134	0.00071992
826.314	0.00073857
826.494	0.0007239
826.674	0.00075591
826.854	0.00073534
827.033	0.00079806
827.213	0.00073827
827.393	0.00077106
827.573	0.00078624
827.753	0.00079705
827.932	0.00081216
828.112	0.00094127
828.292	0.00093524
828.472	0.00101843
828.651	0.00099569
828.831	0.00098885
829.011	0.00097752
829.19	0.00093119
829.37	0.00080887
829.549	0.00080247
829.729	0.00070065
829.909	0.00065048
830.088	0.0006368
830.268	0.00061426
830.447	0.00061674
830.627	0.00061646
830.806	0.00056946
830.986	0.00061292
831.165	0.00067995
831.344	0.00075019
831.524	0.00085383
831.703	0.00088407
831.883	0.00084552
832.062	0.00086915
832.241	0.00081564
832.421	0.00070679
832.6	0.00055799
832.779	0.00034733
832.958	0.00026162
833.138	0.00030195
833.317	0.00026136
833.496	0.00026945
833.675	0.00030956
833.854	0.00042985
834.034	0.000584
834.213	0.00069569
834.392	0.00074496
834.571	0.00088329
834.75	0.00091524
834.929	0.00094959
835.108	0.00093818
835.287	0.00096356
835.466	0.00100943
835.645	0.00101074
835.824	0.00099202
836.003	0.00105741
836.182	0.0011291
836.361	0.0010922
836.54	0.00104389
836.719	0.00090558
836.897	0.00078193
837.076	0.00066223
837.255	0.00065197
837.434	0.00062219
837.613	0.00062384
837.791	0.00056529
837.97	0.00068704
838.149	0.00076681
838.328	0.00087611
838.506	0.0008279
838.685	0.00078576
838.864	0.00081078
839.042	0.00085184
839.221	0.00084773
839.4	0.00076993
839.578	0.00071438
839.757	0.00076006
839.935	0.00078975
840.114	0.00073022
840.292	0.00073872
840.471	0.00061798
840.649	0.00072827
840.828	0.00077002
841.006	0.00069527
841.185	0.0007802
841.363	0.00084956
841.541	0.00092941
841.72	0.00101919
841.898	0.00103246
842.076	0.00100655
842.255	0.00111739
842.433	0.00107015
842.611	0.00108203
842.789	0.00095645
842.968	0.00086937
843.146	0.00080816
843.324	0.00077108
843.502	0.00073485
843.68	0.00066392
843.859	0.00059322
844.037	0.0006168
844.215	0.00065152
844.393	0.00063793
844.571	0.00060445
844.749	0.00049495
844.927	0.00042095
845.105	0.00040857
845.283	0.00046463
845.461	0.00049726
845.639	0.0005368
845.817	0.0005333
845.995	0.00063119
846.173	0.00075779
846.351	0.00081031
846.529	0.00072811
846.706	0.00069868
846.884	0.00066281
847.062	0.00071892
847.24	0.00065185
847.418	0.00064173
847.595	0.00063641
847.773	0.00060404
847.951	0.00059046
848.129	0.00058231
848.306	0.00049818
848.484	0.00048922
848.662	0.00056678
848.839	0.00057771
849.017	0.00065268
849.194	0.0007018
849.372	0.00070571
849.549	0.00078957
849.727	0.00079803
849.905	0.0006803
850.082	0.00062777
850.26	0.00054617
850.437	0.00055191
850.614	0.00058784
850.792	0.00060019
850.969	0.00062225
851.147	0.00071924
851.324	0.00085116
851.501	0.00097784
851.679	0.00099192
851.856	0.00097903
852.033	0.00097841
852.211	0.00096156
852.388	0.00078885
852.565	0.00060154
852.742	0.00053759
852.92	0.00046469
853.097	0.00053096
853.274	0.00052077
853.451	0.00057941
853.628	0.00066648
853.805	0.00079712
853.982	0.00078474
854.159	0.0008331
854.336	0.0007951
854.514	0.00076756
854.691	0.0006799
854.868	0.00064824
855.045	0.00056957
855.221	0.00053417
855.398	0.00047809
855.575	0.00039942
855.752	0.00041694
855.929	0.00049174
856.106	0.00059212
856.283	0.00071436
856.46	0.00079255
856.637	0.00086512
856.813	0.00097441
856.99	0.00092381
857.167	0.00082029
857.344	0.00072053
857.52	0.00054874
857.697	0.00042998
857.874	0.00030295
858.05	0.00013569
858.227	0.000147
858.404	0.00020693
858.58	0.00021874
858.757	0.00031096
858.933	0.00041773
859.11	0.00052373
859.287	0.00070859
859.463	0.00081712
859.64	0.00080341
859.816	0.00080275
859.993	0.00079554
860.169	0.00071374
860.345	0.00065415
860.522	0.00063843
860.698	0.00058997
860.875	0.00058751
861.051	0.00064383
861.227	0.00072552
861.404	0.00086315
861.58	0.00103915
861.756	0.00108121
861.932	0.00107776
862.109	0.00113367
862.285	0.00116521
862.461	0.00110849
862.637	0.00105083
862.813	0.00087702
862.99	0.00083777
863.166	0.00092455
863.342	0.00103976
863.518	0.00105381
863.694	0.00109483
863.87	0.00113065
864.046	0.00128588
864.222	0.00122505
864.398	0.00113547
864.574	0.00099971
864.75	0.00092152
864.926	0.00082931
865.102	0.00069581
865.278	0.00044858
865.454	0.00038541
865.63	0.00032385
865.805	0.00027881
865.981	0.00021634
866.157	0.0001969
866.333	0.00039803
866.509	0.00057692
866.684	0.00073231
866.86	0.00083549
867.036	0.00096427
867.212	0.00107359
867.387	0.00116229
867.563	0.00094861
867.739	0.00091153
867.914	0.00087707
868.09	0.00085939
868.265	0.00070945
868.441	0.00071722
868.617	0.00066896
868.792	0.0007475
868.968	0.00075363
869.143	0.00078215
869.319	0.0007612
869.494	0.00083804
869.67	0.00079917
869.845	0.00072858
870.02	0.00074611
870.196	0.0007242
870.371	0.00056206
870.546	0.00048341
870.722	0.00045695
870.897	0.000431
871.072	0.00045582
871.248	0.00039502
871.423	0.00038715
871.598	0.0004139
871.773	0.00042901
871.949	0.00034998
872.124	0.00040749
872.299	0.00054457
872.474	0.00058463
872.649	0.00059962
872.824	0.00054715
872.999	0.00048769
873.174	0.00050004
873.349	0.00035659
873.524	0.00018101
873.699	0.00012369
873.874	0.00008447
874.049	0.00018493
874.224	0.00037768
874.399	0.00050637
874.574	0.00060195
874.749	0.00072179
874.924	0.00084085
875.099	0.00084012
875.274	0.00084089
875.449	0.00073518
875.623	0.00062554
875.798	0.00054329
875.973	0.00044385
876.148	0.00038754
876.322	0.00036649
876.497	0.00031916
876.672	0.0004833
876.846	0.00065698
877.021	0.00074284
877.196	0.00082607
877.37	0.00082721
877.545	0.00086489
877.72	0.00087494
877.894	0.00070571
878.069	0.00053214
878.243	0.00044886
878.418	0.00048454
878.592	0.0005311
878.767	0.00050158
878.941	0.00052786
879.116	0.0004722
879.29	0.0004907
879.464	0.0005413
879.639	0.00052492
879.813	0.00052972
879.987	0.00055443
880.162	0.00065499
880.336	0.000636
880.51	0.000522
880.685	0.00053559
880.859	0.00040415
881.033	0.0002102
881.207	0.00007572
881.381	-0.00005492
881.556	0.00005863
881.73	0.00017689
881.904	0.00020353
882.078	0.00022664
882.252	0.00030121
882.426	0.00038576
882.6	0.00040762
882.774	0.0004677
882.948	0.00051596
883.122	0.00056093
883.296	0.00064117
883.47	0.00077324
883.644	0.00077554
883.818	0.00070942
883.992	0.00057663
884.166	0.00061706
884.34	0.00059358
884.514	0.00054786
884.687	0.00051705
884.861	0.000645
885.035	0.00072122
885.209	0.00073989
885.382	0.00067457
885.556	0.00053939
885.73	0.0004419
885.904	0.00029043
886.077	0.000087
886.251	0.00003928
886.425	-0.00003658
886.598	-0.00011856
886.772	-0.00013846
886.945	-0.00002432
887.119	-0.00000064
887.292	0.00009616
887.466	0.00011161
887.64	0.00020037
887.813	0.00024926
887.986	0.00031543
888.16	0.00031851
888.333	0.0004111
888.507	0.00040758
888.68	0.00033059
888.854	0.00025467
889.027	0.00027524
889.2	0.00026748
889.374	0.00025838
889.547	0.00021007
889.72	0.00020901
889.893	0.00021596
890.067	0.00026237
890.24	0.00025765
890.413	0.00018415
890.586	0.00018967
890.759	0.00022557
890.933	0.00026631
891.106	0.00043082
891.279	0.00055542
891.452	0.00059765
891.625	0.00076246
891.798	0.00077193
891.971	0.00079143
892.144	0.00075695
892.317	0.00059503
892.49	0.00049666
892.663	0.00037693
892.836	0.0002624
893.009	0.00026316
893.182	0.00015578
893.355	0.00006394
893.527	0.00008754
893.7	0.00005682
893.873	0.00005881
894.046	0.00012657
894.219	0.00016384
894.391	0.00030723
894.564	0.00042292
894.737	0.00038048
894.91	0.00036198
895.082	0.00040993
895.255	0.00032418
895.428	0.00017085
895.6	0.00007989
895.773	0.00005482
895.945	0.00008491
896.118	0.00004971
896.291	0.00004728
896.463	0.00009589
896.636	0.00007897
896.808	0.00017511
896.981	0.00025164
897.153	0.00035674
897.326	0.00042559
897.498	0.00049642
897.67	0.00042068
897.843	0.0003767
898.015	0.00017954
898.187	-0.000104
898.36	-0.00032174
898.532	-0.00049772
898.704	-0.0006455
898.877	-0.00067127
899.049	-0.00059478
899.221	-0.0004354
899.393	-0.0001884
899.566	0.00002637
899.738	0.00013143
899.91	0.00016788
900.082	0.00027186
900.254	0.00030805
900.426	0.00029573
900.598	0.00023574
900.77	0.00016737
900.942	0.00023571
901.114	0.00022853
901.286	0.00009304
901.458	0.00013224
901.63	0.00010612
901.802	0.00014215
901.974	0.0001234
902.146	0.00004381
902.318	0.00008356
902.49	0.00027464
902.662	0.00034452
902.834	0.00040144
903.005	0.0004287
903.177	0.00051753
903.349	0.00062545
903.521	0.00078425
903.693	0.00072174
903.864	0.00071005
904.036	0.00059243
904.208	0.00056626
904.379	0.00049143
904.551	0.00038818
904.723	0.00025166
904.894	0.00020228
905.066	0.00018778
905.237	0.00027107
905.409	0.00024337
905.58	0.00025684
905.752	0.00033956
905.923	0.00038587
906.095	0.00046743
906.266	0.00040707
906.438	0.00042595
906.609	0.00049854
906.78	0.00045968
906.952	0.00036572
907.123	0.00038094
907.295	0.00027366
907.466	0.00031548
907.637	0.00027435
907.808	0.00017195
907.98	0.0003434
908.151	0.00044057
908.322	0.00044885
908.493	0.00047294
908.665	0.00047609
908.836	0.00045197
909.007	0.00049784
909.178	0.00029176
909.349	0.00030897
909.52	0.0002114
909.691	0.00020241
909.862	0.00012579
910.033	0.0000745
910.204	0.0000829
910.375	0.00014251
910.546	0.00003633
910.717	0.00005209
910.888	0.0002465
911.059	0.0003226
911.23	0.00052957
911.401	0.00056666
911.572	0.00059063
911.742	0.00069428
911.913	0.00074473
912.084	0.00064106
912.255	0.00059199
912.426	0.00038484
912.596	0.00023221
912.767	0.00018007
912.938	0.00002496
913.108	-0.0001486
913.279	-0.00020025
913.45	-0.00023104
913.62	-0.00014363
913.791	-0.0000106
913.962	0.00004245
914.132	0.00016338
914.303	0.00036926
914.473	0.0004868
914.644	0.00052501
914.814	0.000538
914.985	0.00046664
915.155	0.00041937
915.326	0.00027368
915.496	0.00011931
915.666	-0.00009439
915.837	-0.0001956
916.007	-0.00024215
916.177	-0.00020183
916.348	-0.00024618
916.518	-0.00024466
916.688	-0.00020673
916.858	-0.00013314
917.029	-0.0000127
917.199	0.00005666
917.369	0.00012942
917.539	0.00024699
917.709	0.00039107
917.88	0.000361
918.05	0.00036384
918.22	0.00033413
918.39	0.00013473
918.56	-0.0000657
918.73	-0.00021695
918.9	-0.00035388
919.07	-0.00042945
919.24	-0.00047423
919.41	-0.00058094
919.58	-0.00049429
919.75	-0.0003114
919.92	-0.00031854
920.09	-0.00025265
920.26	-0.00013606
920.429	-0.00006966
920.599	0.00000131
920.769	0.00014111
920.939	0.00004446
921.109	0.00013797
921.278	0.00017504
921.448	0.00005787
921.618	0.00009344
921.787	0.00000241
921.957	-0.00002434
922.127	-0.0000065
922.296	0.00003307
922.466	0.00018165
922.636	0.00042789
922.805	0.00036825
922.975	0.0005407
923.144	0.00057004
923.314	0.00056233
923.483	0.00039782
923.653	0.00024018
923.822	0.00005644
923.992	-0.00008042
924.161	-0.00010895
924.331	-0.00024332
924.5	-0.00026894
924.669	-0.00029501
924.839	-0.00035329
925.008	-0.00041177
925.177	-0.0003225
925.347	-0.00033908
925.516	-0.0002646
925.685	-0.00016764
925.854	0.00005634
926.023	0.00006845
926.193	0.00022435
926.362	0.00012275
926.531	0.00015998
926.7	0.00002868
926.869	-0.00022198
927.038	-0.00028246
927.207	-0.00023277
927.376	-0.00015245
927.545	-0.00003785
927.715	-0.00003091
927.884	0.00004085
928.052	0.00034954
928.221	0.00037781
928.39	0.00031544
928.559	0.00026322
928.728	0.00034777
928.897	0.00027343
929.066	0.00025122
929.235	0.00004688
929.404	-0.00000561
929.572	0.0000223
929.741	-0.00002209
929.91	-0.00013791
930.079	-0.00024674
930.247	-0.00028979
930.416	-0.0002183
930.585	-0.00021924
930.753	-0.00032845
930.922	-0.00022174
931.091	-0.00007042
931.259	0.00017179
931.428	0.00033385
931.596	0.00035332
931.765	0.00037065
931.934	0.00052237
932.102	0.0002855
932.27	0.00024073
932.439	0.0001915
932.607	0.00014228
932.776	0.00007085
932.944	0.00008937
933.113	0.00000219
933.281	0.00008228
933.449	0.00001031
933.618	-0.00021627
933.786	-0.00035044
933.954	-0.00037817
934.123	-0.0004022
934.291	-0.00033373
934.459	-0.00043999
934.627	-0.00056785
934.795	-0.00057195
934.964	-0.00075743
935.132	-0.00075555
935.3	-0.00084051
935.468	-0.00087667
935.636	-0.00084561
935.804	-0.00051912
935.972	-0.00047016
936.14	-0.0003176
936.308	-0.00032981
936.476	-0.00040807
936.644	-0.0004188
936.812	-0.00054605
936.98	-0.0007023
937.148	-0.00065102
937.316	-0.00035062
937.484	-0.00029049
937.652	-0.00048075
937.82	-0.00044379
937.987	-0.00019649
938.155	-0.00045435
938.323	-0.0004716
938.491	-0.00050488
938.658	-0.00024765
938.826	-0.00006332
938.994	-0.00008563
939.162	-0.00009959
939.329	-0.00006501
939.497	-0.00021284
939.665	-0.00039412
939.832	-0.00075233
940	-0.00083636
940.167	-0.00083451
940.335	-0.00129193
940.502	-0.00140068
940.67	-0.00121151
940.837	-0.00157628
941.005	-0.00170898
941.172	-0.00101388
941.34	-0.00049603
941.507	-0.00001577
941.674	-0.00008825
941.842	-0.00023019
942.009	-0.00015443
942.177	-0.00015143
942.344	-0.00018758
942.511	-0.00063524
942.678	-0.0006899
942.846	-0.00081351
943.013	-0.00023448
943.18	0.0000243
943.347	-0.00018005
943.514	-0.00042882
943.682	-0.00135552
943.849	-0.0010578
944.016	-0.000759
944.183	-0.00107624
944.35	-0.00112502
944.517	-0.00070737
944.684	-0.00114216
944.851	-0.00074331
945.018	-0.00069409
945.185	-0.00008774
945.352	-0.00070649
945.519	-0.00066606
945.686	-0.00092558
945.853	-0.00053807
946.02	-0.00006778
946.187	-0.00011272
946.353	0.00015388
946.52	0.00142062
946.687	0.00155299
946.854	0.00128207
947.021	0.00068489
947.187	0.00029849
947.354	-0.00034546
947.521	-0.00072309
947.687	-0.00124676
947.854	-0.00193147
948.021	-0.00186157
948.187	-0.0011062
948.354	-0.00117937
948.52	-0.00048313
948.687	-0.00064992
948.854	-0.00089169
949.02	-0.00049617
949.187	-0.00070737
949.353	-0.00144185
949.52	-0.00111873
949.686	-0.00178365
949.852	-0.00214675
950.019	-0.0020561
950.185	-0.00232887
950.352	-0.00168353
950.518	-0.00108529
950.684	-0.00134303
950.851	-0.00112965
951.017	-0.00107551
951.183	-0.00071902
951.349	-0.00074375
951.516	-0.00044255
951.682	-0.00073362
951.848	-0.00088362
952.014	-0.00099161
952.18	-0.00070142
952.346	-0.00120276
952.512	-0.00080621
952.679	-0.00066615
952.845	-0.00061728
953.011	-0.00068129
953.177	-0.00026392
953.343	-0.00047007
953.509	-0.00006884
953.675	-0.00059141
953.841	-0.00094995
954.007	-0.00027007
954.172	-0.00000506
954.338	-0.0003634
954.504	-0.00051477
954.67	-0.00065696
954.836	0.00015972
955.002	-0.00025484
955.167	-0.00106273
955.333	-0.00092594
955.499	-0.000736
955.665	-0.00063705
955.83	-0.00093897
955.996	-0.0011709
956.162	-0.00106735
956.327	-0.00031816
956.493	-0.00062455
956.659	-0.00032925
956.824	0.00010643
956.99	0.00040419
957.155	-0.00009557
957.321	0.00015512
957.486	-0.00070762
957.652	-0.00075577
957.817	-0.0008336
957.983	-0.00126536
958.148	-0.0015184
958.314	-0.00120346
958.479	-0.00163561
958.644	-0.0014786
958.81	-0.00137513
958.975	-0.00181014
959.14	-0.00135986
959.306	-0.00122333
959.471	-0.00137841
959.636	-0.00121094
959.801	-0.00095347
959.967	-0.00109905
960.132	-0.00075986
960.297	-0.00090529
960.462	-0.00077297
960.627	-0.00117824
960.792	-0.00094328
960.957	-0.00129714
961.123	-0.00140286
961.288	-0.00173115
961.453	-0.00208656
961.618	-0.00194991
961.783	-0.00151777
961.948	-0.00134684
962.113	-0.00100481
962.277	-0.00069966
962.442	-0.00047953
962.607	-0.00044106
962.772	-0.00058995
962.937	-0.00074621
963.102	-0.00115337
963.267	-0.00145985
963.431	-0.00138135
963.596	-0.00130038
963.761	-0.00117179
963.926	-0.00122739
964.09	-0.00068665
964.255	-0.00049616
964.42	-0.00004275
964.584	-0.00039473
964.749	-0.00059096
964.914	-0.00047671
965.078	-0.00039528
965.243	-0.00060015
965.407	-0.00053709
965.572	-0.0007644
965.736	-0.00041314
965.901	-0.00027134
966.065	-0.00049492
966.23	-0.00040764
966.394	-0.00065148
966.559	-0.00067285
966.723	-0.00073525
966.887	-0.00064898
967.052	-0.00078963
967.216	-0.00067413
967.38	-0.00091971
967.545	-0.00051924
967.709	-0.00071546
967.873	-0.0004437
968.037	-0.00062994
968.202	-0.00066789
968.366	-0.00079741
968.53	-0.00084784
968.694	-0.00110947
968.858	-0.00103397
969.022	-0.00121499
969.187	-0.00112876
969.351	-0.00105088
969.515	-0.00084023
969.679	-0.00088602
969.843	-0.00101325
970.007	-0.00093926
970.171	-0.00056622
970.335	-0.00020161
970.499	-0.00045973
970.662	-0.00031067
970.826	-0.00029337
970.99	-0.00008415
971.154	-0.00013626
971.318	-0.00053225
971.482	-0.00089348
971.645	-0.00060247
971.809	-0.00057353
971.973	-0.00017891
972.137	-0.00033731
972.3	-0.00036757
972.464	-0.00034238
972.628	-0.00048883
972.791	-0.00055764
972.955	-0.00041057
973.119	-0.00073146
973.282	-0.00051211
973.446	-0.00044014
973.609	-0.00057578
973.773	-0.00034168
973.936	-0.00004609
974.1	-0.00047688
974.263	-0.00016497
974.427	-0.00020979
974.59	-0.00002707
974.754	0.00004948
974.917	-0.00015796
975.08	-0.00026484
975.244	-0.00025911
975.407	-0.00046683
975.57	-0.00023309
975.734	-0.00071813
975.897	-0.00055372
976.06	-0.00029482
976.223	-0.00056871
976.387	-0.00054366
976.55	-0.00045379
976.713	-0.00122767
976.876	-0.00081032
977.039	-0.00085518
977.202	-0.00115633
977.365	-0.00058486
977.528	-0.00080053
977.692	-0.00119833
977.855	-0.0009846
978.018	-0.00106507
978.181	-0.00112695
978.344	-0.00112941
978.506	-0.00172857
978.669	-0.00179229
978.832	-0.00193008
978.995	-0.00162817
979.158	-0.00162498
979.321	-0.00161159
979.484	-0.00165948
979.646	-0.00153562
979.809	-0.000967
979.972	-0.00056821
980.135	-0.00085755
980.297	-0.00092565
980.46	-0.0010618
980.623	-0.000757
980.786	-0.00062299
980.948	-0.0008581
981.111	-0.0005712
981.273	-0.0001284
981.436	-0.00020638
981.599	-0.00024433
981.761	-0.00027563
981.924	-0.00016095
982.086	-0.00016996
982.249	-0.00037662
982.411	-0.00077826
982.573	-0.00079152
982.736	-0.00035399
982.898	-0.00070142
983.061	-0.00109123
983.223	-0.00165004
983.385	-0.00177064
983.548	-0.00141747
983.71	-0.00164077
983.872	-0.00191605
984.034	-0.00209005
984.197	-0.00208727
984.359	-0.00150938
984.521	-0.0012622
984.683	-0.00169721
984.845	-0.00137403
985.008	-0.00126979
985.17	-0.00095173
985.332	-0.00084415
985.494	-0.00062588
985.656	-0.00079201
985.818	-0.00070159
985.98	-0.00057631
986.142	-0.00069116
986.304	-0.00044715
986.466	-0.00047987
986.628	-0.00046291
986.79	-0.000498
986.952	-0.00034323
987.113	-0.00091268
987.275	-0.00067318
987.437	-0.00076844
987.599	-0.00050496
987.761	-0.0007617
987.922	-0.00059192
988.084	-0.00083485
988.246	-0.00020173
988.408	-0.00050225
988.569	-0.00071545
988.731	-0.00115471
988.893	-0.00092427
989.054	-0.00077098
989.216	-0.00018457
989.377	-0.00082719
989.539	-0.00083866
989.701	-0.00072239
989.862	-0.00002582
990.024	-0.00038647
990.185	-0.0014474
990.347	-0.00142496
990.508	-0.00087409
990.669	-0.00056982
990.831	-0.00056997
990.992	-0.00114604
991.154	-0.0011582
991.315	-0.00050158
991.476	-0.00125331
991.638	-0.00100257
991.799	-0.00081218
991.96	-0.00039232
992.121	0.000185
992.283	0.00040703
992.444	0.00071163
992.605	0.00105823
992.766	0.00084004
992.927	0.0003802
993.088	0.00003829
993.249	-0.00061941
993.41	-0.00046035
993.572	-0.00078129
993.733	-0.00051357
993.894	-0.00076882
994.055	-0.00080107
994.216	-0.00106336
994.376	-0.0010159
994.537	-0.00153884
994.698	-0.00149759
994.859	-0.00166061
995.02	-0.00115335
995.181	-0.00066368
995.342	-0.00100954
995.503	-0.00091723
995.663	-0.00044034
995.824	-0.00024598
995.985	-0.00014877
996.146	-0.0006755
996.306	-0.00088897
996.467	-0.00063519
996.628	-0.00015398
996.788	0.0000686
996.949	0.00002383
997.11	-0.00018251
997.27	-0.00047122
997.431	-0.00109298
997.591	-0.00065272
997.752	-0.00108314
997.912	-0.00126282
998.073	-0.00138739
998.233	-0.00184629
998.394	-0.00138487
998.554	-0.0017802
998.714	-0.00177401
998.875	-0.00184063
999.035	-0.00221054
999.196	-0.00232995
999.356	-0.00152774
999.516	-0.00163554
999.676	-0.00162691
999.837	-0.00146987
999.997	-0.00107093
1000.157	-0.00107382
1000.317	-0.00165831
1000.477	-0.00198842
1000.638	-0.00170166
1000.798	-0.00091549
1000.958	-0.00154326
1001.118	-0.0016495
1001.278	-0.00179079
1001.438	-0.00091813
1001.598	-0.00061249
1001.758	-0.00072982
1001.918	-0.0008823
1002.078	-0.00152604
1002.238	-0.00148885
1002.398	-0.00114559
1002.558	-0.00140898
1002.718	-0.00088102
1002.878	-0.00147669
1003.037	-0.00162882
1003.197	-0.0002772
1003.357	-0.00007659
1003.517	-0.00033511
1003.677	0.0003152
1003.836	-0.00080323
1003.996	-0.0008005
1004.156	-0.00066303
1004.315	-0.00134692
1004.475	-0.00150714
1004.635	-0.0012881
1004.794	-0.00169895
1004.954	-0.00157117
1005.114	-0.00090657
1005.273	-0.00076305
1005.433	0.00047728
1005.592	-0.00083091
1005.752	-0.00133822
1005.911	-0.00182482
1006.071	-0.00173719
1006.23	-0.00118414
1006.389	-0.00070623
1006.549	-0.00131352
1006.708	-0.0006852
1006.868	-0.00059885
1007.027	-0.00073844
1007.186	-0.00008302
1007.345	-0.00105436
1007.505	-0.00167943
1007.664	-0.00208323
1007.823	-0.00235793
1007.982	-0.00258931
1008.142	-0.00238095
1008.301	-0.0030875
1008.46	-0.00197077
1008.619	-0.00197886
1008.778	-0.00252389
1008.937	-0.00163724
1009.096	-0.0012063
1009.255	-0.00087959
1009.414	-0.00098509
1009.573	-0.00186658
1009.732	-0.00076015
1009.891	0.00019211
1010.05	0.00012817
1010.209	-0.00023747
1010.368	-0.00089256
1010.527	-0.00124905
1010.686	-0.00029002
1010.845	-0.00140133
1011.003	-0.00310623
1011.162	-0.00343609
1011.321	-0.00177882
1011.48	-0.00054882
1011.638	-0.00064293
1011.797	-0.00098351
1011.956	-0.00082214
1012.115	-0.00086611
1012.273	0.00023444
1012.432	-0.00151759
1012.59	-0.0021108
1012.749	-0.00137422
1012.908	-0.00127877
1013.066	-0.00096396
1013.225	-0.00081127
1013.383	-0.00190373
1013.542	-0.00235768
1013.7	-0.00352017
1013.859	-0.00346195
1014.017	-0.00410422
1014.175	-0.00319844
1014.334	-0.00197649
1014.492	-0.00226833
1014.65	-0.00086339
1014.809	-0.00019379
1014.967	0.0005511
1015.125	-0.00105285
1015.284	-0.00192986
1015.442	-0.00097771
1015.6	-0.00042677
1015.758	0.00146687
1015.916	0.00081618
1016.075	0.00028849
1016.233	0.00121984
1016.391	0.00137516
1016.549	0.00024921
1016.707	0.00033846
1016.865	-0.0007247
1017.023	0.00092599
1017.181	0.00181259
1017.339	0.00175743
1017.497	-0.00013815
1017.655	0.00051978
1017.813	0.00042102
1017.971	-0.00131693
1018.129	-0.00218221
1018.286	-0.00487336
1018.444	-0.00393297
1018.602	-0.00408645
1018.76	-0.00317024
1018.918	-0.00494855
1019.075	-0.00371447
1019.233	-0.00488449
1019.391	-0.00403928
1019.549	-0.00574769
1019.706	-0.00555176
1019.864	-0.00527237
1020.022	-0.00333987
1020.179	-0.00438537
1020.337	-0.00270845
1020.494	-0.00311661
1020.652	-0.00155324
1020.809	-0.00023513
1020.967	-0.0003177
1021.124	-0.00001794
1021.282	-0.00009433
1021.439	-0.00091725
1021.597	-0.00053157
1021.754	-0.00073106
1021.911	0.00060015
1022.069	-0.00096001
1022.226	-0.00436231
1022.384	-0.00212583
1022.541	-0.00033089
1022.698	-0.00151666
1022.855	-0.00179096
1023.013	-0.00179635
1023.17	-0.00184488
1023.327	-0.00087597
1023.484	-0.00218016
1023.641	-0.00191441
1023.798	-0.00162514
1023.956	-0.00395637
1024.113	-0.00686438
1024.27	-0.00751973
1024.427	-0.0032868
1024.584	-0.00434073
1024.741	-0.0070725
1024.898	-0.00310468
1025.055	-0.00362481
1025.212	-0.00252537
1025.369	-0.00049311
1025.525	-0.00202374
1025.682	-0.00119266
1025.839	-0.00153406
1025.996	-0.00378625
1026.153	-0.00030358
1026.31	-0.00227681
1026.466	-0.00440315
1026.623	-0.00741763
1026.78	-0.00849545
1026.937	-0.00723799
1027.093	-0.00598611
1027.25	-0.00685664
1027.407	-0.00430106
1027.563	-0.00138047
1027.72	-0.0005788
1027.876	-0.00070822
1028.033	-0.00239847
1028.19	-0.00536152
1028.346	-0.0016305
1028.503	-0.00018712
1028.659	-0.00333641
1028.816	-0.00259724
1028.972	-0.00520495
1029.128	0.00038985
1029.285	0.00085062
1029.441	-0.00351048
1029.598	-0.00499791
1029.754	-0.00693813
1029.91	-0.00955734
1030.067	-0.00641831
1030.223	-0.01123611
1030.379	-0.01402453
1030.535	-0.0145143
1030.691	-0.01541835
1030.848	-0.01543336
1031.004	-0.01120412
1031.16	-0.01134354
1031.316	-0.01282948
1031.472	-0.00660968
1031.628	-0.00666137
1031.784	-0.00892483
1031.94	-0.01152884
1032.096	-0.0140885
1032.252	-0.01285158
1032.408	-0.007685
1032.564	-0.01209709
1032.72	-0.0123462
1032.876	-0.01068597
1033.032	-0.00715833
1033.188	-0.00413257
1033.344	-0.01089313
1033.5	-0.01807229
1033.655	-0.01805917
1033.811	-0.02065086
1033.967	-0.02393635
