Data from 0_1_mm_pl_80pc_Absorbance__0__16-35-04-572.txt Node

Date: Fri Feb 24 16:35:04 CET 2023
User: Ange
Spectrometer: FLMT08341
Trigger mode: 0
Integration Time (sec): 1.000000E-2
Scans to average: 400
Electric dark correction enabled: true
Nonlinearity correction enabled: false
Boxcar width: 3
XAxis mode: Wavelengths
Number of Pixels in Spectrum: 3648
>>>>>Begin Spectral Data<<<<<
345.271	0.02398801
345.487	0.02145681
345.704	0.04192259
345.921	0.02866573
346.137	0.04900896
346.354	0.02799469
346.571	0.02217827
346.787	-0.05312749
347.004	0.12021105
347.22	0.18573171
347.437	0.14934609
347.653	0.69843928
347.87	0.02269212
348.086	0.34373432
348.303	-0.21878502
348.519	0.42342122
348.736	0.36849569
348.952	0.37123234
349.169	0.37759657
349.385	0.39061063
349.601	0.39212777
349.818	0.38926547
350.034	0.3878412
350.251	0.39209285
350.467	0.39610149
350.683	0.38775466
350.9	0.39013463
351.116	0.38829661
351.332	0.38463456
351.549	0.39510983
351.765	0.40587556
351.981	0.41284512
352.197	0.4310975
352.414	0.44370231
352.63	0.45286475
352.846	0.46582204
353.062	0.46160544
353.278	0.45182774
353.495	0.46292137
353.711	0.46227361
353.927	0.46564098
354.143	0.46591521
354.359	0.46304127
354.575	0.46183511
354.792	0.47622598
355.008	0.46669707
355.224	0.46217684
355.44	0.46178247
355.656	0.46188784
355.872	0.4699272
356.088	0.49496389
356.304	0.49493236
356.52	0.50199503
356.736	0.51211224
356.952	0.51459811
357.168	0.51796579
357.384	0.52305364
357.6	0.50785343
357.816	0.51684858
358.032	0.5234934
358.248	0.53740116
358.464	0.54102333
358.679	0.54751783
358.895	0.54922678
359.111	0.55764571
359.327	0.55101993
359.543	0.55602204
359.759	0.55801114
359.974	0.55713171
360.19	0.55590933
360.406	0.55735167
360.622	0.55485407
360.838	0.55165648
361.053	0.55485115
361.269	0.55521469
361.485	0.55767122
361.701	0.5627122
361.916	0.55504527
362.132	0.55880713
362.348	0.5625538
362.563	0.56282462
362.779	0.558615
362.995	0.56300983
363.21	0.56824993
363.426	0.57416824
363.641	0.57582269
363.857	0.58026397
364.073	0.57545414
364.288	0.57240782
364.504	0.58455897
364.719	0.58588212
364.935	0.58618589
365.15	0.58823233
365.366	0.59184406
365.581	0.6021166
365.797	0.60470293
366.012	0.59388571
366.228	0.58537158
366.443	0.59437052
366.658	0.59388165
366.874	0.5868236
367.089	0.59083843
367.305	0.59348185
367.52	0.59441627
367.735	0.59669416
367.951	0.58799425
368.166	0.58827707
368.381	0.59882865
368.597	0.59178577
368.812	0.59298288
369.027	0.59367642
369.243	0.59491769
369.458	0.60710263
369.673	0.60811353
369.888	0.60539661
370.104	0.60225012
370.319	0.60401885
370.534	0.60034846
370.749	0.60030763
370.964	0.59902686
371.179	0.59831344
371.395	0.59573332
371.61	0.59915885
371.825	0.59452879
372.04	0.59603304
372.255	0.59269655
372.47	0.58433757
372.685	0.57747181
372.9	0.57283723
373.115	0.56720094
373.33	0.567386
373.545	0.565418
373.76	0.56612716
373.975	0.56455075
374.19	0.56400512
374.405	0.56693054
374.62	0.57141406
374.835	0.57528571
375.05	0.57688539
375.265	0.57526174
375.48	0.5770111
375.695	0.58471068
375.91	0.57963182
376.125	0.57129156
376.339	0.56223498
376.554	0.56037572
376.769	0.55912377
376.984	0.55596152
377.199	0.55433516
377.414	0.55165423
377.628	0.55519146
377.843	0.55903245
378.058	0.55748388
378.273	0.55953784
378.487	0.56027822
378.702	0.55811816
378.917	0.55866737
379.131	0.55332492
379.346	0.54524627
379.561	0.54168767
379.775	0.53705088
379.99	0.53065638
380.205	0.52456501
380.419	0.51958779
380.634	0.51483419
380.848	0.51803434
381.063	0.5165458
381.278	0.51897293
381.492	0.51543616
381.707	0.51684425
381.921	0.51543863
382.136	0.51941746
382.35	0.51507786
382.565	0.51139895
382.779	0.50829534
382.994	0.50951532
383.208	0.5054815
383.422	0.50781831
383.637	0.5039524
383.851	0.50483661
384.066	0.50593923
384.28	0.50495108
384.494	0.50298785
384.709	0.50227801
384.923	0.49881322
385.137	0.49517125
385.352	0.49286492
385.566	0.49117531
385.78	0.48736199
385.995	0.48436326
386.209	0.48061171
386.423	0.4804877
386.637	0.48092069
386.852	0.47624792
387.066	0.4734306
387.28	0.46945859
387.494	0.46948305
387.708	0.46875781
387.923	0.4665212
388.137	0.4653717
388.351	0.46555343
388.565	0.4644795
388.779	0.46491487
388.993	0.46556297
389.207	0.46484069
389.421	0.46252588
389.635	0.45891327
389.85	0.45554258
390.064	0.45338309
390.278	0.4514282
390.492	0.44885485
390.706	0.44631264
390.92	0.44423844
391.134	0.44434693
391.348	0.44582808
391.561	0.44319907
391.775	0.43998618
391.989	0.43547347
392.203	0.43464322
392.417	0.4333023
392.631	0.43306316
392.845	0.42890352
393.059	0.42894581
393.273	0.4270483
393.486	0.42502301
393.7	0.42084449
393.914	0.4195215
394.128	0.41546121
394.342	0.41319156
394.555	0.40908838
394.769	0.40678988
394.983	0.40613171
395.197	0.40565346
395.41	0.40310624
395.624	0.40181197
395.838	0.39969817
396.051	0.40010914
396.265	0.3981404
396.479	0.39658522
396.692	0.39490255
396.906	0.39256366
397.12	0.39073196
397.333	0.39062062
397.547	0.38835336
397.76	0.38751891
397.974	0.38515075
398.187	0.38381518
398.401	0.38329558
398.614	0.38113016
398.828	0.37894589
399.041	0.37718156
399.255	0.3755374
399.468	0.37398904
399.682	0.3715689
399.895	0.36977359
400.109	0.36828251
400.322	0.36582379
400.536	0.36283059
400.749	0.36225461
400.962	0.36119921
401.176	0.35915552
401.389	0.35692155
401.602	0.35442481
401.816	0.35384315
402.029	0.35328732
402.242	0.35098276
402.456	0.3490743
402.669	0.34732363
402.882	0.34499041
403.095	0.34458114
403.309	0.34239659
403.522	0.34116721
403.735	0.33887899
403.948	0.33693618
404.161	0.3374414
404.375	0.3367586
404.588	0.33529547
404.801	0.33416759
405.014	0.33184053
405.227	0.33142884
405.44	0.33114567
405.653	0.32926273
405.866	0.32689342
406.079	0.32488359
406.293	0.32311215
406.506	0.32165535
406.719	0.31995204
406.932	0.31774553
407.145	0.31529049
407.358	0.31509684
407.571	0.31317661
407.784	0.3120248
407.996	0.3110791
408.209	0.30910304
408.422	0.3072867
408.635	0.30620896
408.848	0.30460919
409.061	0.30293621
409.274	0.30133878
409.487	0.29984176
409.7	0.29866209
409.912	0.29773785
410.125	0.29628333
410.338	0.29471698
410.551	0.29366866
410.764	0.29238849
410.976	0.29066903
411.189	0.2895633
411.402	0.28765198
411.615	0.28670695
411.827	0.28550947
412.04	0.28456319
412.253	0.28290147
412.465	0.28188086
412.678	0.28064011
412.891	0.27997955
413.103	0.27803194
413.316	0.2768022
413.529	0.27584276
413.741	0.27515481
413.954	0.27409349
414.166	0.27287929
414.379	0.27168368
414.591	0.27127365
414.804	0.26986021
415.016	0.26853645
415.229	0.26715216
415.441	0.26549988
415.654	0.26454243
415.866	0.26337183
416.079	0.26228404
416.291	0.26111756
416.504	0.26042703
416.716	0.25969365
416.928	0.25924799
417.141	0.25796817
417.353	0.2569582
417.566	0.25553866
417.778	0.25466604
417.99	0.25275547
418.203	0.25126162
418.415	0.2499105
418.627	0.24910757
418.839	0.24819072
419.052	0.24768686
419.264	0.24660062
419.476	0.24600912
419.688	0.24512899
419.901	0.24387264
420.113	0.24282212
420.325	0.24164382
420.537	0.24025006
420.749	0.23962033
420.961	0.2387732
421.174	0.23760578
421.386	0.23665282
421.598	0.23550637
421.81	0.23475384
422.022	0.23375167
422.234	0.23266385
422.446	0.23127629
422.658	0.23064178
422.87	0.22986625
423.082	0.22898684
423.294	0.2280338
423.506	0.22716449
423.718	0.22628601
423.93	0.22563895
424.142	0.22436681
424.354	0.22324665
424.566	0.22237427
424.778	0.22160182
424.99	0.22075613
425.202	0.21980398
425.414	0.21876468
425.625	0.21816592
425.837	0.21735638
426.049	0.21653481
426.261	0.21552147
426.473	0.21448048
426.684	0.21345122
426.896	0.21295497
427.108	0.2120626
427.32	0.21136671
427.531	0.21051792
427.743	0.2096551
427.955	0.20897573
428.167	0.20819445
428.378	0.20737823
428.59	0.20647091
428.802	0.20574231
429.013	0.20488022
429.225	0.20394972
429.436	0.2032189
429.648	0.20280933
429.86	0.20199428
430.071	0.20142179
430.283	0.20075384
430.494	0.20003359
430.706	0.19958052
430.917	0.19885061
431.129	0.19793017
431.34	0.19723095
431.552	0.19664136
431.763	0.19595292
431.975	0.19545664
432.186	0.19459668
432.398	0.1939421
432.609	0.19299949
432.821	0.19239675
433.032	0.19170806
433.243	0.1908188
433.455	0.19010314
433.666	0.18950652
433.877	0.18904187
434.089	0.18829373
434.3	0.18759731
434.511	0.18659044
434.723	0.18609527
434.934	0.1851979
435.145	0.18452081
435.356	0.18357263
435.568	0.18309216
435.779	0.18229542
435.99	0.18175197
436.201	0.18119672
436.412	0.18076058
436.624	0.18042435
436.835	0.18014797
437.046	0.17973181
437.257	0.17902541
437.468	0.17865159
437.679	0.17797419
437.89	0.17721853
438.101	0.17647368
438.312	0.17573161
438.523	0.17501616
438.734	0.17459071
438.945	0.17394118
439.156	0.17326619
439.367	0.17293338
439.578	0.17246786
439.789	0.17190609
440	0.17133737
440.211	0.17074179
440.422	0.17021139
440.633	0.16984465
440.844	0.16901405
441.055	0.1681698
441.266	0.16761856
441.477	0.16707709
441.687	0.16645193
441.898	0.16573349
442.109	0.16496384
442.32	0.16432205
442.531	0.16372939
442.741	0.16290633
442.952	0.16231483
443.163	0.16179687
443.374	0.16135384
443.584	0.16078943
443.795	0.16034349
444.006	0.16000333
444.216	0.159446
444.427	0.15873255
444.638	0.15808126
444.848	0.15729795
445.059	0.15672018
445.27	0.15606783
445.48	0.15537538
445.691	0.15488619
445.901	0.15446334
446.112	0.15403889
446.323	0.15370475
446.533	0.15324605
446.744	0.15276268
446.954	0.15210483
447.165	0.15161324
447.375	0.15112317
447.586	0.1507624
447.796	0.15019274
448.006	0.14972697
448.217	0.14935296
448.427	0.1490035
448.638	0.14841895
448.848	0.1480047
449.058	0.147317
449.269	0.14696955
449.479	0.14634191
449.689	0.14583742
449.9	0.14529141
450.11	0.14502548
450.32	0.14464965
450.531	0.14417509
450.741	0.14368602
450.951	0.14338941
451.161	0.14289991
451.372	0.14257342
451.582	0.14235001
451.792	0.14154959
452.002	0.14109426
452.212	0.14050811
452.422	0.1400754
452.633	0.13955966
452.843	0.13910128
453.053	0.13838441
453.263	0.13813742
453.473	0.13784788
453.683	0.13749746
453.893	0.13702486
454.103	0.13681461
454.313	0.13643104
454.523	0.13598719
454.733	0.13573912
454.943	0.13538986
455.153	0.13511398
455.363	0.13471765
455.573	0.13428626
455.783	0.13399964
455.993	0.13363534
456.203	0.13328929
456.413	0.13294927
456.623	0.13247513
456.833	0.13214409
457.042	0.13169933
457.252	0.13126892
457.462	0.13088059
457.672	0.13046461
457.882	0.12994509
458.091	0.12960619
458.301	0.12918551
458.511	0.12898395
458.721	0.1286475
458.931	0.12836594
459.14	0.1280871
459.35	0.12802295
459.56	0.12788705
459.769	0.12777378
459.979	0.12748189
460.189	0.12713055
460.398	0.12680718
460.608	0.12651058
460.817	0.12591744
461.027	0.12553096
461.237	0.1250476
461.446	0.12461607
461.656	0.12444365
461.865	0.12405727
462.075	0.12368863
462.284	0.1234881
462.494	0.12312165
462.703	0.12281515
462.913	0.12254064
463.122	0.12213284
463.332	0.12194382
463.541	0.12164226
463.751	0.12125585
463.96	0.12091956
464.169	0.12064045
464.379	0.12054842
464.588	0.12031491
464.797	0.11996745
465.007	0.11974748
465.216	0.11951306
465.425	0.1194015
465.635	0.11918027
465.844	0.1187735
466.053	0.11843806
466.263	0.11827546
466.472	0.1178072
466.681	0.1176873
466.89	0.1173139
467.099	0.11705239
467.309	0.11672334
467.518	0.11667357
467.727	0.11643607
467.936	0.11633916
468.145	0.11607993
468.354	0.11578906
468.563	0.11548331
468.772	0.11524788
468.982	0.11484925
469.191	0.1145948
469.4	0.11435235
469.609	0.11405402
469.818	0.11391866
470.027	0.11377163
470.236	0.11351056
470.445	0.11331166
470.654	0.11302638
470.863	0.11278516
471.072	0.11265407
471.28	0.11235424
471.489	0.11219021
471.698	0.11201196
471.907	0.11179325
472.116	0.1115972
472.325	0.11132763
472.534	0.11107209
472.743	0.11093075
472.951	0.11065656
473.16	0.11041183
473.369	0.11019203
473.578	0.10992832
473.786	0.10985846
473.995	0.10969756
474.204	0.10957424
474.413	0.10938889
474.621	0.10933825
474.83	0.10923098
475.039	0.10917054
475.247	0.10898202
475.456	0.10883746
475.665	0.10860512
475.873	0.10848058
476.082	0.10830837
476.291	0.10815243
476.499	0.10801716
476.708	0.10782532
476.916	0.1076644
477.125	0.10748787
477.333	0.10734402
477.542	0.10719882
477.75	0.10698625
477.959	0.10682222
478.167	0.10671827
478.376	0.10654224
478.584	0.10649031
478.793	0.10640189
479.001	0.10621627
479.209	0.10612426
479.418	0.10595324
479.626	0.10585005
479.834	0.10572223
480.043	0.10559469
480.251	0.10538173
480.459	0.10529494
480.668	0.10512998
480.876	0.10502499
481.084	0.10491183
481.293	0.10484644
481.501	0.10462894
481.709	0.10459632
481.917	0.10450556
482.125	0.10446834
482.334	0.10433579
482.542	0.10420965
482.75	0.10411695
482.958	0.10414068
483.166	0.10397069
483.374	0.10392494
483.583	0.1037671
483.791	0.10374623
483.999	0.10361495
484.207	0.10353627
484.415	0.10342108
484.623	0.10335098
484.831	0.10321292
485.039	0.10317861
485.247	0.10311591
485.455	0.10308916
485.663	0.10294467
485.871	0.10285736
486.079	0.10281045
486.287	0.10274683
486.495	0.10260801
486.702	0.10246408
486.91	0.10244927
487.118	0.10239219
487.326	0.10236119
487.534	0.10231786
487.742	0.10222187
487.95	0.10222226
488.157	0.10227694
488.365	0.10224947
488.573	0.10222146
488.781	0.10217673
488.988	0.10223863
489.196	0.10220994
489.404	0.10217796
489.612	0.10207954
489.819	0.10205448
490.027	0.10205861
490.235	0.10200573
490.442	0.10187088
490.65	0.10185289
490.857	0.10180729
491.065	0.10179015
491.273	0.10171103
491.48	0.10167799
491.688	0.10162017
491.895	0.10165503
492.103	0.10167329
492.31	0.10168429
492.518	0.10165679
492.725	0.10163454
492.933	0.10161908
493.14	0.10165595
493.348	0.10163303
493.555	0.10158099
493.763	0.10159379
493.97	0.10165907
494.177	0.10168737
494.385	0.10175861
494.592	0.10174678
494.8	0.10167369
495.007	0.10167792
495.214	0.10164184
495.422	0.10163962
495.629	0.10164466
495.836	0.1016268
496.043	0.1016998
496.251	0.10175995
496.458	0.10181409
496.665	0.10192464
496.872	0.10192252
497.08	0.10195246
497.287	0.10195495
497.494	0.10194278
497.701	0.10199386
497.908	0.10205379
498.115	0.10202351
498.322	0.10201478
498.53	0.10202721
498.737	0.10205795
498.944	0.10212911
499.151	0.10218977
499.358	0.10222931
499.565	0.1022789
499.772	0.10229308
499.979	0.10232912
500.186	0.1023917
500.393	0.10241319
500.6	0.10240603
500.807	0.10242203
501.014	0.10243779
501.221	0.10258056
501.427	0.1026578
501.634	0.10269441
501.841	0.10271526
502.048	0.10274537
502.255	0.10285746
502.462	0.1029955
502.669	0.10307467
502.875	0.10309983
503.082	0.10316493
503.289	0.10321706
503.496	0.10336747
503.702	0.10339031
503.909	0.10340968
504.116	0.10345
504.323	0.10357899
504.529	0.10364339
504.736	0.10375322
504.943	0.10376993
505.149	0.10385834
505.356	0.1040081
505.563	0.10403716
505.769	0.10410382
505.976	0.10417571
506.182	0.10423414
506.389	0.10432263
506.595	0.10441585
506.802	0.10445579
507.008	0.10459828
507.215	0.10466429
507.421	0.10479263
507.628	0.10493746
507.834	0.10508399
508.041	0.10516325
508.247	0.10522873
508.454	0.1053375
508.66	0.10550535
508.866	0.10559024
509.073	0.10565887
509.279	0.10575321
509.486	0.10585963
509.692	0.10597831
509.898	0.10604671
510.105	0.10611025
510.311	0.10620271
510.517	0.1062862
510.723	0.10633643
510.93	0.10644106
511.136	0.10656694
511.342	0.10672261
511.548	0.10681713
511.754	0.10691613
511.961	0.10705239
512.167	0.10722753
512.373	0.10731538
512.579	0.10745795
512.785	0.10760096
512.991	0.10771133
513.197	0.10787326
513.404	0.10797992
513.61	0.10806479
513.816	0.10821931
514.022	0.10833053
514.228	0.10840918
514.434	0.10852959
514.64	0.1086144
514.846	0.10879321
515.052	0.10892701
515.258	0.10908429
515.464	0.1091862
515.669	0.1093709
515.875	0.10956353
516.081	0.10973327
516.287	0.10987541
516.493	0.1100359
516.699	0.1101402
516.905	0.11032877
517.111	0.1104185
517.316	0.11052593
517.522	0.1106896
517.728	0.11081947
517.934	0.11091679
518.139	0.11107064
518.345	0.11111748
518.551	0.11130236
518.757	0.11145582
518.962	0.11161963
519.168	0.11179606
519.374	0.11200561
519.579	0.11219812
519.785	0.11242235
519.991	0.11257358
520.196	0.11271101
520.402	0.11285613
520.607	0.11300097
520.813	0.1131517
521.018	0.11328115
521.224	0.11347059
521.429	0.11362358
521.635	0.11378112
521.84	0.11391578
522.046	0.11411824
522.251	0.1142865
522.457	0.11447623
522.662	0.11462393
522.868	0.11481941
523.073	0.11500414
523.279	0.11520117
523.484	0.11531847
523.689	0.11544859
523.895	0.11561341
524.1	0.11579995
524.305	0.11595397
524.511	0.11614762
524.716	0.11628908
524.921	0.11643706
525.126	0.1166451
525.332	0.11679405
525.537	0.11696686
525.742	0.11712176
525.947	0.11730612
526.153	0.11748745
526.358	0.11767525
526.563	0.11782836
526.768	0.11800078
526.973	0.11815276
527.178	0.11834183
527.383	0.11847292
527.588	0.11865488
527.794	0.11885146
527.999	0.11904271
528.204	0.11917785
528.409	0.11933508
528.614	0.11947781
528.819	0.11960942
529.024	0.11974496
529.229	0.1198791
529.434	0.12001793
529.639	0.12020465
529.843	0.12038943
530.048	0.12056781
530.253	0.12080694
530.458	0.12100577
530.663	0.12121021
530.868	0.12141097
531.073	0.1216151
531.278	0.12176617
531.482	0.12195475
531.687	0.12212382
531.892	0.12229237
532.097	0.1224511
532.302	0.12265047
532.506	0.12283032
532.711	0.12300002
532.916	0.12315542
533.12	0.12333991
533.325	0.12354441
533.53	0.12375273
533.734	0.123902
533.939	0.1240799
534.144	0.12425627
534.348	0.12444128
534.553	0.12463175
534.757	0.12483682
534.962	0.12505892
535.167	0.12525323
535.371	0.12546402
535.576	0.12569024
535.78	0.12587003
535.985	0.12601513
536.189	0.1261647
536.394	0.12629723
536.598	0.12643485
536.803	0.12651781
537.007	0.12669333
537.211	0.12691171
537.416	0.12710262
537.62	0.12732041
537.825	0.12750049
538.029	0.12775772
538.233	0.12802655
538.438	0.12822989
538.642	0.1283654
538.846	0.12856422
539.05	0.12871156
539.255	0.12886912
539.459	0.12903342
539.663	0.12916732
539.867	0.12935172
540.072	0.12955825
540.276	0.12969291
540.48	0.12989054
540.684	0.13005914
540.888	0.13023079
541.092	0.130428
541.297	0.130584
541.501	0.13077066
541.705	0.13094478
541.909	0.13110381
542.113	0.13129062
542.317	0.13146099
542.521	0.13170083
542.725	0.13185735
542.929	0.13203022
543.133	0.13226993
543.337	0.13246981
543.541	0.13268519
543.745	0.13288526
543.949	0.1330242
544.153	0.13320226
544.357	0.13335821
544.56	0.13354575
544.764	0.13369259
544.968	0.13379732
545.172	0.13391986
545.376	0.13406232
545.58	0.13419512
545.783	0.13439293
545.987	0.13456617
546.191	0.13472549
546.395	0.13495561
546.598	0.13517487
546.802	0.13536627
547.006	0.13559183
547.21	0.13575216
547.413	0.13589806
547.617	0.13605759
547.821	0.13621458
548.024	0.13633942
548.228	0.13641368
548.431	0.13655203
548.635	0.13669339
548.839	0.13680679
549.042	0.13695826
549.246	0.13708352
549.449	0.13722789
549.653	0.1374015
549.856	0.13755431
550.06	0.13769857
550.263	0.13790641
550.467	0.13803119
550.67	0.13820138
550.874	0.13837016
551.077	0.13855725
551.28	0.13874178
551.484	0.1388825
551.687	0.13895738
551.891	0.13914667
552.094	0.13920581
552.297	0.13933155
552.501	0.1394983
552.704	0.13958428
552.907	0.13969301
553.11	0.13986854
553.314	0.14005708
553.517	0.14027604
553.72	0.14042019
553.923	0.14057717
554.127	0.14075311
554.33	0.14087899
554.533	0.14103548
554.736	0.14111702
554.939	0.1412223
555.142	0.14139724
555.345	0.14145547
555.549	0.14156152
555.752	0.14173453
555.955	0.14184292
556.158	0.14201045
556.361	0.14221443
556.564	0.14233772
556.767	0.14251741
556.97	0.14270615
557.173	0.14287377
557.376	0.14300848
557.579	0.14312387
557.782	0.1432187
557.984	0.14329963
558.187	0.14341949
558.39	0.1434416
558.593	0.14350745
558.796	0.14357027
558.999	0.14364154
559.202	0.14371588
559.404	0.14381956
559.607	0.14392777
559.81	0.14403023
560.013	0.14410586
560.216	0.14425694
560.418	0.14433191
560.621	0.14439355
560.824	0.14447074
561.026	0.14455971
561.229	0.14462564
561.432	0.14474628
561.634	0.14480968
561.837	0.14496691
562.04	0.1451418
562.242	0.1453036
562.445	0.14539316
562.647	0.14558587
562.85	0.14566741
563.053	0.14577437
563.255	0.14581933
563.458	0.14589707
563.66	0.14598259
563.863	0.14613589
564.065	0.14617745
564.268	0.14630374
564.47	0.14640714
564.672	0.1465189
564.875	0.14660136
565.077	0.14661354
565.28	0.14662492
565.482	0.14672204
565.684	0.1467176
565.887	0.14673591
566.089	0.14677919
566.291	0.14685044
566.494	0.14696371
566.696	0.14703475
566.898	0.14706896
567.1	0.14715211
567.303	0.14724192
567.505	0.14730589
567.707	0.14729027
567.909	0.14728764
568.111	0.14731668
568.314	0.14737853
568.516	0.14750668
568.718	0.1475877
568.92	0.14767554
569.122	0.14774147
569.324	0.14786105
569.526	0.14788758
569.728	0.1479661
569.93	0.1479663
570.132	0.14796745
570.334	0.14800099
570.536	0.14804593
570.738	0.14803344
570.94	0.1481201
571.142	0.14813774
571.344	0.14815474
571.546	0.14820152
571.748	0.14821156
571.95	0.14823368
572.152	0.14824523
572.354	0.14828621
572.555	0.14831058
572.757	0.14833333
572.959	0.14833056
573.161	0.14833767
573.363	0.14831009
573.564	0.14841096
573.766	0.14839473
573.968	0.1484713
574.17	0.14849635
574.371	0.14854086
574.573	0.1485412
574.775	0.14860921
574.976	0.1485614
575.178	0.14858955
575.38	0.14848314
575.581	0.14844825
575.783	0.14838944
575.985	0.14842248
576.186	0.14840805
576.388	0.14840746
576.589	0.14831863
576.791	0.14839753
576.992	0.14840037
577.194	0.14842209
577.395	0.14837456
577.597	0.14843918
577.798	0.14843909
578	0.1484637
578.201	0.14844841
578.402	0.14844266
578.604	0.14835365
578.805	0.14836276
579.007	0.14823092
579.208	0.14822063
579.409	0.1481947
579.611	0.14816408
579.812	0.14818336
580.013	0.14828782
580.215	0.14821383
580.416	0.14826491
580.617	0.14824729
580.818	0.14826342
581.019	0.14819758
581.221	0.14813659
581.422	0.14805146
581.623	0.14806623
581.824	0.14796323
582.025	0.14790085
582.226	0.14781986
582.428	0.14786349
582.629	0.14780407
582.83	0.14778299
583.031	0.14772661
583.232	0.14777919
583.433	0.14779303
583.634	0.14775822
583.835	0.14766966
584.036	0.14767168
584.237	0.14761992
584.438	0.14762077
584.639	0.14755954
584.84	0.147512
585.041	0.14751644
585.242	0.1474985
585.442	0.14744346
585.643	0.14744461
585.844	0.14738657
586.045	0.14733838
586.246	0.14720582
586.447	0.14715067
586.647	0.14708755
586.848	0.14701793
587.049	0.14693119
587.25	0.14683826
587.45	0.14674057
587.651	0.1467691
587.852	0.14671095
588.053	0.14671807
588.253	0.14668738
588.454	0.14662269
588.655	0.14658523
588.855	0.14659628
589.056	0.14653711
589.256	0.14651622
589.457	0.1464471
589.658	0.14642386
589.858	0.14639883
590.059	0.14639001
590.259	0.14634646
590.46	0.14628764
590.66	0.14622599
590.861	0.14618176
591.061	0.14608112
591.262	0.14604374
591.462	0.1460181
591.662	0.1459514
591.863	0.14588278
592.063	0.1458101
592.264	0.14573146
592.464	0.14569581
592.664	0.14562905
592.865	0.14559347
593.065	0.14547183
593.265	0.14545682
593.465	0.14540081
593.666	0.14535138
593.866	0.14532787
594.066	0.14531228
594.266	0.14519013
594.467	0.14515154
594.667	0.14499649
594.867	0.14496809
595.067	0.14485975
595.267	0.14471489
595.467	0.14462631
595.668	0.14453568
595.868	0.14448968
596.068	0.14448448
596.268	0.14426913
596.468	0.14423443
596.668	0.14415574
596.868	0.14407592
597.068	0.14399513
597.268	0.14394113
597.468	0.1438216
597.668	0.1438294
597.868	0.14374465
598.068	0.14374337
598.268	0.14367226
598.467	0.14370181
598.667	0.14353418
598.867	0.14348109
599.067	0.14343585
599.267	0.14333056
599.467	0.14324893
599.667	0.14315518
599.866	0.14302852
600.066	0.14300183
600.266	0.14290734
600.466	0.1428233
600.665	0.14276481
600.865	0.1426555
601.065	0.14258708
601.264	0.14247715
601.464	0.14239708
601.664	0.1424532
601.863	0.14241485
602.063	0.14239196
602.263	0.14225389
602.462	0.14225994
602.662	0.14225251
602.861	0.1422772
603.061	0.14210993
603.26	0.14205364
603.46	0.14196797
603.659	0.14199461
603.859	0.1418362
604.058	0.14169061
604.258	0.14163986
604.457	0.14164186
604.657	0.14147262
604.856	0.1413104
605.056	0.14128096
605.255	0.14126792
605.454	0.1413411
605.654	0.1411667
605.853	0.14108296
606.052	0.14109365
606.252	0.14115784
606.451	0.14113969
606.65	0.14103894
606.849	0.1408773
607.049	0.14088138
607.248	0.14080775
607.447	0.14072364
607.646	0.14059079
607.845	0.14044378
608.045	0.14034951
608.244	0.14039194
608.443	0.14031422
608.642	0.14033266
608.841	0.14026153
609.04	0.14022949
609.239	0.14020735
609.438	0.14015112
609.637	0.14009264
609.836	0.14004684
610.035	0.13997168
610.234	0.13997926
610.433	0.13999515
610.632	0.13995307
610.831	0.14006922
611.03	0.13995925
611.229	0.13999427
611.428	0.1399923
611.627	0.13996794
611.826	0.1399343
612.025	0.14005524
612.224	0.13992223
612.422	0.13990075
612.621	0.1398839
612.82	0.13985667
613.019	0.13983772
613.218	0.13981527
613.416	0.13961416
613.615	0.13962146
613.814	0.13960933
614.012	0.13950973
614.211	0.13940464
614.41	0.13941575
614.608	0.13939957
614.807	0.13943099
615.006	0.13947922
615.204	0.13950427
615.403	0.13956132
615.602	0.13962418
615.8	0.1396783
615.999	0.13963293
616.197	0.13962397
616.396	0.13961981
616.594	0.13953527
616.793	0.13957654
616.991	0.13952369
617.19	0.13933129
617.388	0.13939292
617.586	0.13942145
617.785	0.13937592
617.983	0.13941585
618.182	0.13929884
618.38	0.13925956
618.578	0.13936409
618.777	0.13938347
618.975	0.13939913
619.173	0.13937296
619.372	0.13942662
619.57	0.13942241
619.768	0.13949622
619.966	0.13955311
620.165	0.13954507
620.363	0.139582
620.561	0.13954533
620.759	0.13955178
620.957	0.13966834
621.155	0.13971144
621.354	0.13963584
621.552	0.13965701
621.75	0.13959732
621.948	0.13970838
622.146	0.13975896
622.344	0.13970459
622.542	0.13971033
622.74	0.13978417
622.938	0.1397781
623.136	0.13989246
623.334	0.13996678
623.532	0.13984854
623.73	0.13988105
623.928	0.13995994
624.126	0.14001658
624.324	0.14010398
624.522	0.13999541
624.719	0.14000167
624.917	0.14017372
625.115	0.14017986
625.313	0.14016951
625.511	0.14024534
625.708	0.14015907
625.906	0.14026643
626.104	0.14026538
626.302	0.14037431
626.499	0.14046765
626.697	0.14053742
626.895	0.14045275
627.093	0.14055148
627.29	0.14064262
627.488	0.14068262
627.686	0.14065856
627.883	0.14066451
628.081	0.14058785
628.278	0.14083396
628.476	0.14080358
628.673	0.14081931
628.871	0.14084973
629.068	0.14088706
629.266	0.14098682
629.463	0.14104188
629.661	0.14098224
629.858	0.14103749
630.056	0.14104202
630.253	0.14105349
630.451	0.14110195
630.648	0.14116269
630.845	0.14123786
631.043	0.14120792
631.24	0.14135372
631.438	0.14148342
631.635	0.14161205
631.832	0.14159705
632.029	0.14163558
632.227	0.14171414
632.424	0.14184097
632.621	0.14191806
632.818	0.14190749
633.016	0.14198837
633.213	0.14205931
633.41	0.14215698
633.607	0.14220174
633.804	0.14224952
634.001	0.14222784
634.199	0.14238844
634.396	0.14246754
634.593	0.14252256
634.79	0.14256332
634.987	0.14267261
635.184	0.14274256
635.381	0.1428667
635.578	0.14291059
635.775	0.14287119
635.972	0.14295566
636.169	0.14299956
636.366	0.14300712
636.563	0.14306759
636.76	0.14301829
636.957	0.14306706
637.153	0.14311572
637.35	0.14319789
637.547	0.14325393
637.744	0.14338608
637.941	0.14348012
638.138	0.1436552
638.334	0.14367663
638.531	0.14381973
638.728	0.14390571
638.925	0.14411175
639.121	0.1441357
639.318	0.1441829
639.515	0.14419846
639.711	0.14431991
639.908	0.14434368
640.105	0.14437196
640.301	0.14435075
640.498	0.14441043
640.695	0.14453713
640.891	0.14460504
641.088	0.14462913
641.284	0.14473502
641.481	0.14483354
641.677	0.14486784
641.874	0.14490869
642.07	0.14497967
642.267	0.14513551
642.463	0.14526504
642.66	0.14536469
642.856	0.14542594
643.053	0.14546407
643.249	0.14562702
643.445	0.14566191
643.642	0.14570348
643.838	0.14576372
644.034	0.14582709
644.231	0.14586807
644.427	0.14602078
644.623	0.14604916
644.82	0.14615226
645.016	0.14623336
645.212	0.14622455
645.408	0.14633148
645.604	0.14653603
645.801	0.1466025
645.997	0.14669665
646.193	0.14669797
646.389	0.14681689
646.585	0.14694768
646.781	0.14702841
646.977	0.14702443
647.173	0.14703214
647.37	0.14706422
647.566	0.14718705
647.762	0.14716771
647.958	0.14728707
648.154	0.14728687
648.35	0.14736022
648.546	0.14745304
648.742	0.14761682
648.937	0.14756758
649.133	0.14772553
649.329	0.1478601
649.525	0.14793998
649.721	0.14804961
649.917	0.14824193
650.113	0.14824346
650.309	0.1485312
650.504	0.14858739
650.7	0.14855718
650.896	0.14869955
651.092	0.14876709
651.287	0.14881128
651.483	0.14904569
651.679	0.14901419
651.875	0.14917057
652.07	0.14925584
652.266	0.14932371
652.462	0.14933304
652.657	0.14940669
652.853	0.14938458
653.048	0.14953875
653.244	0.14947302
653.44	0.14956179
653.635	0.14954747
653.831	0.14971736
654.026	0.14979923
654.222	0.14980601
654.417	0.14992158
654.613	0.15001698
654.808	0.15011401
655.004	0.15028562
655.199	0.15031373
655.394	0.15033314
655.59	0.15050445
655.785	0.15040934
655.98	0.15050497
656.176	0.15050212
656.371	0.15060788
656.566	0.15065767
656.762	0.15063073
656.957	0.15064907
657.152	0.15075615
657.348	0.15079828
657.543	0.15090265
657.738	0.15092896
657.933	0.15097972
658.128	0.15111751
658.324	0.15115783
658.519	0.15126199
658.714	0.15137844
658.909	0.1514548
659.104	0.15153716
659.299	0.15163406
659.494	0.15168145
659.689	0.15179659
659.884	0.15188261
660.079	0.15186727
660.274	0.15191003
660.469	0.15192922
660.664	0.15202115
660.859	0.15211628
661.054	0.1521521
661.249	0.15218744
661.444	0.15229814
661.639	0.15230203
661.834	0.15229938
662.029	0.15231353
662.224	0.15237188
662.418	0.15248463
662.613	0.15253528
662.808	0.15256183
663.003	0.15265948
663.198	0.15274489
663.392	0.15278771
663.587	0.15293118
663.782	0.15289358
663.977	0.15294844
664.171	0.15304622
664.366	0.15315254
664.561	0.15325392
664.755	0.1534233
664.95	0.15339362
665.144	0.15344381
665.339	0.15350442
665.534	0.15353265
665.728	0.1535841
665.923	0.15363829
666.117	0.15361367
666.312	0.15364847
666.506	0.15379586
666.701	0.15378838
666.895	0.1538434
667.09	0.15388867
667.284	0.15401039
667.479	0.15406132
667.673	0.15411587
667.867	0.15412863
668.062	0.15418298
668.256	0.15421735
668.45	0.15427504
668.645	0.15421073
668.839	0.15422777
669.033	0.15426139
669.228	0.15430222
669.422	0.15440959
669.616	0.15450759
669.81	0.15457662
670.004	0.15462246
670.199	0.15472906
670.393	0.15478358
670.587	0.15479871
670.781	0.15480915
670.975	0.1548354
671.169	0.15477548
671.363	0.15479115
671.558	0.15480379
671.752	0.15486347
671.946	0.15495135
672.14	0.15497368
672.334	0.15493392
672.528	0.15508876
672.722	0.15504682
672.916	0.15506613
673.11	0.15502855
673.304	0.15511843
673.497	0.1551477
673.691	0.15526246
673.885	0.15514051
674.079	0.15528581
674.273	0.15520253
674.467	0.15527182
674.661	0.15518151
674.854	0.15519579
675.048	0.15518821
675.242	0.15528787
675.436	0.15528356
675.629	0.15538213
675.823	0.15535464
676.017	0.15543519
676.211	0.15542634
676.404	0.1554505
676.598	0.15545836
676.792	0.15547124
676.985	0.15553078
677.179	0.15558027
677.372	0.15555625
677.566	0.15571893
677.76	0.15575098
677.953	0.15579706
678.147	0.15587484
678.34	0.15590613
678.534	0.15591606
678.727	0.15596945
678.921	0.15595263
679.114	0.15587747
679.307	0.15591992
679.501	0.15589879
679.694	0.15589828
679.888	0.15593977
680.081	0.15603098
680.274	0.15597446
680.468	0.15606992
680.661	0.15602123
680.854	0.15620151
681.048	0.15628845
681.241	0.15629719
681.434	0.15622567
681.627	0.15630798
681.821	0.15633385
682.014	0.15643603
682.207	0.15627412
682.4	0.15619314
682.593	0.15626584
682.786	0.15627524
682.98	0.15622248
683.173	0.15624673
683.366	0.15624443
683.559	0.15625043
683.752	0.15636989
683.945	0.15634334
684.138	0.15638978
684.331	0.15641953
684.524	0.15651972
684.717	0.15651488
684.91	0.15663323
685.103	0.15657833
685.296	0.15665453
685.489	0.15664605
685.682	0.15664995
685.874	0.15663301
686.067	0.15663456
686.26	0.15660328
686.453	0.15658667
686.646	0.15654268
686.839	0.15657102
687.031	0.15658838
687.224	0.15649997
687.417	0.15656489
687.61	0.15652756
687.802	0.15657057
687.995	0.15663932
688.188	0.15668281
688.38	0.15672031
688.573	0.15680078
688.766	0.15675149
688.958	0.15678402
689.151	0.15674835
689.343	0.15670158
689.536	0.15662564
689.729	0.15659435
689.921	0.15658952
690.114	0.15656335
690.306	0.15657603
690.499	0.1566373
690.691	0.15668828
690.884	0.15671575
691.076	0.15674728
691.268	0.15669413
691.461	0.15665041
691.653	0.15666551
691.846	0.156623
692.038	0.15653365
692.23	0.15648712
692.423	0.15647832
692.615	0.15650204
692.807	0.15653376
692.999	0.15654097
693.192	0.15651691
693.384	0.15655744
693.576	0.15654083
693.768	0.15651678
693.961	0.15644663
694.153	0.1564162
694.345	0.15636668
694.537	0.15639747
694.729	0.15639783
694.921	0.15638487
695.113	0.15638513
695.305	0.15643333
695.498	0.15645378
695.69	0.15646978
695.882	0.15644824
696.074	0.15643732
696.266	0.15644821
696.458	0.15642226
696.65	0.15641189
696.842	0.15640159
697.033	0.15635989
697.225	0.15626528
697.417	0.15626911
697.609	0.15627366
697.801	0.15628287
697.993	0.15629147
698.185	0.15625709
698.376	0.15626588
698.568	0.1563157
698.76	0.15629191
698.952	0.15628988
699.144	0.15624556
699.335	0.15621479
699.527	0.15620448
699.719	0.15618029
699.91	0.15625022
700.102	0.15619587
700.294	0.15620254
700.485	0.15625198
700.677	0.15627302
700.869	0.15634457
701.06	0.15640735
701.252	0.15632545
701.443	0.1563584
701.635	0.15632059
701.826	0.15630766
702.018	0.15631267
702.209	0.15630485
702.401	0.15624786
702.592	0.15633073
702.784	0.15630595
702.975	0.1563575
703.166	0.15637201
703.358	0.15628862
703.549	0.15627024
703.741	0.15627143
703.932	0.15617009
704.123	0.15613083
704.315	0.15610056
704.506	0.15612996
704.697	0.15615863
704.888	0.15619037
705.08	0.15617403
705.271	0.1562427
705.462	0.15625057
705.653	0.15626716
705.844	0.15619855
706.035	0.1562279
706.227	0.15619605
706.418	0.15621606
706.609	0.15618235
706.8	0.15623078
706.991	0.15616718
707.182	0.15618534
707.373	0.15611566
707.564	0.15614105
707.755	0.15610114
707.946	0.15610807
708.137	0.15603367
708.328	0.15607419
708.519	0.15602631
708.71	0.15605866
708.901	0.15597955
709.092	0.15599066
709.283	0.15597293
709.473	0.15603571
709.664	0.15602943
709.855	0.15595401
710.046	0.15596698
710.237	0.15596356
710.427	0.15597365
710.618	0.15600761
710.809	0.15595855
711	0.15595158
711.19	0.15597659
711.381	0.15598751
711.572	0.15598835
711.762	0.15598594
711.953	0.15594203
712.144	0.15595174
712.334	0.15590374
712.525	0.15596646
712.715	0.15596093
712.906	0.15598355
713.097	0.15595878
713.287	0.1559798
713.478	0.15597293
713.668	0.15601455
713.859	0.15596182
714.049	0.15591166
714.239	0.15593379
714.43	0.15595457
714.62	0.15590031
714.811	0.1558855
715.001	0.1558869
715.191	0.1559197
715.382	0.15594588
715.572	0.15594238
715.762	0.15593421
715.953	0.15601253
716.143	0.15609667
716.333	0.15609802
716.523	0.15613133
716.714	0.15616306
716.904	0.156104
717.094	0.15618892
717.284	0.15614885
717.474	0.15606084
717.664	0.15609191
717.855	0.15606608
718.045	0.15603661
718.235	0.15609065
718.425	0.15604111
718.615	0.15605665
718.805	0.15619431
718.995	0.15627118
719.185	0.15635029
719.375	0.15644751
719.565	0.1565493
719.755	0.15660907
719.945	0.15667343
720.135	0.15666198
720.325	0.15669877
720.515	0.15675785
720.704	0.15677566
720.894	0.15679457
721.084	0.15682914
721.274	0.1568728
721.464	0.1568817
721.654	0.15684899
721.843	0.15683185
722.033	0.15682425
722.223	0.15677083
722.413	0.15679985
722.602	0.1568238
722.792	0.15686067
722.982	0.15685473
723.171	0.15684645
723.361	0.1568952
723.55	0.15698146
723.74	0.15701255
723.93	0.15698728
724.119	0.1570053
724.309	0.15710612
724.498	0.1571108
724.688	0.15713781
724.877	0.15712995
725.067	0.15709402
725.256	0.15709247
725.446	0.15711642
725.635	0.15705252
725.825	0.15705768
726.014	0.15700739
726.203	0.156982
726.393	0.15691016
726.582	0.1568783
726.771	0.15682751
726.961	0.15680933
727.15	0.15683996
727.339	0.15680161
727.529	0.15682286
727.718	0.15683658
727.907	0.156816
728.096	0.15680848
728.286	0.15681047
728.475	0.15683465
728.664	0.15690536
728.853	0.15683035
729.042	0.15680451
729.231	0.15681573
729.42	0.15680049
729.609	0.15678335
729.799	0.15668146
729.988	0.1566404
730.177	0.15667224
730.366	0.15671791
730.555	0.15670343
730.744	0.15671621
730.933	0.15670247
731.122	0.15668525
731.31	0.1566124
731.499	0.15656036
731.688	0.15654818
731.877	0.15655191
732.066	0.15651482
732.255	0.15643225
732.444	0.15647696
732.632	0.15654885
732.821	0.15653736
733.01	0.1565553
733.199	0.15651806
733.388	0.15654769
733.576	0.15665051
733.765	0.15663709
733.954	0.156638
734.142	0.15672272
734.331	0.15670803
734.52	0.15672928
734.708	0.15673198
734.897	0.15665634
735.086	0.15665479
735.274	0.15659966
735.463	0.15652097
735.651	0.15650889
735.84	0.15652444
736.028	0.15652658
736.217	0.15663344
736.405	0.15666777
736.594	0.15670952
736.782	0.15673706
736.971	0.15672968
737.159	0.15671457
737.347	0.15671656
737.536	0.15666735
737.724	0.15662404
737.912	0.15663143
738.101	0.1566667
738.289	0.15669685
738.477	0.156747
738.666	0.15673468
738.854	0.15676017
739.042	0.1567978
739.23	0.1567802
739.418	0.15678147
739.607	0.15679379
739.795	0.15677985
739.983	0.15683822
740.171	0.15687699
740.359	0.15692754
740.547	0.15696354
740.735	0.15696381
740.923	0.15699093
741.112	0.15705906
741.3	0.15707623
741.488	0.15704931
741.676	0.15709727
741.864	0.15713936
742.052	0.15721893
742.239	0.15716413
742.427	0.15713849
742.615	0.15712551
742.803	0.15711936
742.991	0.15708545
743.179	0.15704162
743.367	0.15702743
743.555	0.15706955
743.742	0.15707411
743.93	0.15708292
744.118	0.15711477
744.306	0.15710625
744.494	0.1571028
744.681	0.15708496
744.869	0.15713545
745.057	0.15717577
745.244	0.15723098
745.432	0.15729995
745.62	0.157371
745.807	0.15747645
745.995	0.15752053
746.182	0.15756786
746.37	0.15756391
746.558	0.15755699
746.745	0.15749305
746.933	0.15744961
747.12	0.15747982
747.308	0.15751657
747.495	0.15750897
747.683	0.15756491
747.87	0.15760314
748.057	0.15766646
748.245	0.15778357
748.432	0.15775983
748.62	0.15774014
748.807	0.15777382
748.994	0.15779199
749.182	0.15776632
749.369	0.1578053
749.556	0.15777426
749.743	0.15779803
749.931	0.15789588
750.118	0.15793954
750.305	0.15799766
750.492	0.15807037
750.68	0.15812521
750.867	0.15812071
751.054	0.15817519
751.241	0.15817099
751.428	0.158222
751.615	0.15819613
751.802	0.15827493
751.989	0.15824069
752.176	0.15831153
752.363	0.15830458
752.55	0.15833371
752.737	0.1583082
752.924	0.15831977
753.111	0.15832635
753.298	0.15841047
753.485	0.15846151
753.672	0.15853068
753.859	0.15857583
754.046	0.15857393
754.233	0.15856441
754.42	0.15859197
754.606	0.15862121
754.793	0.15861402
754.98	0.15861568
755.167	0.15860011
755.353	0.15866578
755.54	0.15879488
755.727	0.15877853
755.914	0.15881113
756.1	0.15881723
756.287	0.1588479
756.474	0.15884907
756.66	0.15883903
756.847	0.15889651
757.033	0.15889539
757.22	0.1588958
757.407	0.15902328
757.593	0.15912681
757.78	0.15919717
757.966	0.15932461
758.153	0.15930818
758.339	0.15938357
758.526	0.1593815
758.712	0.15931611
758.898	0.15931823
759.085	0.15934068
759.271	0.15930838
759.458	0.15935753
759.644	0.15940149
759.83	0.15948709
760.017	0.15956872
760.203	0.15959939
760.389	0.15964673
760.576	0.15966526
760.762	0.15966361
760.948	0.15967163
761.134	0.15965659
761.32	0.15963358
761.507	0.1595997
761.693	0.15963093
761.879	0.15964726
762.065	0.15964684
762.251	0.1597162
762.437	0.15976437
762.623	0.1598583
762.809	0.15994612
762.995	0.15995201
763.181	0.16000592
763.367	0.1600144
763.553	0.15992637
763.739	0.1599447
763.925	0.1599152
764.111	0.15995822
764.297	0.16004586
764.483	0.16008004
764.669	0.16014902
764.855	0.16024731
765.041	0.16029122
765.227	0.16027967
765.412	0.16020321
765.598	0.1601494
765.784	0.16015432
765.97	0.16022132
766.156	0.16023184
766.341	0.16021978
766.527	0.16024941
766.713	0.16029455
766.898	0.16036232
767.084	0.16036705
767.27	0.16034106
767.455	0.16038964
767.641	0.16043953
767.827	0.16051395
768.012	0.16056088
768.198	0.16064408
768.383	0.16070943
768.569	0.16077091
768.754	0.16076914
768.94	0.16078995
769.125	0.16083198
769.311	0.16090514
769.496	0.16083739
769.682	0.16085986
769.867	0.16092455
770.052	0.1609858
770.238	0.16105448
770.423	0.16113999
770.608	0.16116489
770.794	0.16122287
770.979	0.16122199
771.164	0.16123704
771.35	0.16125773
771.535	0.16129046
771.72	0.16127274
771.905	0.16135839
772.09	0.16136994
772.276	0.16143995
772.461	0.16143433
772.646	0.16147043
772.831	0.16146386
773.016	0.16154487
773.201	0.1614925
773.386	0.16151412
773.571	0.16154363
773.756	0.16155861
773.941	0.16157962
774.126	0.16168347
774.311	0.16160101
774.496	0.16157881
774.681	0.16162848
774.866	0.16165566
775.051	0.16165783
775.236	0.16166249
775.421	0.16161703
775.606	0.16168819
775.791	0.16172244
775.976	0.16174856
776.16	0.16173825
776.345	0.16181124
776.53	0.16193277
776.715	0.16195793
776.899	0.1619686
777.084	0.16204753
777.269	0.1620579
777.454	0.1620901
777.638	0.16208066
777.823	0.16199745
778.008	0.16197414
778.192	0.16203732
778.377	0.16201006
778.561	0.16208275
778.746	0.16220876
778.931	0.16225357
779.115	0.16232697
779.3	0.1623896
779.484	0.16233381
779.669	0.16231687
779.853	0.16220148
780.037	0.16214054
780.222	0.16213904
780.406	0.16216673
780.591	0.16218363
780.775	0.1622182
780.959	0.16235291
781.144	0.16245256
781.328	0.16249498
781.512	0.16249418
781.697	0.16244027
781.881	0.16240802
782.065	0.16240571
782.249	0.16233865
782.434	0.16232399
782.618	0.16228394
782.802	0.16228049
782.986	0.16233483
783.17	0.16235887
783.354	0.16236572
783.539	0.16236796
783.723	0.16234577
783.907	0.16236457
784.091	0.16243435
784.275	0.16247629
784.459	0.16248483
784.643	0.1625682
784.827	0.16266093
785.011	0.16276646
785.195	0.16284715
785.379	0.16286572
785.563	0.1628716
785.747	0.16290611
785.93	0.16292757
786.114	0.16283918
786.298	0.16279807
786.482	0.16271401
786.666	0.16269129
786.85	0.16263802
787.033	0.16271377
787.217	0.16271694
787.401	0.16280189
787.585	0.16283249
787.768	0.162883
787.952	0.1628709
788.136	0.16283597
788.319	0.16272398
788.503	0.16266403
788.687	0.16258277
788.87	0.16256821
789.054	0.16256295
789.237	0.16261328
789.421	0.16266299
789.605	0.16271942
789.788	0.16273043
789.972	0.16279028
790.155	0.1627811
790.338	0.16271995
790.522	0.16262298
790.705	0.16265209
790.889	0.16260467
791.072	0.16260223
791.256	0.16261836
791.439	0.16264231
791.622	0.16271601
791.806	0.16285352
791.989	0.16282628
792.172	0.16288157
792.355	0.1629283
792.539	0.1629319
792.722	0.16293389
792.905	0.16294838
793.088	0.16286842
793.271	0.16292223
793.455	0.16293234
793.638	0.16292816
793.821	0.16295406
794.004	0.16290945
794.187	0.16293652
794.37	0.16294767
794.553	0.16294461
794.736	0.16291553
794.919	0.16286902
795.102	0.16283586
795.285	0.16284001
795.468	0.16271857
795.651	0.16269562
795.834	0.16275411
796.017	0.16282378
796.2	0.16284079
796.383	0.1628585
796.566	0.16294758
796.749	0.16305004
796.931	0.16309245
797.114	0.16298005
797.297	0.16287904
797.48	0.16283675
797.663	0.16274988
797.845	0.16267095
798.028	0.16260085
798.211	0.16261162
798.393	0.1626844
798.576	0.16278407
798.759	0.16286647
798.941	0.16296025
799.124	0.16303383
799.307	0.1630949
799.489	0.1631136
799.672	0.16303394
799.854	0.16300722
800.037	0.16294271
800.219	0.16288612
800.402	0.16284636
800.584	0.16280129
800.767	0.16277801
800.949	0.1628222
801.132	0.16280796
801.314	0.16283201
801.496	0.1628626
801.679	0.1628331
801.861	0.16282155
802.043	0.1628011
802.226	0.162805
802.408	0.16279912
802.59	0.16283071
802.772	0.16289437
802.955	0.16298281
803.137	0.16301732
803.319	0.16302025
803.501	0.16298975
803.684	0.16299705
803.866	0.1628738
804.048	0.16280979
804.23	0.16271224
804.412	0.16269194
804.594	0.16262617
804.776	0.16261752
804.958	0.16266021
805.14	0.16275397
805.322	0.16269023
805.504	0.16267342
805.686	0.1625989
805.868	0.16259081
806.05	0.16254003
806.232	0.16247342
806.414	0.16244163
806.596	0.16247505
806.778	0.16247122
806.96	0.16253425
807.141	0.16255422
807.323	0.16256712
807.505	0.16255625
807.687	0.16258761
807.869	0.16260357
808.05	0.16261
808.232	0.16258751
808.414	0.16260691
808.595	0.16260067
808.777	0.16259815
808.959	0.16256691
809.14	0.16256884
809.322	0.16262856
809.504	0.16262071
809.685	0.16261054
809.867	0.16254996
810.048	0.16249117
810.23	0.16247803
810.411	0.16242161
810.593	0.16232242
810.774	0.16224845
810.956	0.162237
811.137	0.16224857
811.319	0.16227692
811.5	0.16221259
811.681	0.16218677
811.863	0.16212104
812.044	0.16211302
812.225	0.16210008
812.407	0.16211524
812.588	0.16206124
812.769	0.16205197
812.951	0.16201311
813.132	0.1620702
813.313	0.16208813
813.494	0.16203132
813.675	0.1620063
813.857	0.1620247
814.038	0.16208848
814.219	0.16210721
814.4	0.16203276
814.581	0.16202061
814.762	0.16200988
814.943	0.16200766
815.124	0.16199169
815.305	0.1618568
815.486	0.16178367
815.667	0.1617992
815.848	0.16170648
816.029	0.16168159
816.21	0.16158215
816.391	0.16150567
816.572	0.16156024
816.753	0.16157207
816.934	0.16153819
817.115	0.16156919
817.295	0.16151272
817.476	0.16145147
817.657	0.16139148
817.838	0.16134109
818.019	0.1612728
818.199	0.16113711
818.38	0.1610487
818.561	0.1610888
818.741	0.16114922
818.922	0.16119405
819.103	0.16118069
819.283	0.16120113
819.464	0.16123128
819.645	0.161251
819.825	0.16111614
820.006	0.16107531
820.186	0.16104473
820.367	0.16096884
820.547	0.16092889
820.728	0.16094157
820.908	0.16090345
821.089	0.16085417
821.269	0.16076604
821.45	0.16068308
821.63	0.16057673
821.81	0.16042502
821.991	0.16034611
822.171	0.16029506
822.351	0.16029743
822.532	0.16032657
822.712	0.16031949
822.892	0.16035419
823.072	0.16041427
823.253	0.16039659
823.433	0.16033881
823.613	0.16034265
823.793	0.16026258
823.973	0.16024543
824.154	0.16016696
824.334	0.16010651
824.514	0.16009165
824.694	0.160126
824.874	0.16002818
825.054	0.15994253
825.234	0.15987492
825.414	0.1598123
825.594	0.15976052
825.774	0.15970452
825.954	0.15964179
826.134	0.15961069
826.314	0.15959286
826.494	0.15950771
826.674	0.15950306
826.854	0.15945299
827.033	0.15943127
827.213	0.15937002
827.393	0.15927195
827.573	0.15924278
827.753	0.15923034
827.932	0.15921797
828.112	0.15928123
828.292	0.15928809
828.472	0.159242
828.651	0.15926492
828.831	0.15919584
829.011	0.15918036
829.19	0.15912445
829.37	0.1589591
829.549	0.15885574
829.729	0.15877794
829.909	0.1587045
830.088	0.15869121
830.268	0.15856975
830.447	0.15849525
830.627	0.15848983
830.806	0.15839806
830.986	0.15828473
831.165	0.15831671
831.344	0.15835108
831.524	0.15843084
831.703	0.15840416
831.883	0.15834499
832.062	0.15835362
832.241	0.15835385
832.421	0.15821779
832.6	0.15800421
832.779	0.15780951
832.958	0.15773298
833.138	0.15763531
833.317	0.15755332
833.496	0.15753397
833.675	0.15752553
833.854	0.15761336
834.034	0.15768143
834.213	0.15768024
834.392	0.15772957
834.571	0.1576674
834.75	0.1576201
834.929	0.15752839
835.108	0.15742853
835.287	0.15734831
835.466	0.15727349
835.645	0.15723977
835.824	0.15722698
836.003	0.15719107
836.182	0.15722126
836.361	0.15720905
836.54	0.15708172
836.719	0.15693688
836.897	0.15670582
837.076	0.15658198
837.255	0.15653726
837.434	0.15649002
837.613	0.15638298
837.791	0.15633846
837.97	0.15636476
838.149	0.15636949
838.328	0.15639445
838.506	0.15631098
838.685	0.15621512
838.864	0.15623704
839.042	0.15619268
839.221	0.15619033
839.4	0.15613599
839.578	0.15601907
839.757	0.15594882
839.935	0.15586305
840.114	0.15572178
840.292	0.15567031
840.471	0.15561757
840.649	0.15561193
840.828	0.15561889
841.006	0.1554946
841.185	0.15542604
841.363	0.15542733
841.541	0.15534237
841.72	0.15526573
841.898	0.15521147
842.076	0.15510096
842.255	0.1551738
842.433	0.15509834
842.611	0.15500103
842.789	0.15494282
842.968	0.15484956
843.146	0.15475723
843.324	0.15464443
843.502	0.15457034
843.68	0.15448964
843.859	0.15445149
844.037	0.15437786
844.215	0.15432666
844.393	0.15423995
844.571	0.15413895
844.749	0.15400573
844.927	0.15386931
845.105	0.15371108
845.283	0.1536602
845.461	0.15360835
845.639	0.15357139
845.817	0.15357427
845.995	0.15354215
846.173	0.15364097
846.351	0.15359487
846.529	0.15347162
846.706	0.15325996
846.884	0.15315361
847.062	0.1530431
847.24	0.15292803
847.418	0.15286348
847.595	0.15274997
847.773	0.15273284
847.951	0.15274033
848.129	0.1526341
848.306	0.15258187
848.484	0.1524501
848.662	0.15235999
848.839	0.15236208
849.017	0.15229865
849.194	0.15227105
849.372	0.15223887
849.549	0.15215828
849.727	0.15209748
849.905	0.15196154
850.082	0.15181492
850.26	0.15166673
850.437	0.15153619
850.614	0.15154528
850.792	0.15150235
850.969	0.15153907
851.147	0.15155243
851.324	0.15164976
851.501	0.15165685
851.679	0.15160894
851.856	0.15141997
852.033	0.15138224
852.211	0.15124077
852.388	0.15099505
852.565	0.15082699
852.742	0.1507372
852.92	0.15063952
853.097	0.15068082
853.274	0.15057269
853.451	0.15055042
853.628	0.15062764
853.805	0.15053689
853.982	0.15051014
854.159	0.15047195
854.336	0.15035936
854.514	0.15036439
854.691	0.15025143
854.868	0.15011356
855.045	0.15006924
855.221	0.14995776
855.398	0.14983282
855.575	0.14969159
855.752	0.14957829
855.929	0.14951856
856.106	0.14952814
856.283	0.14953265
856.46	0.14956054
856.637	0.14961896
856.813	0.14976525
856.99	0.14971475
857.167	0.14963573
857.344	0.14953558
857.52	0.1494008
857.697	0.14917788
857.874	0.14898596
858.05	0.1487544
858.227	0.14864992
858.404	0.14864884
858.58	0.14860759
858.757	0.1485731
858.933	0.14858794
859.11	0.14861129
859.287	0.14853752
859.463	0.14847014
859.64	0.14840026
859.816	0.14820455
859.993	0.14806912
860.169	0.14797855
860.345	0.14780561
860.522	0.14776145
860.698	0.14768965
860.875	0.14764895
861.051	0.147528
861.227	0.14752192
861.404	0.14747263
861.58	0.14753692
861.756	0.14752018
861.932	0.14749496
862.109	0.14734165
862.285	0.14742359
862.461	0.14725663
862.637	0.14715005
862.813	0.14704524
862.99	0.14695655
863.166	0.14684135
863.342	0.14687273
863.518	0.14678999
863.694	0.14679333
863.87	0.1467248
864.046	0.14663282
864.222	0.14647299
864.398	0.14633861
864.574	0.14609157
864.75	0.14598957
864.926	0.14579978
865.102	0.14565532
865.278	0.14540236
865.454	0.14525392
865.63	0.14520323
865.805	0.14515413
865.981	0.14500621
866.157	0.14499071
866.333	0.14497829
866.509	0.1450568
866.684	0.14504809
866.86	0.14509265
867.036	0.14498029
867.212	0.14490136
867.387	0.14491961
867.563	0.1447482
867.739	0.14459474
867.914	0.14447972
868.09	0.14435807
868.265	0.14428529
868.441	0.14427049
868.617	0.14409774
868.792	0.14404388
868.968	0.14392107
869.143	0.1440388
869.319	0.14388694
869.494	0.14381868
869.67	0.14367547
869.845	0.14356693
870.02	0.14354361
870.196	0.14351001
870.371	0.14323227
870.546	0.14316003
870.722	0.14314809
870.897	0.14308527
871.072	0.14298303
871.248	0.14286201
871.423	0.14280226
871.598	0.14272308
871.773	0.14254952
871.949	0.14236412
872.124	0.14243698
872.299	0.14234273
872.474	0.14224984
872.649	0.14213385
872.824	0.14204247
872.999	0.14197004
873.174	0.14190482
873.349	0.14158021
873.524	0.14147878
873.699	0.14133789
873.874	0.14122472
874.049	0.14112475
874.224	0.14104757
874.399	0.14103318
874.574	0.14111682
874.749	0.14115008
874.924	0.14111034
875.099	0.14104404
875.274	0.14097751
875.449	0.14095371
875.623	0.14079185
875.798	0.14062857
875.973	0.14045271
876.148	0.14034763
876.322	0.14029427
876.497	0.14012674
876.672	0.14004435
876.846	0.13998114
877.021	0.13993494
877.196	0.13987069
877.37	0.13980292
877.545	0.13975991
877.72	0.13975792
877.894	0.13968811
878.069	0.13953067
878.243	0.13933033
878.418	0.13921813
878.592	0.13913658
878.767	0.13894208
878.941	0.13892955
879.116	0.1387197
879.29	0.13868326
879.464	0.13864045
879.639	0.13851356
879.813	0.13850406
879.987	0.13850171
880.162	0.13840176
880.336	0.13836665
880.51	0.13831053
880.685	0.13823666
880.859	0.13818897
881.033	0.13792107
881.207	0.13769849
881.381	0.13759519
881.556	0.1375299
881.73	0.13732313
881.904	0.13728901
882.078	0.13716665
882.252	0.13709391
882.426	0.13709262
882.6	0.13699612
882.774	0.13706109
882.948	0.13712116
883.122	0.13703613
883.296	0.13706896
883.47	0.13718307
883.644	0.13707694
883.818	0.13697534
883.992	0.13675312
884.166	0.13678462
884.34	0.13675037
884.514	0.13665008
884.687	0.13664444
884.861	0.1367038
885.035	0.13670249
885.209	0.13673076
885.382	0.1366032
885.556	0.13643558
885.73	0.13640088
885.904	0.13618857
886.077	0.13594879
886.251	0.13581576
886.425	0.1355781
886.598	0.13546346
886.772	0.13535352
886.945	0.13518652
887.119	0.13507016
887.292	0.13512521
887.466	0.13502491
887.64	0.13499917
887.813	0.13490516
887.986	0.1348426
888.16	0.1348544
888.333	0.13474821
888.507	0.13463314
888.68	0.13458225
888.854	0.13449751
889.027	0.13439104
889.2	0.13441276
889.374	0.13431976
889.547	0.13429786
889.72	0.13433519
889.893	0.1341846
890.067	0.13405212
890.24	0.13396629
890.413	0.13373895
890.586	0.13362683
890.759	0.13363462
890.933	0.13341302
891.106	0.1335044
891.279	0.13357782
891.452	0.13357512
891.625	0.13369588
891.798	0.13361633
891.971	0.13340362
892.144	0.13335476
892.317	0.13308935
892.49	0.13281646
892.663	0.13263689
892.836	0.13244208
893.009	0.13237174
893.182	0.13241329
893.355	0.13234078
893.527	0.13238909
893.7	0.13247289
893.873	0.13237445
894.046	0.13236821
894.219	0.1323932
894.391	0.13221553
894.564	0.13214207
894.737	0.13194207
894.91	0.13185758
895.082	0.13176468
895.255	0.13158384
895.428	0.13136072
895.6	0.13128827
895.773	0.13115134
895.945	0.13110646
896.118	0.13092648
896.291	0.13094418
896.463	0.13099747
896.636	0.13084608
896.808	0.13090525
896.981	0.13089254
897.153	0.13086004
897.326	0.13087636
897.498	0.13080526
897.67	0.13059763
897.843	0.13059663
898.015	0.13043645
898.187	0.13026358
898.36	0.12999658
898.532	0.12960892
898.704	0.12947832
898.877	0.12930608
899.049	0.12917777
899.221	0.1291975
899.393	0.12920162
899.566	0.1294072
899.738	0.12967634
899.91	0.12963698
900.082	0.12976712
900.254	0.12975967
900.426	0.12958241
900.598	0.12940849
900.77	0.12926025
900.942	0.12913702
901.114	0.12903102
901.286	0.12882034
901.458	0.12881463
901.63	0.12869493
901.802	0.12876027
901.974	0.12877183
902.146	0.12870245
902.318	0.12878917
902.49	0.12880458
902.662	0.12867379
902.834	0.12869863
903.005	0.12871653
903.177	0.12863581
903.349	0.1286925
903.521	0.12856441
903.693	0.12848716
903.864	0.12846783
904.036	0.12823785
904.208	0.12790642
904.379	0.12755769
904.551	0.12729985
904.723	0.12718636
904.894	0.12704515
905.066	0.12689249
905.237	0.1269985
905.409	0.1269987
905.58	0.12706677
905.752	0.12698785
905.923	0.12683495
906.095	0.12686045
906.266	0.126805
906.438	0.12671295
906.609	0.12679181
906.78	0.12671313
906.952	0.12668235
907.123	0.12667043
907.295	0.12651219
907.466	0.12637416
907.637	0.12613481
907.808	0.12586552
907.98	0.12578109
908.151	0.12573049
908.322	0.12572628
908.493	0.12562165
908.665	0.12563041
908.836	0.12555958
909.007	0.12561259
909.178	0.12550913
909.349	0.12545118
909.52	0.12531814
909.691	0.12520255
909.862	0.12512804
910.033	0.12504675
910.204	0.12490682
910.375	0.12497747
910.546	0.12482306
910.717	0.12468504
910.888	0.12467927
911.059	0.12460509
911.23	0.12463621
911.401	0.12452081
911.572	0.12429983
911.742	0.12424973
911.913	0.12412929
912.084	0.12399698
912.255	0.12393269
912.426	0.12378481
912.596	0.12370789
912.767	0.12366652
912.938	0.12348966
913.108	0.12338721
913.279	0.12340295
913.45	0.12331507
913.62	0.123376
913.791	0.12339284
913.962	0.12333123
914.132	0.12342714
914.303	0.12349183
914.473	0.12345989
914.644	0.12334739
914.814	0.12323667
914.985	0.12313934
915.155	0.12297553
915.326	0.12271339
915.496	0.12249436
915.666	0.12224294
915.837	0.12223418
916.007	0.12190798
916.177	0.12175456
916.348	0.12176173
916.518	0.12173423
916.688	0.12173098
916.858	0.12180343
917.029	0.12170863
917.199	0.12175137
917.369	0.12167158
917.539	0.12176952
917.709	0.12177718
917.88	0.12167147
918.05	0.12142349
918.22	0.12127979
918.39	0.12120707
918.56	0.12108027
918.73	0.12080258
918.9	0.12061186
919.07	0.12041328
919.24	0.12035448
919.41	0.12023829
919.58	0.1201879
919.75	0.12025418
919.92	0.12010264
920.09	0.12011155
920.26	0.12012817
920.429	0.12018146
920.599	0.12005953
920.769	0.11998002
920.939	0.11976218
921.109	0.11968003
921.278	0.11952083
921.448	0.11938424
921.618	0.1193573
921.787	0.11923586
921.957	0.11916359
922.127	0.11903483
922.296	0.11909367
922.466	0.11911485
922.636	0.1192171
922.805	0.11900961
922.975	0.11914542
923.144	0.11908287
923.314	0.11913836
923.483	0.11909581
923.653	0.11895157
923.822	0.11872983
923.992	0.11870012
924.161	0.11854392
924.331	0.11851685
924.5	0.11825373
924.669	0.11796527
924.839	0.11785229
925.008	0.11771611
925.177	0.11744562
925.347	0.11732707
925.516	0.11714574
925.685	0.1173346
925.854	0.11744607
926.023	0.11739522
926.193	0.11759271
926.362	0.11755323
926.531	0.11748926
926.7	0.11746514
926.869	0.11727347
927.038	0.11712212
927.207	0.1170069
927.376	0.11685916
927.545	0.11698306
927.715	0.11701748
927.884	0.11688683
928.052	0.1170261
928.221	0.11714435
928.39	0.11715433
928.559	0.11717898
928.728	0.11710622
928.897	0.11725198
929.066	0.11745139
929.235	0.11727223
929.404	0.11720854
929.572	0.11726556
929.741	0.11724087
929.91	0.11711439
930.079	0.11681768
930.247	0.11665288
930.416	0.11676223
930.585	0.11680722
930.753	0.11664206
930.922	0.11658423
931.091	0.11682148
931.259	0.11684856
931.428	0.11693264
931.596	0.11678859
931.765	0.11663381
931.934	0.11677163
932.102	0.11638202
932.27	0.11625671
932.439	0.11613462
932.607	0.11593136
932.776	0.11594755
932.944	0.11571112
933.113	0.11534856
933.281	0.11536337
933.449	0.11509407
933.618	0.11480732
933.786	0.11460289
933.954	0.11415034
934.123	0.11414242
934.291	0.11417318
934.459	0.11405199
934.627	0.11402115
934.795	0.11420487
934.964	0.11407504
935.132	0.11428061
935.3	0.11415035
935.468	0.11430222
935.636	0.11448072
935.804	0.11446283
935.972	0.11414856
936.14	0.1143082
936.308	0.11395967
936.476	0.11384709
936.644	0.11367483
936.812	0.11342935
936.98	0.1134072
937.148	0.11344089
937.316	0.11321295
937.484	0.11384371
937.652	0.11355154
937.82	0.11384655
937.987	0.11365629
938.155	0.1135937
938.323	0.11398162
938.491	0.11392061
938.658	0.11376649
938.826	0.11433429
938.994	0.11378636
939.162	0.1142392
939.329	0.11437761
939.497	0.11393722
939.665	0.11409651
939.832	0.11413471
940	0.11440848
940.167	0.11482859
940.335	0.11425012
940.502	0.11333732
940.67	0.11402229
940.837	0.11399289
941.005	0.11355336
941.172	0.11258132
941.34	0.11264862
941.507	0.11381614
941.674	0.11478278
941.842	0.11454972
942.009	0.11508376
942.177	0.11486716
942.344	0.1164679
942.511	0.11659024
942.678	0.11603428
942.846	0.11605613
943.013	0.1162312
943.18	0.11611154
943.347	0.11619442
943.514	0.11525592
943.682	0.11467191
943.849	0.11442864
944.016	0.11400909
944.183	0.11360381
944.35	0.1133305
944.517	0.11393683
944.684	0.11373513
944.851	0.11242345
945.018	0.1130793
945.185	0.11272603
945.352	0.11253005
945.519	0.11266548
945.686	0.11170426
945.853	0.11243851
946.02	0.11313516
946.187	0.11296062
946.353	0.11427715
946.52	0.11419932
946.687	0.11332952
946.854	0.11420741
947.021	0.11335374
947.187	0.11247001
947.354	0.11191153
947.521	0.11129216
947.687	0.11080524
947.854	0.11156319
948.021	0.11120295
948.187	0.11136807
948.354	0.11197812
948.52	0.11136041
948.687	0.11182982
948.854	0.11181676
949.02	0.11069158
949.187	0.1105352
949.353	0.1106229
949.52	0.11096628
949.686	0.11110249
949.852	0.11052564
950.019	0.11114858
950.185	0.11216552
950.352	0.11223207
950.518	0.11200535
950.684	0.11162949
950.851	0.1119065
951.017	0.1112716
951.183	0.11026523
951.349	0.10958694
951.516	0.10876084
951.682	0.10830254
951.848	0.10775572
952.014	0.10731126
952.18	0.10757085
952.346	0.10755116
952.512	0.10765409
952.679	0.10835237
952.845	0.10785209
953.011	0.10767131
953.177	0.10785667
953.343	0.10724667
953.509	0.10836044
953.675	0.10798699
953.841	0.10747775
954.007	0.10832686
954.172	0.10870092
954.338	0.10808697
954.504	0.10745444
954.67	0.10617433
954.836	0.10727947
955.002	0.10785272
955.167	0.10707949
955.333	0.1071521
955.499	0.10722412
955.665	0.10759924
955.83	0.10803598
955.996	0.10738011
956.162	0.10624215
956.327	0.10659772
956.493	0.10606349
956.659	0.10684668
956.824	0.10735037
956.99	0.10691425
957.155	0.10621641
957.321	0.10640841
957.486	0.10620322
957.652	0.10643894
957.817	0.10599826
957.983	0.10558095
958.148	0.10532768
958.314	0.10550202
958.479	0.10502936
958.644	0.1050163
958.81	0.10508477
958.975	0.1048881
959.14	0.10483209
959.306	0.10494799
959.471	0.10442837
959.636	0.10417424
959.801	0.10430669
959.967	0.10402769
960.132	0.10439407
960.297	0.10417398
960.462	0.10454951
960.627	0.10436878
960.792	0.10493114
960.957	0.10464142
961.123	0.10440573
961.288	0.10388445
961.453	0.10446818
961.618	0.10441463
961.783	0.10503948
961.948	0.10488482
962.113	0.10508456
962.277	0.10487345
962.442	0.1050841
962.607	0.10450631
962.772	0.10400354
962.937	0.10335556
963.102	0.10339238
963.267	0.10300671
963.431	0.10324141
963.596	0.10280123
963.761	0.10267915
963.926	0.10279153
964.09	0.10366803
964.255	0.10379403
964.42	0.10373187
964.584	0.10362203
964.749	0.10342951
964.914	0.10318394
965.078	0.10274223
965.243	0.10202892
965.407	0.10156561
965.572	0.10129285
965.736	0.10180096
965.901	0.10256371
966.065	0.10288668
966.23	0.10339604
966.394	0.10342878
966.559	0.10373396
966.723	0.10372216
966.887	0.10345755
967.052	0.10265575
967.216	0.10248313
967.38	0.10169129
967.545	0.10170745
967.709	0.10165849
967.873	0.10195762
968.037	0.10183291
968.202	0.10216631
968.366	0.10199505
968.53	0.10249943
968.694	0.10246492
968.858	0.10195954
969.022	0.10149856
969.187	0.10099303
969.351	0.10073285
969.515	0.10106255
969.679	0.10060023
969.843	0.09997679
970.007	0.09979939
970.171	0.09999299
970.335	0.10036263
970.499	0.10018084
970.662	0.10005939
970.826	0.10039435
970.99	0.10085621
971.154	0.10098528
971.318	0.10099681
971.482	0.10008471
971.645	0.10002587
971.809	0.09979535
971.973	0.09982321
972.137	0.09986533
972.3	0.10014567
972.464	0.10024596
972.628	0.10097814
972.791	0.10105112
972.955	0.10109799
973.119	0.10072164
973.282	0.10041467
973.446	0.10037963
973.609	0.10032097
973.773	0.10015313
973.936	0.10004509
974.1	0.09956067
974.263	0.10005251
974.427	0.09991993
974.59	0.09982647
974.754	0.09959478
974.917	0.09938222
975.08	0.09961313
975.244	0.09958203
975.407	0.09933208
975.57	0.0996872
975.734	0.09931785
975.897	0.0994129
976.06	0.09965933
976.223	0.09944897
976.387	0.09977373
976.55	0.09952055
976.713	0.09899846
976.876	0.09939661
977.039	0.09867203
977.202	0.09822628
977.365	0.09799331
977.528	0.09776842
977.692	0.09761648
977.855	0.09696918
978.018	0.0966774
978.181	0.0972221
978.344	0.09747726
978.506	0.097242
978.669	0.09700968
978.832	0.09679619
978.995	0.09781673
979.158	0.09749032
979.321	0.09722951
979.484	0.09644125
979.646	0.09660302
979.809	0.0973181
979.972	0.09737448
980.135	0.09748864
980.297	0.09770062
980.46	0.09729194
980.623	0.09819668
980.786	0.09827529
980.948	0.09751235
981.111	0.09780931
981.273	0.09757109
981.436	0.09753055
981.599	0.09774301
981.761	0.09747834
981.924	0.09790958
982.086	0.09834244
982.249	0.09814754
982.411	0.09816404
982.573	0.09837768
982.736	0.0990777
982.898	0.09849017
983.061	0.09800768
983.223	0.09752707
983.385	0.09711453
983.548	0.09703246
983.71	0.0960984
983.872	0.0954604
984.034	0.09569888
984.197	0.09488831
984.359	0.09491629
984.521	0.0952977
984.683	0.09512233
984.845	0.09586647
985.008	0.09590685
985.17	0.09580691
985.332	0.096727
985.494	0.09673222
985.656	0.09669986
985.818	0.09660989
985.98	0.09666677
986.142	0.09645892
986.304	0.09665189
986.466	0.0958649
986.628	0.09598452
986.79	0.09597983
986.952	0.0954536
987.113	0.09478128
987.275	0.09470372
987.437	0.09452343
987.599	0.09499368
987.761	0.09477487
987.922	0.09449442
988.084	0.09466331
988.246	0.09483743
988.408	0.09520719
988.569	0.09502122
988.731	0.09507259
988.893	0.09496413
989.054	0.09521617
989.216	0.09544344
989.377	0.0951317
989.539	0.09441262
989.701	0.0944679
989.862	0.09454179
990.024	0.09494034
990.185	0.09407764
990.347	0.09426816
990.508	0.0939567
990.669	0.094593
990.831	0.09463359
990.992	0.09432255
991.154	0.09381928
991.315	0.09443123
991.476	0.09436316
991.638	0.09490464
991.799	0.09485325
991.96	0.09531121
992.121	0.09519363
992.283	0.09520479
992.444	0.09566346
992.605	0.0953566
992.766	0.09570312
992.927	0.09530566
993.088	0.09450657
993.249	0.09400187
993.41	0.09398669
993.572	0.09364773
993.733	0.09368302
993.894	0.09346351
994.055	0.09252239
994.216	0.09246245
994.376	0.09201272
994.537	0.09234979
994.698	0.0923947
994.859	0.09201952
995.02	0.09191086
995.181	0.0921318
995.342	0.09214924
995.503	0.09317524
995.663	0.09365229
995.824	0.09350032
995.985	0.09468992
996.146	0.09474388
996.306	0.09579437
996.467	0.09584297
996.628	0.09634513
996.788	0.0950309
996.949	0.09470199
997.11	0.09406403
997.27	0.09364861
997.431	0.09300288
997.591	0.0930515
997.752	0.09169787
997.912	0.09223453
998.073	0.09240605
998.233	0.09212419
998.394	0.09225625
998.554	0.09156543
998.714	0.09136708
998.875	0.09168468
999.035	0.09184912
999.196	0.09100691
999.356	0.09065557
999.516	0.0914582
999.676	0.09276576
999.837	0.09331107
999.997	0.09305559
1000.157	0.09243367
1000.317	0.09245847
1000.477	0.09181383
1000.638	0.09035349
1000.798	0.09050278
1000.958	0.08996307
1001.118	0.09068097
1001.278	0.09088136
1001.438	0.09121384
1001.598	0.09265925
1001.758	0.0934952
1001.918	0.09311106
1002.078	0.09202898
1002.238	0.09179924
1002.398	0.09175541
1002.558	0.09169708
1002.718	0.09148158
1002.878	0.09180112
1003.037	0.08999903
1003.197	0.09164906
1003.357	0.09113029
1003.517	0.09120586
1003.677	0.09073878
1003.836	0.0903073
1003.996	0.08990596
1004.156	0.09081701
1004.315	0.09031851
1004.475	0.09143284
1004.635	0.09187934
1004.794	0.09270583
1004.954	0.09351195
1005.114	0.09351987
1005.273	0.09511203
1005.433	0.09524748
1005.592	0.0951146
1005.752	0.09514415
1005.911	0.09484855
1006.071	0.09492857
1006.23	0.09465418
1006.389	0.09314371
1006.549	0.09272625
1006.708	0.09154429
1006.868	0.08967847
1007.027	0.08984371
1007.186	0.08926903
1007.345	0.09111607
1007.505	0.09216653
1007.664	0.09222387
1007.823	0.09251773
1007.982	0.09448763
1008.142	0.09461276
1008.301	0.09556717
1008.46	0.09276621
1008.619	0.09119261
1008.778	0.09154157
1008.937	0.09176622
1009.096	0.09142999
1009.255	0.0917205
1009.414	0.08965099
1009.573	0.09035898
1009.732	0.09146179
1009.891	0.09184515
1010.05	0.09200084
1010.209	0.09079353
1010.368	0.09002482
1010.527	0.09209942
1010.686	0.09309188
1010.845	0.09174375
1011.003	0.08990712
1011.162	0.08982753
1011.321	0.08958235
1011.48	0.09044116
1011.638	0.08709413
1011.797	0.08557363
1011.956	0.08688955
1012.115	0.08742432
1012.273	0.08753321
1012.432	0.0890965
1012.59	0.08849289
1012.749	0.09090272
1012.908	0.09180727
1013.066	0.09259175
1013.225	0.09043809
1013.383	0.09042612
1013.542	0.08945824
1013.7	0.08967219
1013.859	0.09062328
1014.017	0.09064656
1014.175	0.08906138
1014.334	0.09261992
1014.492	0.09370826
1014.65	0.09458952
1014.809	0.09501141
1014.967	0.09481361
1015.125	0.09455069
1015.284	0.09624212
1015.442	0.09613788
1015.6	0.09572288
1015.758	0.09690843
1015.916	0.09585237
1016.075	0.0954095
1016.233	0.09571061
1016.391	0.09671331
1016.549	0.09689944
1016.707	0.09682976
1016.865	0.09751478
1017.023	0.09614061
1017.181	0.09740321
1017.339	0.09665826
1017.497	0.09354794
1017.655	0.09523018
1017.813	0.09483005
1017.971	0.09213219
1018.129	0.09375338
1018.286	0.09124698
1018.444	0.09103409
1018.602	0.09226376
1018.76	0.09275336
1018.918	0.09316904
1019.075	0.09364061
1019.233	0.09240237
1019.391	0.09469354
1019.549	0.09440123
1019.706	0.09358922
1019.864	0.09188067
1020.022	0.0907482
1020.179	0.08915322
1020.337	0.08920868
1020.494	0.08674871
1020.652	0.08826123
1020.809	0.08888591
1020.967	0.08722451
1021.124	0.08717732
1021.282	0.09130333
1021.439	0.09095587
1021.597	0.09264461
1021.754	0.09243379
1021.911	0.09581475
1022.069	0.09754077
1022.226	0.09838237
1022.384	0.0946997
1022.541	0.09772447
1022.698	0.09439589
1022.855	0.0941993
1023.013	0.09390472
1023.17	0.09177787
1023.327	0.09237675
1023.484	0.09401559
1023.641	0.09500907
1023.798	0.10071784
1023.956	0.09834057
1024.113	0.0920347
1024.27	0.09440904
1024.427	0.09564634
1024.584	0.09532194
1024.741	0.09229782
1024.898	0.08967419
1025.055	0.09288496
1025.212	0.0929531
1025.369	0.08915288
1025.525	0.08824775
1025.682	0.0900596
1025.839	0.09037013
1025.996	0.09179947
1026.153	0.09350307
1026.31	0.09866896
1026.466	0.10413405
1026.623	0.10348785
1026.78	0.10053763
1026.937	0.10089625
1027.093	0.09866282
1027.25	0.09783917
1027.407	0.09483165
1027.563	0.0937417
1027.72	0.09361702
1027.876	0.09296284
1028.033	0.09611515
1028.19	0.09680145
1028.346	0.09823102
1028.503	0.10231887
1028.659	0.10120375
1028.816	0.10781295
1028.972	0.11062509
1029.128	0.11527971
1029.285	0.11409462
1029.441	0.1082945
1029.598	0.10680987
1029.754	0.11202579
1029.91	0.10310235
1030.067	0.10198335
1030.223	0.09383869
1030.379	0.09300234
1030.535	0.09675724
1030.691	0.0934138
1030.848	0.0897728
1031.004	0.09544039
1031.16	0.09826007
1031.316	0.10275253
1031.472	0.10532448
1031.628	0.1040224
1031.784	0.10943371
1031.94	0.10860665
1032.096	0.11025708
1032.252	0.10993725
1032.408	0.11410171
1032.564	0.11099107
1032.72	0.11005627
1032.876	0.10483737
1033.032	0.10490527
1033.188	0.10176475
1033.344	0.09623751
1033.5	0.08725866
1033.655	0.08724068
1033.811	0.08804395
1033.967	0.08851669
