Data from 0_1_mm_pl_0pc_Absorbance__0__16-28-21-264.txt Node

Date: Fri Feb 24 16:28:21 CET 2023
User: Ange
Spectrometer: FLMT08341
Trigger mode: 0
Integration Time (sec): 1.000000E-2
Scans to average: 400
Electric dark correction enabled: true
Nonlinearity correction enabled: false
Boxcar width: 3
XAxis mode: Wavelengths
Number of Pixels in Spectrum: 3648
>>>>>Begin Spectral Data<<<<<
345.271	0.00773015
345.487	0.00211637
345.704	0.00416649
345.921	-0.01006636
346.137	-0.00177071
346.354	-0.00573295
346.571	0.000643
346.787	-0.06116914
347.004	-0.03723255
347.22	-0.03092569
347.437	-0.08900605
347.653	0.01698562
347.87	0.02724001
348.086	0.11635487
348.303	-0.10820619
348.519	0.03231259
348.736	0.03232335
348.952	0.03237333
349.169	0.0284215
349.385	0.03023074
349.601	0.02871045
349.818	0.02715574
350.034	0.02803414
350.251	0.02791283
350.467	0.02783493
350.683	0.02865457
350.9	0.02660604
351.116	0.025972
351.332	0.02584333
351.549	0.02425875
351.765	0.02251292
351.981	0.02287473
352.197	0.0245305
352.414	0.02495821
352.63	0.02528475
352.846	0.02448806
353.062	0.02414899
353.278	0.02446896
353.495	0.0230189
353.711	0.02201786
353.927	0.02201673
354.143	0.02233274
354.359	0.02224717
354.575	0.02153652
354.792	0.02146764
355.008	0.02245769
355.224	0.02166675
355.44	0.01996869
355.656	0.01802776
355.872	0.01884037
356.088	0.01862111
356.304	0.018947
356.52	0.01799862
356.736	0.0178542
356.952	0.01821661
357.168	0.01918293
357.384	0.01780465
357.6	0.01800269
357.816	0.01670365
358.032	0.01707884
358.248	0.01655384
358.464	0.01651048
358.679	0.01708771
358.895	0.01821111
359.111	0.0176942
359.327	0.01741513
359.543	0.01690279
359.759	0.01667632
359.974	0.0167134
360.19	0.01521683
360.406	0.0153415
360.622	0.01580737
360.838	0.01507826
361.053	0.01427347
361.269	0.01433062
361.485	0.01438958
361.701	0.01461951
361.916	0.01394106
362.132	0.01301045
362.348	0.01290046
362.563	0.01306488
362.779	0.01305429
362.995	0.01305944
363.21	0.01273562
363.426	0.01223912
363.641	0.01206752
363.857	0.01266745
364.073	0.01337708
364.288	0.01196145
364.504	0.01277834
364.719	0.01264947
364.935	0.01258219
365.15	0.01236599
365.366	0.01223074
365.581	0.01064528
365.797	0.01272571
366.012	0.01109045
366.228	0.01132724
366.443	0.01169441
366.658	0.01174916
366.874	0.01197179
367.089	0.01252779
367.305	0.01167144
367.52	0.01249171
367.735	0.01264004
367.951	0.01199199
368.166	0.01261469
368.381	0.01270792
368.597	0.01180444
368.812	0.01157931
369.027	0.01111545
369.243	0.01067254
369.458	0.01026659
369.673	0.00940515
369.888	0.00871862
370.104	0.00930581
370.319	0.0096281
370.534	0.00962577
370.749	0.00994398
370.964	0.00996452
371.179	0.01055867
371.395	0.01045669
371.61	0.01096997
371.825	0.01008181
372.04	0.00976988
372.255	0.00961252
372.47	0.010282
372.685	0.00957584
372.9	0.00947601
373.115	0.00925799
373.33	0.00913587
373.545	0.00966749
373.76	0.00893875
373.975	0.00827538
374.19	0.00815096
374.405	0.00791322
374.62	0.0076215
374.835	0.00770466
375.05	0.00765259
375.265	0.00765045
375.48	0.00798025
375.695	0.00783115
375.91	0.00759572
376.125	0.00788977
376.339	0.00808562
376.554	0.00687949
376.769	0.00711332
376.984	0.00713005
377.199	0.00753308
377.414	0.00752827
377.628	0.00726866
377.843	0.00735017
378.058	0.00838316
378.273	0.00830254
378.487	0.00791801
378.702	0.00774419
378.917	0.00811661
379.131	0.00739068
379.346	0.00678412
379.561	0.00600049
379.775	0.00579968
379.99	0.00581136
380.205	0.00553064
380.419	0.00515497
380.634	0.00577217
380.848	0.00658887
381.063	0.00709771
381.278	0.00723762
381.492	0.00785027
381.707	0.00809514
381.921	0.00839817
382.136	0.00775957
382.35	0.00694877
382.565	0.00663483
382.779	0.00611212
382.994	0.00544835
383.208	0.00564074
383.422	0.00551991
383.637	0.0062661
383.851	0.00644793
384.066	0.00655061
384.28	0.00687183
384.494	0.00635381
384.709	0.0061687
384.923	0.00604198
385.137	0.00585601
385.352	0.00594368
385.566	0.00585819
385.78	0.00570226
385.995	0.00608356
386.209	0.00599154
386.423	0.00589188
386.637	0.00557322
386.852	0.00516984
387.066	0.00468263
387.28	0.0043243
387.494	0.00392068
387.708	0.00361947
387.923	0.0035443
388.137	0.00354568
388.351	0.00364015
388.565	0.00394732
388.779	0.00411977
388.993	0.0043069
389.207	0.00449073
389.421	0.00447579
389.635	0.00424212
389.85	0.00437545
390.064	0.00423847
390.278	0.00439489
390.492	0.00427648
390.706	0.00425639
390.92	0.00482522
391.134	0.00491288
391.348	0.00446811
391.561	0.00435959
391.775	0.00452119
391.989	0.0044976
392.203	0.00401315
392.417	0.00359212
392.631	0.0036094
392.845	0.0039002
393.059	0.0037691
393.273	0.00362289
393.486	0.00344053
393.7	0.00361583
393.914	0.00351844
394.128	0.00346225
394.342	0.00351306
394.555	0.00366229
394.769	0.00340901
394.983	0.00346293
395.197	0.00344456
395.41	0.0031369
395.624	0.00308259
395.838	0.00297665
396.051	0.00301629
396.265	0.00305391
396.479	0.0033888
396.692	0.00349042
396.906	0.00356411
397.12	0.00373401
397.333	0.0035314
397.547	0.00341293
397.76	0.00357008
397.974	0.00281304
398.187	0.00220369
398.401	0.00225032
398.614	0.00219255
398.828	0.0021654
399.041	0.00206365
399.255	0.00183977
399.468	0.00235132
399.682	0.00279312
399.895	0.00281362
400.109	0.00264339
400.322	0.00253804
400.536	0.00301244
400.749	0.00327588
400.962	0.00359703
401.176	0.00342781
401.389	0.00337839
401.602	0.0035188
401.816	0.00354154
402.029	0.00297474
402.242	0.00284491
402.456	0.00247689
402.669	0.00270456
402.882	0.00268445
403.095	0.00263725
403.309	0.00277166
403.522	0.0028032
403.735	0.00274844
403.948	0.00309495
404.161	0.00307032
404.375	0.00312619
404.588	0.00326014
404.801	0.0031286
405.014	0.00343211
405.227	0.00346055
405.44	0.00312452
405.653	0.00305787
405.866	0.0028894
406.079	0.00247683
406.293	0.00241485
406.506	0.00233276
406.719	0.00229112
406.932	0.00222826
407.145	0.00227666
407.358	0.00222789
407.571	0.00217162
407.784	0.00228878
407.996	0.00218981
408.209	0.00214757
408.422	0.00206933
408.635	0.00191937
408.848	0.00201253
409.061	0.00250376
409.274	0.00227261
409.487	0.00242003
409.7	0.00237709
409.912	0.00232389
410.125	0.00236046
410.338	0.00226886
410.551	0.00182025
410.764	0.00206871
410.976	0.00175584
411.189	0.00160502
411.402	0.00175953
411.615	0.00162965
411.827	0.00169193
412.04	0.00169831
412.253	0.00166237
412.465	0.00168622
412.678	0.00166229
412.891	0.0016308
413.103	0.00168122
413.316	0.00167083
413.529	0.00184804
413.741	0.00188033
413.954	0.00189083
414.166	0.00177002
414.379	0.00176255
414.591	0.00191959
414.804	0.00182718
415.016	0.00166652
415.229	0.00130879
415.441	0.00138947
415.654	0.00165721
415.866	0.00149404
416.079	0.00121193
416.291	0.00120139
416.504	0.0011206
416.716	0.00128671
416.928	0.00121128
417.141	0.00101243
417.353	0.00108579
417.566	0.00138974
417.778	0.00143072
417.99	0.00152721
418.203	0.00157351
418.415	0.00164362
418.627	0.0017883
418.839	0.00175213
419.052	0.00156651
419.264	0.00164698
419.476	0.00153687
419.688	0.00161882
419.901	0.00135919
420.113	0.00116815
420.325	0.00112418
420.537	0.00117371
420.749	0.00109704
420.961	0.00122699
421.174	0.001052
421.386	0.00088845
421.598	0.00079536
421.81	0.00086116
422.022	0.00075176
422.234	0.00075177
422.446	0.00086448
422.658	0.00097266
422.87	0.00130057
423.082	0.00154395
423.294	0.00134342
423.506	0.00136605
423.718	0.00120692
423.93	0.00109831
424.142	0.00095634
424.354	0.00086078
424.566	0.00064486
424.778	0.00063368
424.99	0.00069641
425.202	0.00093638
425.414	0.00076607
425.625	0.00086653
425.837	0.00084721
426.049	0.00095038
426.261	0.00110168
426.473	0.00090586
426.684	0.00068552
426.896	0.00065131
427.108	0.00051435
427.32	0.00074592
427.531	0.00081389
427.743	0.00091071
427.955	0.00088732
428.167	0.00100462
428.378	0.00118921
428.59	0.00117145
428.802	0.00109767
429.013	0.0009603
429.225	0.00068564
429.436	0.0008799
429.648	0.00076775
429.86	0.00070085
430.071	0.00075549
430.283	0.00069175
430.494	0.00088695
430.706	0.00105718
430.917	0.0009008
431.129	0.00101262
431.34	0.00113285
431.552	0.00113476
431.763	0.00104885
431.975	0.00083518
432.186	0.00066865
432.398	0.00075857
432.609	0.00075953
432.821	0.00062386
433.032	0.00057193
433.243	0.00053338
433.455	0.00071928
433.666	0.0007713
433.877	0.00073699
434.089	0.00068254
434.3	0.00078203
434.511	0.0009217
434.723	0.00093907
434.934	0.00085926
435.145	0.00090135
435.356	0.00095314
435.568	0.00115459
435.779	0.00100476
435.99	0.00098732
436.201	0.00109783
436.412	0.00100322
436.624	0.00114928
436.835	0.00106901
437.046	0.00078799
437.257	0.00084972
437.468	0.00077435
437.679	0.00062089
437.89	0.00058509
438.101	0.00038994
438.312	0.00027916
438.523	0.00037125
438.734	0.00040653
438.945	0.00042581
439.156	0.0004299
439.367	0.00054003
439.578	0.00060255
439.789	0.00066236
440	0.00067646
440.211	0.00051838
440.422	0.00050746
440.633	0.0006462
440.844	0.00058622
441.055	0.00058186
441.266	0.00060544
441.477	0.00058957
441.687	0.00061938
441.898	0.00069005
442.109	0.00052957
442.32	0.00050111
442.531	0.00040765
442.741	0.00034689
442.952	0.00023076
443.163	0.0003106
443.374	0.00019609
443.584	0.00022269
443.795	0.00035788
444.006	0.00045289
444.216	0.00053632
444.427	0.00057266
444.638	0.00054406
444.848	0.00060975
445.059	0.00068869
445.27	0.00068399
445.48	0.0006264
445.691	0.00062354
445.901	0.00058063
446.112	0.00059948
446.323	0.00068584
446.533	0.00071211
446.744	0.00062929
446.954	0.00067979
447.165	0.00059933
447.375	0.00056429
447.586	0.00055868
447.796	0.00039454
448.006	0.00031414
448.217	0.00027982
448.427	0.00025407
448.638	0.00025084
448.848	0.00024958
449.058	0.00027385
449.269	0.00032315
449.479	0.00033755
449.689	0.00031159
449.9	0.00032046
450.11	0.00053452
450.32	0.0006355
450.531	0.00066745
450.741	0.00071669
450.951	0.00071707
451.161	0.00078103
451.372	0.00082724
451.582	0.00068601
451.792	0.00078501
452.002	0.00074446
452.212	0.00071555
452.422	0.00074341
452.633	0.00073391
452.843	0.00072148
453.053	0.00073018
453.263	0.00066209
453.473	0.00068201
453.683	0.00069305
453.893	0.00074451
454.103	0.00074661
454.313	0.00078523
454.523	0.00091635
454.733	0.00083955
454.943	0.00075738
455.153	0.00075452
455.363	0.00066412
455.573	0.00064995
455.783	0.00055946
455.993	0.00041179
456.203	0.00047863
456.413	0.00051013
456.623	0.00048394
456.833	0.00043641
457.042	0.00045475
457.252	0.00052962
457.462	0.00056047
457.672	0.00047632
457.882	0.00051472
458.091	0.00055993
458.301	0.00057252
458.511	0.00058063
458.721	0.00061402
458.931	0.00064731
459.14	0.0006671
459.35	0.00067963
459.56	0.00060903
459.769	0.00065402
459.979	0.00065259
460.189	0.00052716
460.398	0.00055821
460.608	0.00064679
460.817	0.00059315
461.027	0.00059943
461.237	0.00062594
461.446	0.00062749
461.656	0.0006109
461.865	0.00050505
462.075	0.00047493
462.284	0.00046653
462.494	0.00051081
462.703	0.00049049
462.913	0.00047544
463.122	0.00052498
463.332	0.00067461
463.541	0.00071582
463.751	0.00067957
463.96	0.00065454
464.169	0.00068738
464.379	0.00063463
464.588	0.00066724
464.797	0.00070402
465.007	0.00059943
465.216	0.00069005
465.425	0.00071912
465.635	0.00068256
465.844	0.00069341
466.053	0.00064642
466.263	0.00056936
466.472	0.00066739
466.681	0.00074022
466.89	0.00074242
467.099	0.0008077
467.309	0.00086655
467.518	0.00090192
467.727	0.00088061
467.936	0.00078923
468.145	0.00072727
468.354	0.00070802
468.563	0.00070422
468.772	0.00074627
468.982	0.00068729
469.191	0.00067333
469.4	0.00069287
469.609	0.00061315
469.818	0.00065393
470.027	0.00070827
470.236	0.00059808
470.445	0.00063713
470.654	0.00073328
470.863	0.00078672
471.072	0.00086711
471.28	0.00082457
471.489	0.00079908
471.698	0.00083863
471.907	0.00088425
472.116	0.00074695
472.325	0.00073246
472.534	0.00074949
472.743	0.00078185
472.951	0.0007254
473.16	0.0007398
473.369	0.0007557
473.578	0.00082015
473.786	0.00085976
473.995	0.00091057
474.204	0.00097869
474.413	0.0010466
474.621	0.00114509
474.83	0.00108026
475.039	0.00104695
475.247	0.00108566
475.456	0.00098341
475.665	0.0009259
475.873	0.00086098
476.082	0.00079807
476.291	0.00078726
476.499	0.00083079
476.708	0.00080398
476.916	0.00088819
477.125	0.00090788
477.333	0.00099595
477.542	0.00103995
477.75	0.0011243
477.959	0.00111834
478.167	0.00106821
478.376	0.00105963
478.584	0.00105693
478.793	0.00107225
479.001	0.0010378
479.209	0.00103451
479.418	0.00101451
479.626	0.00106207
479.834	0.00107531
480.043	0.00120631
480.251	0.00120032
480.459	0.00125158
480.668	0.0012233
480.876	0.00126035
481.084	0.00125038
481.293	0.00126009
481.501	0.00114577
481.709	0.00105778
481.917	0.00099885
482.125	0.00104299
482.334	0.0010259
482.542	0.00104567
482.75	0.00095762
482.958	0.00093041
483.166	0.0010849
483.374	0.00113292
483.583	0.00111449
483.791	0.00118837
483.999	0.00123276
484.207	0.00134357
484.415	0.00141945
484.623	0.00136155
484.831	0.00139176
485.039	0.00145657
485.247	0.00143563
485.455	0.00144979
485.663	0.00143889
485.871	0.00145928
486.079	0.00150003
486.287	0.00150646
486.495	0.00146481
486.702	0.0014984
486.91	0.00150485
487.118	0.00153814
487.326	0.0015786
487.534	0.00159932
487.742	0.00158718
487.95	0.00167778
488.157	0.00173672
488.365	0.00182272
488.573	0.00182278
488.781	0.00181871
488.988	0.00184701
489.196	0.00189925
489.404	0.00195685
489.612	0.0019392
489.819	0.0018633
490.027	0.00194101
490.235	0.00196521
490.442	0.00195491
490.65	0.0020437
490.857	0.00203965
491.065	0.00202223
491.273	0.00209217
491.48	0.00204217
491.688	0.00199436
491.895	0.00197531
492.103	0.00198342
492.31	0.00197902
492.518	0.00204987
492.725	0.00204774
492.933	0.002047
493.14	0.00214686
493.348	0.00220699
493.555	0.00221576
493.763	0.00218024
493.97	0.00214262
494.177	0.00217596
494.385	0.00225466
494.592	0.00223567
494.8	0.00223823
495.007	0.00222024
495.214	0.00226995
495.422	0.0023364
495.629	0.00233101
495.836	0.002295
496.043	0.00231363
496.251	0.00233749
496.458	0.00236116
496.665	0.00245192
496.872	0.00249299
497.08	0.0024945
497.287	0.00256915
497.494	0.0025715
497.701	0.00258099
497.908	0.00258262
498.115	0.00256794
498.322	0.0025746
498.53	0.00256254
498.737	0.00260356
498.944	0.00268207
499.151	0.00269452
499.358	0.00272294
499.565	0.00273901
499.772	0.00274442
499.979	0.00277872
500.186	0.00278769
500.393	0.00276494
500.6	0.00276121
500.807	0.00277552
501.014	0.00275915
501.221	0.00282371
501.427	0.00292507
501.634	0.00292812
501.841	0.0029475
502.048	0.00304055
502.255	0.00305724
502.462	0.0030887
502.669	0.00307559
502.875	0.00311681
503.082	0.00317139
503.289	0.00321518
503.496	0.00324483
503.702	0.00333779
503.909	0.00345762
504.116	0.00353332
504.323	0.00350964
504.529	0.00353487
504.736	0.00353564
504.943	0.00350989
505.149	0.00348772
505.356	0.00344843
505.563	0.00341281
505.769	0.00344432
505.976	0.00346636
506.182	0.00350465
506.389	0.00356247
506.595	0.00360547
506.802	0.00364152
507.008	0.00368089
507.215	0.00374026
507.421	0.00375814
507.628	0.00384019
507.834	0.00384712
508.041	0.00388942
508.247	0.00389329
508.454	0.00395822
508.66	0.00399073
508.866	0.00399023
509.073	0.00402053
509.279	0.00407017
509.486	0.00411809
509.692	0.00411377
509.898	0.00414339
510.105	0.00412299
510.311	0.00423722
510.517	0.00428884
510.723	0.004354
510.93	0.00439896
511.136	0.00448425
511.342	0.00453006
511.548	0.00460486
511.754	0.00459564
511.961	0.00457001
512.167	0.004572
512.373	0.00460571
512.579	0.00464393
512.785	0.00469216
512.991	0.00476305
513.197	0.00480744
513.404	0.00487221
513.61	0.0049585
513.816	0.00497882
514.022	0.00505035
514.228	0.00508001
514.434	0.00509673
514.64	0.00511307
514.846	0.00512587
515.052	0.00511644
515.258	0.00517253
515.464	0.00516077
515.669	0.00520524
515.875	0.00522627
516.081	0.00529508
516.287	0.00538468
516.493	0.00546076
516.699	0.00547013
516.905	0.00552204
517.111	0.00554553
517.316	0.00556249
517.522	0.00561524
517.728	0.00567636
517.934	0.00570565
518.139	0.00574995
518.345	0.00581737
518.551	0.00586209
518.757	0.00596295
518.962	0.00598712
519.168	0.00599769
519.374	0.0060763
519.579	0.00617385
519.785	0.00624914
519.991	0.00628376
520.196	0.0063394
520.402	0.00640987
520.607	0.00646939
520.813	0.00650942
521.018	0.00653859
521.224	0.00657978
521.429	0.0066655
521.635	0.00670539
521.84	0.00679462
522.046	0.00684974
522.251	0.00688486
522.457	0.00691142
522.662	0.00698188
522.868	0.00703153
523.073	0.00705986
523.279	0.0070595
523.484	0.007117
523.689	0.00720474
523.895	0.0073034
524.1	0.00731435
524.305	0.00736234
524.511	0.00741452
524.716	0.00749449
524.921	0.00757207
525.126	0.00760648
525.332	0.00765259
525.537	0.00772992
525.742	0.00780554
525.947	0.00787706
526.153	0.00792076
526.358	0.00796115
526.563	0.00800835
526.768	0.00804284
526.973	0.00812812
527.178	0.00816258
527.383	0.00822845
527.588	0.00830242
527.794	0.00838908
527.999	0.00846346
528.204	0.00854801
528.409	0.00861297
528.614	0.00869056
528.819	0.00873487
529.024	0.00877866
529.229	0.00880455
529.434	0.00884713
529.639	0.00890042
529.843	0.00892929
530.048	0.00896058
530.253	0.00902904
530.458	0.00907271
530.663	0.00919499
530.868	0.00930175
531.073	0.00937565
531.278	0.00943767
531.482	0.00956815
531.687	0.00967231
531.892	0.00975579
532.097	0.00974706
532.302	0.0098357
532.506	0.00993035
532.711	0.01002416
532.916	0.01007176
533.12	0.01009598
533.325	0.01016304
533.53	0.01027791
533.734	0.0103179
533.939	0.01035102
534.144	0.01042801
534.348	0.01047996
534.553	0.01061201
534.757	0.01073715
534.962	0.0107932
535.167	0.01087913
535.371	0.01101192
535.576	0.01110908
535.78	0.01126083
535.985	0.01136014
536.189	0.01143321
536.394	0.01151486
536.598	0.01157729
536.803	0.01161951
537.007	0.01168223
537.211	0.01169848
537.416	0.01174878
537.62	0.01180132
537.825	0.01189507
538.029	0.0119774
538.233	0.01206748
538.438	0.01215038
538.642	0.01225412
538.846	0.01234943
539.05	0.0124692
539.255	0.01257552
539.459	0.01269843
539.663	0.01278817
539.867	0.01288246
540.072	0.01300035
540.276	0.01310081
540.48	0.01318057
540.684	0.01325722
540.888	0.01337117
541.092	0.01348126
541.297	0.0135807
541.501	0.013638
541.705	0.01375015
541.909	0.01384022
542.113	0.01394192
542.317	0.01401116
542.521	0.01410479
542.725	0.01418074
542.929	0.01429927
543.133	0.01439799
543.337	0.0145079
543.541	0.01461301
543.745	0.01467644
543.949	0.01477845
544.153	0.01493341
544.357	0.01508878
544.56	0.01521126
544.764	0.01528366
544.968	0.01540964
545.172	0.01550724
545.376	0.01555771
545.58	0.01560025
545.783	0.0156555
545.987	0.01571763
546.191	0.01585588
546.395	0.01591997
546.598	0.01604501
546.802	0.01621345
547.006	0.01634797
547.21	0.01643495
547.413	0.01654577
547.617	0.01668605
547.821	0.01684895
548.024	0.01702149
548.228	0.0171183
548.431	0.01720616
548.635	0.01731365
548.839	0.01743383
549.042	0.01748819
549.246	0.01753056
549.449	0.01757898
549.653	0.01768238
549.856	0.01780388
550.06	0.01791984
550.263	0.01799927
550.467	0.01813626
550.67	0.01827592
550.874	0.01844116
551.077	0.01859287
551.28	0.01877124
551.484	0.01889475
551.687	0.01903006
551.891	0.01911904
552.094	0.01926237
552.297	0.01937342
552.501	0.0194821
552.704	0.01954586
552.907	0.01964256
553.11	0.01975628
553.314	0.01994721
553.517	0.0200854
553.72	0.02021763
553.923	0.02035558
554.127	0.02051566
554.33	0.0206973
554.533	0.02083914
554.736	0.02092129
554.939	0.02104628
555.142	0.02115095
555.345	0.02121908
555.549	0.02134805
555.752	0.0214705
555.955	0.02163066
556.158	0.02179021
556.361	0.02188558
556.564	0.02206457
556.767	0.02224596
556.97	0.02237041
557.173	0.02247582
557.376	0.02262801
557.579	0.02275323
557.782	0.02288199
557.984	0.02292775
558.187	0.02305729
558.39	0.02318755
558.593	0.02334847
558.796	0.02344158
558.999	0.02355626
559.202	0.02373463
559.404	0.02392038
559.607	0.02406289
559.81	0.0242074
560.013	0.02432682
560.216	0.02450661
560.418	0.02467409
560.621	0.02481033
560.824	0.02500857
561.026	0.02519873
561.229	0.02540416
561.432	0.02560244
561.634	0.02577184
561.837	0.0259811
562.04	0.02617858
562.242	0.02628954
562.445	0.02643234
562.647	0.02652779
562.85	0.02661943
563.053	0.02673208
563.255	0.02680954
563.458	0.02692036
563.66	0.02709524
563.863	0.02727173
564.065	0.02748012
564.268	0.0276842
564.47	0.02789899
564.672	0.02809029
564.875	0.02826433
565.077	0.02841174
565.28	0.02853593
565.482	0.02865564
565.684	0.02888536
565.887	0.02899051
566.089	0.02914162
566.291	0.029318
566.494	0.02951798
566.696	0.02972988
566.898	0.0298886
567.1	0.03002549
567.303	0.03022183
567.505	0.03043605
567.707	0.03056291
567.909	0.0306594
568.111	0.0307677
568.314	0.03097294
568.516	0.03111832
568.718	0.03129187
568.92	0.03144147
569.122	0.03163189
569.324	0.03188793
569.526	0.03209146
569.728	0.03222512
569.93	0.03235469
570.132	0.03250066
570.334	0.03262235
570.536	0.03277929
570.738	0.03290782
570.94	0.03297681
571.142	0.03317883
571.344	0.03335952
571.546	0.03353681
571.748	0.03373472
571.95	0.03395095
572.152	0.03417849
572.354	0.0344548
572.555	0.03463516
572.757	0.03479292
572.959	0.03492711
573.161	0.03515574
573.363	0.03533958
573.564	0.03552187
573.766	0.03566571
573.968	0.03587139
574.17	0.03610316
574.371	0.03629809
574.573	0.03642471
574.775	0.03654281
574.976	0.03663228
575.178	0.03677926
575.38	0.03690265
575.581	0.03704284
575.783	0.03727249
575.985	0.03751423
576.186	0.03772059
576.388	0.0379221
576.589	0.03813114
576.791	0.03832745
576.992	0.03852872
577.194	0.0386719
577.395	0.03882851
577.597	0.0390466
577.798	0.0392286
578	0.03942812
578.201	0.03966831
578.402	0.03990848
578.604	0.04012199
578.805	0.04030203
579.007	0.04045242
579.208	0.04070091
579.409	0.04088525
579.611	0.04101639
579.812	0.04116719
580.013	0.04136104
580.215	0.04152287
580.416	0.04172412
580.617	0.04187203
580.818	0.04208309
581.019	0.04232181
581.221	0.04252112
581.422	0.0427101
581.623	0.04293603
581.824	0.04313172
582.025	0.04332943
582.226	0.04348943
582.428	0.04369157
582.629	0.04386644
582.83	0.04409018
583.031	0.04430521
583.232	0.04448894
583.433	0.04468478
583.634	0.04487779
583.835	0.04498605
584.036	0.04516545
584.237	0.04531522
584.438	0.04546572
584.639	0.04564239
584.84	0.04580924
585.041	0.04601963
585.242	0.04621342
585.442	0.04643862
585.643	0.04664367
585.844	0.046847
586.045	0.04705878
586.246	0.04724658
586.447	0.04744457
586.647	0.04766182
586.848	0.04781432
587.049	0.04799717
587.25	0.04816406
587.45	0.04836533
587.651	0.04860122
587.852	0.04882715
588.053	0.04911352
588.253	0.04941256
588.454	0.04965023
588.655	0.04990462
588.855	0.05010413
589.056	0.05032756
589.256	0.0505145
589.457	0.0506451
589.658	0.0508053
589.858	0.05097137
590.059	0.05117907
590.259	0.05143773
590.46	0.0516505
590.66	0.05187254
590.861	0.05216696
591.061	0.05242943
591.262	0.05266572
591.462	0.05288917
591.662	0.05304584
591.863	0.05322283
592.063	0.05343202
592.264	0.05357311
592.464	0.0537244
592.664	0.053924
592.865	0.0541603
593.065	0.05433479
593.265	0.05454707
593.465	0.05471794
593.666	0.05492083
593.866	0.0551313
594.066	0.05536653
594.266	0.05551705
594.467	0.05575274
594.667	0.05592962
594.867	0.05620104
595.067	0.05635972
595.267	0.05649642
595.467	0.05664833
595.668	0.05681446
595.868	0.05701115
596.068	0.0572091
596.268	0.05731145
596.468	0.05754746
596.668	0.0577741
596.868	0.05801746
597.068	0.05824421
597.268	0.05845162
597.468	0.05863394
597.668	0.05885645
597.868	0.05907554
598.068	0.05931866
598.268	0.05948751
598.467	0.0597125
598.667	0.05987192
598.867	0.06009106
599.067	0.06033095
599.267	0.06048748
599.467	0.06066516
599.667	0.06082839
599.866	0.06101679
600.066	0.06122806
600.266	0.06139943
600.466	0.06153898
600.665	0.06172353
600.865	0.06190634
601.065	0.0621035
601.264	0.06222874
601.464	0.06239147
601.664	0.06263154
601.863	0.06281642
602.063	0.06301236
602.263	0.06311319
602.462	0.06328722
602.662	0.06349911
602.861	0.06376429
603.061	0.06394284
603.26	0.0641845
603.46	0.06435455
603.659	0.06460528
603.859	0.06481312
604.058	0.06498661
604.258	0.06515791
604.457	0.06539202
604.657	0.06549199
604.856	0.06567948
605.056	0.06590971
605.255	0.06610042
605.454	0.06634293
605.654	0.06646277
605.853	0.06655432
606.052	0.06675094
606.252	0.06693376
606.451	0.06707909
606.65	0.06722825
606.849	0.06731803
607.049	0.06749129
607.248	0.0676842
607.447	0.06785806
607.646	0.06803402
607.845	0.06820137
608.045	0.06834236
608.244	0.06858662
608.443	0.0687692
608.642	0.06897473
608.841	0.06915372
609.04	0.06927752
609.239	0.0694315
609.438	0.06959983
609.637	0.06981091
609.836	0.07002315
610.035	0.07019287
610.234	0.07038875
610.433	0.07061823
610.632	0.07081622
610.831	0.07108642
611.03	0.07115161
611.229	0.07135463
611.428	0.07158013
611.627	0.07174132
611.826	0.07193206
612.025	0.07220289
612.224	0.07234872
612.422	0.07258872
612.621	0.07276567
612.82	0.07293858
613.019	0.07313584
613.218	0.07334194
613.416	0.07336422
613.615	0.073576
613.814	0.07375282
614.012	0.07389333
614.211	0.07392538
614.41	0.07413974
614.608	0.07429552
614.807	0.07452449
615.006	0.07469833
615.204	0.07486334
615.403	0.07505631
615.602	0.07535025
615.8	0.07557632
615.999	0.07569679
616.197	0.07586534
616.396	0.07606076
616.594	0.07620402
616.793	0.07640482
616.991	0.07653208
617.19	0.07655986
617.388	0.07680707
617.586	0.07700331
617.785	0.07709865
617.983	0.07729855
618.182	0.07740928
618.38	0.07752883
618.578	0.07771861
618.777	0.0778301
618.975	0.07797979
619.173	0.07817225
619.372	0.07832184
619.57	0.07847917
619.768	0.07871019
619.966	0.07889411
620.165	0.07903711
620.363	0.07919678
620.561	0.07927042
620.759	0.07943355
620.957	0.07965368
621.155	0.07980404
621.354	0.07989313
621.552	0.08009486
621.75	0.08021521
621.948	0.08050341
622.146	0.08071601
622.344	0.08086078
622.542	0.08107058
622.74	0.08137065
622.938	0.08148981
623.136	0.0817587
623.334	0.08194988
623.532	0.08197938
623.73	0.08209725
623.928	0.08227318
624.126	0.08245448
624.324	0.08272055
624.522	0.08281649
624.719	0.08294517
624.917	0.08321373
625.115	0.08331062
625.313	0.0834518
625.511	0.08353542
625.708	0.08356049
625.906	0.08371389
626.104	0.0838599
626.302	0.08410913
626.499	0.08439234
626.697	0.08453938
626.895	0.08465686
627.093	0.08486093
627.29	0.08506883
627.488	0.0852223
627.686	0.08535015
627.883	0.08541989
628.081	0.08550201
628.278	0.08582296
628.476	0.08595486
628.673	0.08609348
628.871	0.08624404
629.068	0.08635079
629.266	0.08660507
629.463	0.08672411
629.661	0.08679021
629.858	0.08694474
630.056	0.08705011
630.253	0.08715629
630.451	0.08733057
630.648	0.08743625
630.845	0.08761809
631.043	0.08776226
631.24	0.08793701
631.438	0.08814065
631.635	0.0883221
631.832	0.08837026
632.029	0.08852432
632.227	0.08870175
632.424	0.08886182
632.621	0.08905232
632.818	0.08915899
633.016	0.08936194
633.213	0.08951455
633.41	0.08970964
633.607	0.08989412
633.804	0.09003747
634.001	0.09010852
634.199	0.09031536
634.396	0.0904118
634.593	0.09053885
634.79	0.09065776
634.987	0.09085263
635.184	0.09099375
635.381	0.09125045
635.578	0.09144165
635.775	0.0915906
635.972	0.09176128
636.169	0.09190005
636.366	0.09191861
636.563	0.09202337
636.76	0.09203616
636.957	0.09215285
637.153	0.09223964
637.35	0.09241747
637.547	0.09256219
637.744	0.09275629
637.941	0.0929753
638.138	0.09322498
638.334	0.0932979
638.531	0.09350808
638.728	0.0936778
638.925	0.09391549
639.121	0.09408433
639.318	0.09422949
639.515	0.09432678
639.711	0.09457173
639.908	0.09465469
640.105	0.09476482
640.301	0.09474643
640.498	0.09482428
640.695	0.09494007
640.891	0.09505715
641.088	0.09513399
641.284	0.09530656
641.481	0.09539389
641.677	0.09552922
641.874	0.0956044
642.07	0.09573247
642.267	0.09590679
642.463	0.09598393
642.66	0.09614144
642.856	0.09629781
643.053	0.09641359
643.249	0.09666424
643.445	0.09680461
643.642	0.09690984
643.838	0.09709444
644.034	0.09721129
644.231	0.0973513
644.427	0.09756009
644.623	0.09769901
644.82	0.09785557
645.016	0.09798911
645.212	0.09804841
645.408	0.09819529
645.604	0.09843696
645.801	0.09860432
645.997	0.09870578
646.193	0.09876953
646.389	0.0989836
646.585	0.09916644
646.781	0.09936464
646.977	0.09944452
647.173	0.0994987
647.37	0.09959146
647.566	0.09976154
647.762	0.09982419
647.958	0.10002299
648.154	0.10006918
648.35	0.10019681
648.546	0.10037232
648.742	0.10061966
648.937	0.10064264
649.133	0.10082744
649.329	0.1010051
649.525	0.10116239
649.721	0.10129205
649.917	0.1015082
650.113	0.10156705
650.309	0.1019309
650.504	0.10207354
650.7	0.10212114
650.896	0.10229295
651.092	0.10238014
651.287	0.10246811
651.483	0.10268127
651.679	0.10268781
651.875	0.10281569
652.07	0.10288894
652.266	0.10295229
652.462	0.10309132
652.657	0.10319338
652.853	0.10326693
653.048	0.10340614
653.244	0.10343703
653.44	0.10366923
653.635	0.10379679
653.831	0.10404185
654.026	0.10423702
654.222	0.10437638
654.417	0.10457376
654.613	0.10480375
654.808	0.10491263
655.004	0.10510684
655.199	0.10515807
655.394	0.1052386
655.59	0.10541884
655.785	0.10548339
655.98	0.10565001
656.176	0.10572921
656.371	0.10588019
656.566	0.10605366
656.762	0.10612422
656.957	0.10626091
657.152	0.10636751
657.348	0.10645799
657.543	0.10666267
657.738	0.10683003
657.933	0.10693014
658.128	0.10718737
658.324	0.10729728
658.519	0.10750578
658.714	0.1076622
658.909	0.10776468
659.104	0.10790699
659.299	0.10811297
659.494	0.10821054
659.689	0.10837337
659.884	0.10849738
660.079	0.10857787
660.274	0.10871246
660.469	0.10880346
660.664	0.10890587
660.859	0.10903354
661.054	0.10916773
661.249	0.10929829
661.444	0.10948556
661.639	0.10967012
661.834	0.10982583
662.029	0.11000563
662.224	0.11014562
662.418	0.11030823
662.613	0.11046161
662.808	0.11059903
663.003	0.11075951
663.198	0.11093158
663.392	0.11101978
663.587	0.11127223
663.782	0.11136026
663.977	0.11151731
664.171	0.11164694
664.366	0.11173985
664.561	0.11183645
664.755	0.11200892
664.95	0.11199675
665.144	0.11212544
665.339	0.11226361
665.534	0.11246742
665.728	0.11262774
665.923	0.11281433
666.117	0.11292867
666.312	0.11314075
666.506	0.11340632
666.701	0.11353954
666.895	0.11368409
667.09	0.11386579
667.284	0.11403448
667.479	0.11421603
667.673	0.11436039
667.867	0.11445618
668.062	0.11455312
668.256	0.11460076
668.45	0.11472835
668.645	0.11476488
668.839	0.11482107
669.033	0.11488683
669.228	0.11498323
669.422	0.11516807
669.616	0.11534693
669.81	0.11551356
670.004	0.11571099
670.199	0.11597812
670.393	0.11617264
670.587	0.1163854
670.781	0.11655612
670.975	0.11677454
671.169	0.11688565
671.363	0.11701423
671.558	0.1171418
671.752	0.11736231
671.946	0.1175174
672.14	0.11765754
672.334	0.11772841
672.528	0.1179736
672.722	0.11810741
672.916	0.11824189
673.11	0.11828584
673.304	0.11848084
673.497	0.11861808
673.691	0.11881509
673.885	0.1188074
674.079	0.11896752
674.273	0.11902397
674.467	0.11923854
674.661	0.11927747
674.854	0.11939829
675.048	0.11955726
675.242	0.11975496
675.436	0.1199391
675.629	0.12019833
675.823	0.12030379
676.017	0.12051652
676.211	0.12064113
676.404	0.12077217
676.598	0.12097415
676.792	0.12111949
676.985	0.12130161
677.179	0.121481
677.372	0.12157215
677.566	0.12186766
677.76	0.12206261
677.953	0.12217393
678.147	0.12235094
678.34	0.1225035
678.534	0.12263605
678.727	0.12286265
678.921	0.12301582
679.114	0.12312088
679.307	0.12329268
679.501	0.1234695
679.694	0.12364404
679.888	0.12385006
680.081	0.12402503
680.274	0.12412428
680.468	0.12431177
680.661	0.12447307
680.854	0.12472748
681.048	0.12491311
681.241	0.12513932
681.434	0.12528564
681.627	0.12552859
681.821	0.12573854
682.014	0.12608023
682.207	0.12618397
682.4	0.12635249
682.593	0.12653676
682.786	0.12671355
682.98	0.12684941
683.173	0.1270379
683.366	0.12707354
683.559	0.12717306
683.752	0.1273448
683.945	0.12747209
684.138	0.12765094
684.331	0.12777568
684.524	0.12798277
684.717	0.12815353
684.91	0.12842166
685.103	0.1285648
685.296	0.12878776
685.489	0.1289866
685.682	0.1291577
685.874	0.12930004
686.067	0.12951047
686.26	0.12971266
686.453	0.12997124
686.646	0.13012424
686.839	0.13036248
687.031	0.1305725
687.224	0.13067518
687.417	0.13093132
687.61	0.13104594
687.802	0.13117691
687.995	0.13138467
688.188	0.13152854
688.38	0.13179872
688.573	0.13209949
688.766	0.13221864
688.958	0.13238749
689.151	0.13244912
689.343	0.13259273
689.536	0.13270313
689.729	0.13281785
689.921	0.13297755
690.114	0.1331188
690.306	0.13333457
690.499	0.13357533
690.691	0.13375448
690.884	0.13392951
691.076	0.13411375
691.268	0.13421591
691.461	0.13430008
691.653	0.13444138
691.846	0.13470336
692.038	0.13487857
692.23	0.13507209
692.423	0.13527828
692.615	0.13551353
692.807	0.13581177
692.999	0.13599325
693.192	0.13610783
693.384	0.13629034
693.576	0.13642506
693.768	0.13654094
693.961	0.13662083
694.153	0.13678266
694.345	0.13696472
694.537	0.13718512
694.729	0.13738839
694.921	0.13762437
695.113	0.13785957
695.305	0.13810726
695.498	0.13828775
695.69	0.13850127
695.882	0.13861736
696.074	0.13881101
696.266	0.13901832
696.458	0.13917574
696.65	0.1394137
696.842	0.13963622
697.033	0.13979911
697.225	0.13997201
697.417	0.14016756
697.609	0.14028355
697.801	0.14042842
697.993	0.14057869
698.185	0.14069235
698.376	0.14083919
698.568	0.14101489
698.76	0.14118498
698.952	0.14139168
699.144	0.14159678
699.335	0.14172247
699.527	0.14189886
699.719	0.14209694
699.91	0.14234803
700.102	0.14246447
700.294	0.14270247
700.485	0.14297204
700.677	0.14324765
700.869	0.14352468
701.06	0.14377192
701.252	0.143865
701.443	0.1441439
701.635	0.14429907
701.826	0.14450462
702.018	0.1446965
702.209	0.14480453
702.401	0.14489415
702.592	0.14515884
702.784	0.14525797
702.975	0.14543849
703.166	0.1455743
703.358	0.1456956
703.549	0.14595278
703.741	0.14621789
703.932	0.14639212
704.123	0.14659652
704.315	0.14682565
704.506	0.14709849
704.697	0.14733859
704.888	0.14756972
705.08	0.14778717
705.271	0.14797956
705.462	0.14817247
705.653	0.14830239
705.844	0.14833091
706.035	0.14854691
706.227	0.14866741
706.418	0.1488249
706.609	0.14903437
706.8	0.14924614
706.991	0.14943439
707.182	0.14969947
707.373	0.14981808
707.564	0.15003869
707.755	0.15020053
707.946	0.1504045
708.137	0.15058132
708.328	0.15080677
708.519	0.15100944
708.71	0.15126339
708.901	0.15145133
709.092	0.15172008
709.283	0.151916
709.473	0.1521554
709.664	0.15241356
709.855	0.15260099
710.046	0.15280525
710.237	0.1529969
710.427	0.15316969
710.618	0.15337508
710.809	0.15351582
711	0.15366884
711.19	0.15378166
711.381	0.15397046
711.572	0.15415174
711.762	0.1543686
711.953	0.15454788
712.144	0.15473157
712.334	0.15489331
712.525	0.155149
712.715	0.15527504
712.906	0.15542043
713.097	0.15557336
713.287	0.15570894
713.478	0.15589418
713.668	0.15608675
713.859	0.1562248
714.049	0.15643701
714.239	0.15663663
714.43	0.15676063
714.62	0.15690485
714.811	0.15710723
715.001	0.15732765
715.191	0.1575442
715.382	0.15771433
715.572	0.1579774
715.762	0.15819972
715.953	0.15846148
716.143	0.15866641
716.333	0.15876758
716.523	0.15888409
716.714	0.15914473
716.904	0.1592804
717.094	0.15954374
717.284	0.1596901
717.474	0.15987405
717.664	0.16017088
717.855	0.16044661
718.045	0.16065263
718.235	0.16088628
718.425	0.16107501
718.615	0.16140043
718.805	0.16173339
718.995	0.16195713
719.185	0.16223878
719.375	0.16245826
719.565	0.16273808
719.755	0.16292891
719.945	0.16312575
720.135	0.16328101
720.325	0.16347632
720.515	0.16367758
720.704	0.16389038
720.894	0.1640345
721.084	0.16422773
721.274	0.16439371
721.464	0.16458083
721.654	0.16479426
721.843	0.16493697
722.033	0.16507236
722.223	0.16519282
722.413	0.16542302
722.602	0.16561892
722.792	0.16582983
722.982	0.16599614
723.171	0.16623223
723.361	0.16648252
723.55	0.1667244
723.74	0.16683064
723.93	0.16692254
724.119	0.16700477
724.309	0.16712392
724.498	0.16727442
724.688	0.16739568
724.877	0.16755252
725.067	0.167749
725.256	0.16796333
725.446	0.16815697
725.635	0.16834191
725.825	0.16846598
726.014	0.16859864
726.203	0.16876098
726.393	0.16885709
726.582	0.16899326
726.771	0.16923404
726.961	0.16934101
727.15	0.16945645
727.339	0.16955276
727.529	0.16967065
727.718	0.16982222
727.907	0.1699814
728.096	0.17003896
728.286	0.17024264
728.475	0.17046896
728.664	0.17067894
728.853	0.17080137
729.042	0.1709376
729.231	0.17104463
729.42	0.17115848
729.609	0.17123398
729.799	0.17129206
729.988	0.17142455
730.177	0.17155004
730.366	0.17170631
730.555	0.17182308
730.744	0.17195386
730.933	0.17205896
731.122	0.17219245
731.31	0.1723115
731.499	0.17242631
731.688	0.17258419
731.877	0.17275863
732.066	0.17290314
732.255	0.17305979
732.444	0.17313557
732.632	0.17325434
732.821	0.17344356
733.01	0.17359248
733.199	0.17373414
733.388	0.17384858
733.576	0.17397562
733.765	0.17417869
733.954	0.17430364
734.142	0.17443937
734.331	0.17454908
734.52	0.17469309
734.708	0.17484191
734.897	0.17495168
735.086	0.17502985
735.274	0.17510879
735.463	0.17520529
735.651	0.17535904
735.84	0.17549177
736.028	0.17562918
736.217	0.17578283
736.405	0.17592538
736.594	0.17608443
736.782	0.17614786
736.971	0.17626328
737.159	0.1763436
737.347	0.17644787
737.536	0.1765035
737.724	0.17658511
737.912	0.17660462
738.101	0.17671735
738.289	0.17675563
738.477	0.17680847
738.666	0.17687881
738.854	0.17694209
739.042	0.17705683
739.23	0.17718026
739.418	0.17728151
739.607	0.1774183
739.795	0.17754988
739.983	0.17768622
740.171	0.17783734
740.359	0.17791425
740.547	0.17802967
740.735	0.17816919
740.923	0.1782673
741.112	0.17838246
741.3	0.17846259
741.488	0.17860261
741.676	0.17875414
741.864	0.17891897
742.052	0.1790832
742.239	0.17913212
742.427	0.17919498
742.615	0.17929431
742.803	0.17943795
742.991	0.17951842
743.179	0.1796067
743.367	0.17964426
743.555	0.17978323
743.742	0.17986312
743.93	0.17998455
744.118	0.18003875
744.306	0.18018798
744.494	0.18025065
744.681	0.18030364
744.869	0.18034789
745.057	0.18046938
745.244	0.18058954
745.432	0.18071126
745.62	0.18077561
745.807	0.18089411
745.995	0.18096523
746.182	0.18102436
746.37	0.1811218
746.558	0.18113627
746.745	0.18114874
746.933	0.1811773
747.12	0.18116316
747.308	0.18119664
747.495	0.1812553
747.683	0.18127342
747.87	0.18135994
748.057	0.18146296
748.245	0.18161006
748.432	0.18177249
748.62	0.18193868
748.807	0.18209021
748.994	0.18217947
749.182	0.18219602
749.369	0.18221907
749.556	0.18226321
749.743	0.18227937
749.931	0.18236133
750.118	0.18248134
750.305	0.18259427
750.492	0.18264433
750.68	0.18272783
750.867	0.18276519
751.054	0.18284418
751.241	0.18285176
751.428	0.18283767
751.615	0.18287882
751.802	0.18303185
751.989	0.18311589
752.176	0.18320105
752.363	0.18328769
752.55	0.18337789
752.737	0.18342333
752.924	0.1834773
753.111	0.18350939
753.298	0.18354132
753.485	0.1835858
753.672	0.1836067
753.859	0.18365021
754.046	0.18368181
754.233	0.18372192
754.42	0.18374882
754.606	0.18373619
754.793	0.18374024
754.98	0.18382664
755.167	0.1838192
755.353	0.18391359
755.54	0.18392308
755.727	0.18392828
755.914	0.18400726
756.1	0.1840198
756.287	0.18398718
756.474	0.18404601
756.66	0.18402907
756.847	0.18410792
757.033	0.18415998
757.22	0.18421634
757.407	0.18436367
757.593	0.18450625
757.78	0.18459162
757.966	0.18471976
758.153	0.18476479
758.339	0.18477838
758.526	0.18483318
758.712	0.18478082
758.898	0.18475269
759.085	0.18471838
759.271	0.18469298
759.458	0.18473081
759.644	0.18481989
759.83	0.18487191
760.017	0.18496207
760.203	0.18504357
760.389	0.18509913
760.576	0.18508754
760.762	0.184997
760.948	0.18483215
761.134	0.18474146
761.32	0.18467032
761.507	0.18461887
761.693	0.18467014
761.879	0.18470721
762.065	0.18482357
762.251	0.18498422
762.437	0.18506833
762.623	0.18512132
762.809	0.18514008
762.995	0.18510589
763.181	0.18510825
763.367	0.18506392
763.553	0.18496864
763.739	0.1849649
763.925	0.18493019
764.111	0.18491659
764.297	0.18494069
764.483	0.18495521
764.669	0.18493396
764.855	0.18503108
765.041	0.18498199
765.227	0.18502411
765.412	0.18509309
765.598	0.18508379
765.784	0.18507597
765.97	0.1851665
766.156	0.18510871
766.341	0.1851325
766.527	0.18510324
766.713	0.18501099
766.898	0.1849794
767.084	0.18493271
767.27	0.18479167
767.455	0.18482363
767.641	0.18474613
767.827	0.18470674
768.012	0.18471045
768.198	0.18469167
768.383	0.18459477
768.569	0.18460058
768.754	0.18448375
768.94	0.1843985
769.125	0.18428173
769.311	0.18417603
769.496	0.18411414
769.682	0.18419262
769.867	0.18419699
770.052	0.18430192
770.238	0.18440304
770.423	0.18447043
770.608	0.1844636
770.794	0.18445299
770.979	0.18436577
771.164	0.18433766
771.35	0.18420293
771.535	0.18420918
771.72	0.18415559
771.905	0.18416375
772.09	0.18410568
772.276	0.18409338
772.461	0.18394939
772.646	0.18387052
772.831	0.18369002
773.016	0.1835993
773.201	0.18349138
773.386	0.18346637
773.571	0.18339947
773.756	0.18344532
773.941	0.18350865
774.126	0.18362498
774.311	0.18355853
774.496	0.18353525
774.681	0.18348642
774.866	0.18340492
775.051	0.18330071
775.236	0.1832005
775.421	0.18299923
775.606	0.18295885
775.791	0.182827
775.976	0.1827399
776.16	0.18271152
776.345	0.18270889
776.53	0.1827468
776.715	0.18279259
776.899	0.18277353
777.084	0.18275722
777.269	0.18263412
777.454	0.18257148
777.638	0.18244928
777.823	0.18227383
778.008	0.18207279
778.192	0.18192503
778.377	0.18181747
778.561	0.18182686
778.746	0.18170666
778.931	0.18166757
779.115	0.18158887
779.3	0.18161109
779.484	0.18156821
779.669	0.18154322
779.853	0.1813609
780.037	0.18130701
780.222	0.1811255
780.406	0.18094965
780.591	0.18073167
780.775	0.18059107
780.959	0.18040867
781.144	0.18035289
781.328	0.18016296
781.512	0.18005902
781.697	0.17994075
781.881	0.17986497
782.065	0.17982905
782.249	0.17983564
782.434	0.17972747
782.618	0.17968252
782.802	0.17964637
782.986	0.17962966
783.17	0.17953356
783.354	0.1793606
783.539	0.17915302
783.723	0.17906544
783.907	0.17892041
784.091	0.17879566
784.275	0.17864734
784.459	0.1785433
784.643	0.17851968
784.827	0.17846163
785.011	0.17833964
785.195	0.17831414
785.379	0.17813718
785.563	0.17800355
785.747	0.17775497
785.93	0.17752817
786.114	0.17727724
786.298	0.17702632
786.482	0.17674161
786.666	0.17661841
786.85	0.17651722
787.033	0.17653237
787.217	0.17648493
787.401	0.17650258
787.585	0.17647531
787.768	0.17650398
787.952	0.17644521
788.136	0.17636165
788.319	0.17618825
788.503	0.17604324
788.687	0.17584176
788.87	0.17568016
789.054	0.17545263
789.237	0.17523493
789.421	0.17499703
789.605	0.17483882
789.788	0.17468584
789.972	0.17456626
790.155	0.17443377
790.338	0.17428554
790.522	0.17416622
790.705	0.17407282
790.889	0.17391549
791.072	0.17377485
791.256	0.17365181
791.439	0.17357913
791.622	0.17351505
791.806	0.17347293
791.989	0.17335989
792.172	0.17329034
792.355	0.17322511
792.539	0.17310134
792.722	0.17289558
792.905	0.17271277
793.088	0.17246049
793.271	0.17227669
793.455	0.17215051
793.638	0.17193885
793.821	0.1716966
794.004	0.17147541
794.187	0.17131899
794.37	0.17117311
794.553	0.17106156
794.736	0.17082568
794.919	0.17057654
795.102	0.17041877
795.285	0.17030958
795.468	0.17010507
795.651	0.1699317
795.834	0.16978199
796.017	0.16971437
796.2	0.16963386
796.383	0.16952406
796.566	0.1694337
796.749	0.16928754
796.931	0.16908891
797.114	0.16887875
797.297	0.16860362
797.48	0.16835762
797.663	0.16818341
797.845	0.16786312
798.028	0.16771443
798.211	0.16757922
798.393	0.1674017
798.576	0.16724214
798.759	0.16705102
798.941	0.16683469
799.124	0.1667678
799.307	0.1666293
799.489	0.16652833
799.672	0.16635986
799.854	0.16618643
800.037	0.16605237
800.219	0.16592147
800.402	0.16573142
800.584	0.16547813
800.767	0.16528228
800.949	0.16513843
801.132	0.16506186
801.314	0.16490038
801.496	0.16467887
801.679	0.16447692
801.861	0.16432531
802.043	0.16406828
802.226	0.16380251
802.408	0.16354399
802.59	0.16338609
802.772	0.1632705
802.955	0.16309321
803.137	0.16292788
803.319	0.16275004
803.501	0.16258025
803.684	0.16234062
803.866	0.16212512
804.048	0.16195335
804.23	0.1618273
804.412	0.1616846
804.594	0.16155006
804.776	0.16133941
804.958	0.16121439
805.14	0.16105244
805.322	0.16077959
805.504	0.16044439
805.686	0.1601466
805.868	0.15991764
806.05	0.15970134
806.232	0.15940853
806.414	0.15918463
806.596	0.15902122
806.778	0.15895736
806.96	0.1588476
807.141	0.1586229
807.323	0.15850839
807.505	0.15842388
807.687	0.1582207
807.869	0.15800164
808.05	0.15773938
808.232	0.15741924
808.414	0.15726761
808.595	0.15695488
808.777	0.15661178
808.959	0.15647418
809.14	0.15617851
809.322	0.15600085
809.504	0.15585908
809.685	0.15571905
809.867	0.15557437
810.048	0.15543982
810.23	0.15520746
810.411	0.15512031
810.593	0.1549262
810.774	0.15476241
810.956	0.15451117
811.137	0.15434711
811.319	0.15418234
811.5	0.15404238
811.681	0.15391799
811.863	0.15374882
812.044	0.15357974
812.225	0.15350017
812.407	0.15338202
812.588	0.15319094
812.769	0.15285228
812.951	0.15254657
813.132	0.15229478
813.313	0.15199598
813.494	0.15159625
813.675	0.15130442
813.857	0.15108915
814.038	0.15095418
814.219	0.15079449
814.4	0.15059711
814.581	0.15044694
814.762	0.15030597
814.943	0.15005423
815.124	0.14974725
815.305	0.14946219
815.486	0.14913359
815.667	0.14883455
815.848	0.14847838
816.029	0.14810758
816.21	0.14781072
816.391	0.14764124
816.572	0.14737004
816.753	0.14714403
816.934	0.14688345
817.115	0.14675511
817.295	0.14658663
817.476	0.14637627
817.657	0.14610969
817.838	0.14590822
818.019	0.14565685
818.199	0.14544889
818.38	0.14516407
818.561	0.1449222
818.741	0.14465157
818.922	0.14436094
819.103	0.14412622
819.283	0.14393599
819.464	0.14369055
819.645	0.14338011
819.825	0.14310853
820.006	0.14291459
820.186	0.14268235
820.367	0.14239811
820.547	0.1420778
820.728	0.14176265
820.908	0.14162335
821.089	0.14139886
821.269	0.14121675
821.45	0.14104999
821.63	0.14084692
821.81	0.14075707
821.991	0.1406409
822.171	0.14041201
822.351	0.14022929
822.532	0.14001881
822.712	0.13978905
822.892	0.13960147
823.072	0.13933535
823.253	0.13914404
823.433	0.13888975
823.613	0.13866681
823.793	0.13839403
823.973	0.13812591
824.154	0.13777284
824.334	0.13743047
824.514	0.13713048
824.694	0.13687283
824.874	0.13658894
825.054	0.13626898
825.234	0.13608153
825.414	0.13591044
825.594	0.13567837
825.774	0.13538908
825.954	0.13510314
826.134	0.13477323
826.314	0.13452666
826.494	0.13416713
826.674	0.1338163
826.854	0.13349222
827.033	0.13313059
827.213	0.13293686
827.393	0.13270649
827.573	0.1325393
827.753	0.132399
827.932	0.13241927
828.112	0.13235768
828.292	0.13233108
828.472	0.13208654
828.651	0.13188746
828.831	0.13157677
829.011	0.13133336
829.19	0.13092185
829.37	0.13064657
829.549	0.13041207
829.729	0.13013138
829.909	0.12982224
830.088	0.12956054
830.268	0.12922089
830.447	0.12901416
830.627	0.12872106
830.806	0.12837378
830.986	0.12812239
831.165	0.12791379
831.344	0.12770841
831.524	0.12743765
831.703	0.12705795
831.883	0.12675304
832.062	0.12646098
832.241	0.12611038
832.421	0.12581285
832.6	0.12544451
832.779	0.12516465
832.958	0.12493677
833.138	0.12467895
833.317	0.12443713
833.496	0.12427895
833.675	0.12419017
833.854	0.12410043
834.034	0.1239324
834.213	0.12378541
834.392	0.1236009
834.571	0.12336321
834.75	0.1231205
834.929	0.12275637
835.108	0.12243559
835.287	0.12224087
835.466	0.12189578
835.645	0.12162381
835.824	0.1213533
836.003	0.12113088
836.182	0.12085216
836.361	0.12057884
836.54	0.12024621
836.719	0.1200373
836.897	0.11977035
837.076	0.11959425
837.255	0.11939508
837.434	0.11928261
837.613	0.11906335
837.791	0.11884458
837.97	0.11855424
838.149	0.11819822
838.328	0.11784379
838.506	0.11750589
838.685	0.11716834
838.864	0.11691732
839.042	0.11665314
839.221	0.11640782
839.4	0.11632677
839.578	0.11610924
839.757	0.11574803
839.935	0.11541453
840.114	0.11517946
840.292	0.11496735
840.471	0.1148198
840.649	0.11458861
840.828	0.11438866
841.006	0.11433872
841.185	0.11416834
841.363	0.11386986
841.541	0.11358679
841.72	0.1133466
841.898	0.11298188
842.076	0.11268367
842.255	0.11235301
842.433	0.11197653
842.611	0.11163193
842.789	0.1113223
842.968	0.11089952
843.146	0.11062219
843.324	0.11030665
843.502	0.11000495
843.68	0.10986024
843.859	0.1097222
844.037	0.10951724
844.215	0.1093905
844.393	0.10923065
844.571	0.1089714
844.749	0.10868843
844.927	0.10835988
845.105	0.10804466
845.283	0.10780862
845.461	0.1074927
845.639	0.10724733
845.817	0.10699687
845.995	0.1067906
846.173	0.10659055
846.351	0.1063203
846.529	0.10600552
846.706	0.10567602
846.884	0.10541147
847.062	0.10521021
847.24	0.10495352
847.418	0.10461376
847.595	0.10440015
847.773	0.10415485
847.951	0.10395972
848.129	0.10360155
848.306	0.1033111
848.484	0.10297152
848.662	0.10283274
848.839	0.1026988
849.017	0.1025262
849.194	0.10233279
849.372	0.10213468
849.549	0.10188888
849.727	0.10174874
849.905	0.10149907
850.082	0.10113687
850.26	0.10080504
850.437	0.10055527
850.614	0.10032476
850.792	0.10010686
850.969	0.09983581
851.147	0.09953193
851.324	0.09927129
851.501	0.09911335
851.679	0.09881161
851.856	0.09848182
852.033	0.09815859
852.211	0.09790335
852.388	0.09769167
852.565	0.097415
852.742	0.09703912
852.92	0.09680609
853.097	0.09656972
853.274	0.09635366
853.451	0.09603509
853.628	0.09577186
853.805	0.09568731
853.982	0.09552996
854.159	0.09528494
854.336	0.09513316
854.514	0.09499359
854.691	0.09484799
854.868	0.09464917
855.045	0.0943184
855.221	0.09406366
855.398	0.09379538
855.575	0.09349367
855.752	0.09315503
855.929	0.09289448
856.106	0.09262735
856.283	0.09245813
856.46	0.09223592
856.637	0.09202511
856.813	0.09182577
856.99	0.0916387
857.167	0.09134109
857.344	0.09111592
857.52	0.09077893
857.697	0.09046405
857.874	0.09016159
858.05	0.08988306
858.227	0.08964803
858.404	0.08941174
858.58	0.08912343
858.757	0.08883476
858.933	0.08860485
859.11	0.08841163
859.287	0.0881202
859.463	0.08789651
859.64	0.08769832
859.816	0.08745682
859.993	0.08726877
860.169	0.08703887
860.345	0.08677503
860.522	0.08654829
860.698	0.08625964
860.875	0.08605648
861.051	0.08580699
861.227	0.08557295
861.404	0.08538728
861.58	0.08523268
861.756	0.08508121
861.932	0.08494342
862.109	0.08475279
862.285	0.0846593
862.461	0.08446175
862.637	0.08419538
862.813	0.08391411
862.99	0.08359158
863.166	0.08329472
863.342	0.08302073
863.518	0.08265345
863.694	0.0823921
863.87	0.08220176
864.046	0.0820355
864.222	0.08201608
864.398	0.08177826
864.574	0.08149342
864.75	0.08118902
864.926	0.0809333
865.102	0.08071593
865.278	0.08026302
865.454	0.07977169
865.63	0.07949456
865.805	0.07926364
865.981	0.07916344
866.157	0.07897312
866.333	0.07867649
866.509	0.07864994
866.684	0.07848052
866.86	0.07830141
867.036	0.07814297
867.212	0.07777067
867.387	0.07742374
867.563	0.07714156
867.739	0.07684051
867.914	0.07656227
868.09	0.07631037
868.265	0.07603194
868.441	0.07591558
868.617	0.07577123
868.792	0.07563095
868.968	0.07545717
869.143	0.07538466
869.319	0.07528006
869.494	0.07505772
869.67	0.07489659
869.845	0.07473959
870.02	0.07450917
870.196	0.07433375
870.371	0.07402478
870.546	0.07377484
870.722	0.0735473
870.897	0.07328675
871.072	0.07300126
871.248	0.07274581
871.423	0.0724621
871.598	0.07230446
871.773	0.07202468
871.949	0.07176867
872.124	0.07154934
872.299	0.0714204
872.474	0.07127526
872.649	0.07111616
872.824	0.07083183
872.999	0.0705716
873.174	0.07039904
873.349	0.07022499
873.524	0.06992592
873.699	0.06969595
873.874	0.06942004
874.049	0.06932388
874.224	0.06916634
874.399	0.06905615
874.574	0.06888951
874.749	0.06878835
874.924	0.06856746
875.099	0.06842929
875.274	0.06810426
875.449	0.06787246
875.623	0.06748687
875.798	0.0671049
875.973	0.06665091
876.148	0.06631808
876.322	0.06600202
876.497	0.06579435
876.672	0.06548487
876.846	0.06529006
877.021	0.06509507
877.196	0.06508321
877.37	0.06495342
877.545	0.06481575
877.72	0.06458399
877.894	0.06445473
878.069	0.06432446
878.243	0.06412624
878.418	0.06388298
878.592	0.0636105
878.767	0.06336948
878.941	0.06316643
879.116	0.06293943
879.29	0.06263558
879.464	0.0624536
879.639	0.06222018
879.813	0.06217287
879.987	0.06196197
880.162	0.061841
880.336	0.06177163
880.51	0.06170568
880.685	0.06154562
880.859	0.06138191
881.033	0.06117454
881.207	0.06088778
881.381	0.06058587
881.556	0.06019699
881.73	0.05998032
881.904	0.05976072
882.078	0.05954909
882.252	0.05924129
882.426	0.05921095
882.6	0.05908464
882.774	0.059065
882.948	0.05886061
883.122	0.05865253
883.296	0.05847114
883.47	0.0583793
883.644	0.05806338
883.818	0.05778784
883.992	0.05743631
884.166	0.05709959
884.34	0.05685709
884.514	0.05656454
884.687	0.05626024
884.861	0.05606398
885.035	0.05588966
885.209	0.05579721
885.382	0.05572576
885.556	0.05564183
885.73	0.0556386
885.904	0.05552738
886.077	0.05545146
886.251	0.05538248
886.425	0.05522287
886.598	0.05494917
886.772	0.05462528
886.945	0.05426509
887.119	0.05394379
887.292	0.05363707
887.466	0.05336234
887.64	0.05301197
887.813	0.05291849
887.986	0.05282999
888.16	0.05274553
888.333	0.05274185
888.507	0.05270933
888.68	0.0526283
888.854	0.0526266
889.027	0.0523457
889.2	0.05213655
889.374	0.05187252
889.547	0.05152968
889.72	0.05124131
889.893	0.05090715
890.067	0.05066348
890.24	0.05056625
890.413	0.05043174
890.586	0.05030251
890.759	0.05019836
890.933	0.05000611
891.106	0.04992303
891.279	0.04982234
891.452	0.04966
891.625	0.04938703
891.798	0.04919312
891.971	0.04897811
892.144	0.04869557
892.317	0.04849656
892.49	0.04830287
892.663	0.04814635
892.836	0.04809873
893.009	0.04799557
893.182	0.04790604
893.355	0.04786284
893.527	0.04773484
893.7	0.04754257
893.873	0.04740092
894.046	0.04723845
894.219	0.0471058
894.391	0.04696077
894.564	0.04680327
894.737	0.04662321
894.91	0.04655407
895.082	0.04641425
895.255	0.04621552
895.428	0.04600101
895.6	0.04574231
895.773	0.04560331
895.945	0.04544944
896.118	0.04519857
896.291	0.04508981
896.463	0.04492455
896.636	0.04480081
896.808	0.04465127
896.981	0.04456717
897.153	0.04442644
897.326	0.04429531
897.498	0.04407179
897.67	0.04392048
897.843	0.04373669
898.015	0.04363295
898.187	0.0433637
898.36	0.04308526
898.532	0.04280036
898.704	0.04262625
898.877	0.04244677
899.049	0.04238778
899.221	0.04221167
899.393	0.04205738
899.566	0.04200362
899.738	0.04192223
899.91	0.04175056
900.082	0.04165891
900.254	0.04139008
900.426	0.04124086
900.598	0.04114197
900.77	0.04091516
900.942	0.0407007
901.114	0.04048978
901.286	0.04028365
901.458	0.04017161
901.63	0.04014941
901.802	0.03998879
901.974	0.0398875
902.146	0.03987485
902.318	0.03980722
902.49	0.03975019
902.662	0.03965304
902.834	0.03959633
903.005	0.03969643
903.177	0.0397013
903.349	0.0396114
903.521	0.0395286
903.693	0.03943006
903.864	0.03921906
904.036	0.0389458
904.208	0.03842699
904.379	0.03813644
904.551	0.03793903
904.723	0.03777145
904.894	0.03763499
905.066	0.03772066
905.237	0.03774324
905.409	0.03789123
905.58	0.03796202
905.752	0.03782592
905.923	0.03763842
906.095	0.03748992
906.266	0.03714358
906.438	0.03697025
906.609	0.03673538
906.78	0.03646678
906.952	0.03633916
907.123	0.0363061
907.295	0.03616156
907.466	0.03602254
907.637	0.03575961
907.808	0.03556033
907.98	0.03550353
908.151	0.03544094
908.322	0.03527968
908.493	0.03508387
908.665	0.03514113
908.836	0.03503437
909.007	0.03495082
909.178	0.03478943
909.349	0.03451959
909.52	0.03437436
909.691	0.0343163
909.862	0.03398818
910.033	0.03383555
910.204	0.03363828
910.375	0.03336536
910.546	0.03329209
910.717	0.03317878
910.888	0.03303456
911.059	0.0330887
911.23	0.03296553
911.401	0.03289353
911.572	0.0328917
911.742	0.03291169
911.913	0.0327672
912.084	0.03265402
912.255	0.0323699
912.426	0.03216806
912.596	0.03203984
912.767	0.03184926
912.938	0.03166149
913.108	0.03153594
913.279	0.03134989
913.45	0.03133056
913.62	0.03137107
913.791	0.03137074
913.962	0.03144666
914.132	0.031254
914.303	0.03128026
914.473	0.03131871
914.644	0.03123493
914.814	0.03110864
914.985	0.03101176
915.155	0.03066674
915.326	0.03043296
915.496	0.0300441
915.666	0.02964942
915.837	0.02943678
916.007	0.02922591
916.177	0.02906786
916.348	0.02919342
916.518	0.02932195
916.688	0.02948265
916.858	0.02955145
917.029	0.02949436
917.199	0.02948748
917.369	0.02928191
917.539	0.02905484
917.709	0.0288374
917.88	0.02857677
918.05	0.02846767
918.22	0.02841066
918.39	0.02824366
918.56	0.02819767
918.73	0.02803896
918.9	0.02790185
919.07	0.02782822
919.24	0.02772401
919.41	0.02752877
919.58	0.02752418
919.75	0.02740707
919.92	0.02730604
920.09	0.02720619
920.26	0.02707402
920.429	0.02692269
920.599	0.02682413
920.769	0.02655765
920.939	0.02645518
921.109	0.02634921
921.278	0.02603408
921.448	0.02579432
921.618	0.02563785
921.787	0.02544263
921.957	0.02540082
922.127	0.02529712
922.296	0.02518287
922.466	0.02520492
922.636	0.0252602
922.805	0.02512368
922.975	0.02506328
923.144	0.02503814
923.314	0.02476228
923.483	0.02465542
923.653	0.02471844
923.822	0.02448548
923.992	0.02433542
924.161	0.02413901
924.331	0.02371646
924.5	0.02375724
924.669	0.02363226
924.839	0.02335594
925.008	0.02339247
925.177	0.02337196
925.347	0.02343283
925.516	0.02352152
925.685	0.02334247
925.854	0.02328897
926.023	0.02327722
926.193	0.0230738
926.362	0.02304146
926.531	0.02288726
926.7	0.02274726
926.869	0.02280923
927.038	0.02267658
927.207	0.02265335
927.376	0.02262234
927.545	0.02243137
927.715	0.02245517
927.884	0.02232663
928.052	0.02211803
928.221	0.02202745
928.39	0.02192729
928.559	0.02211604
928.728	0.02227496
928.897	0.02213589
929.066	0.02235886
929.235	0.02243306
929.404	0.02240827
929.572	0.02242124
929.741	0.02213507
929.91	0.02192068
930.079	0.02182712
930.247	0.02163557
930.416	0.02141778
930.585	0.02126458
930.753	0.02117571
930.922	0.02098076
931.091	0.02077188
931.259	0.02064591
931.428	0.02054761
931.596	0.02068955
931.765	0.02075005
931.934	0.02061918
932.102	0.02076496
932.27	0.02092145
932.439	0.02104488
932.607	0.02088851
932.776	0.02081398
932.944	0.02072348
933.113	0.0206746
933.281	0.0204694
933.449	0.02015603
933.618	0.01980789
933.786	0.01963232
933.954	0.01924606
934.123	0.01918277
934.291	0.01917968
934.459	0.01911506
934.627	0.01919337
934.795	0.01938891
934.964	0.01956209
935.132	0.01972868
935.3	0.01977762
935.468	0.01965673
935.636	0.0196647
935.804	0.01978628
935.972	0.01965121
936.14	0.01960524
936.308	0.01941538
936.476	0.01923992
936.644	0.0190811
936.812	0.0191507
936.98	0.01895401
937.148	0.01883286
937.316	0.01870425
937.484	0.01870291
937.652	0.01876529
937.82	0.01876994
937.987	0.01880194
938.155	0.01924957
938.323	0.01910465
938.491	0.01895507
938.658	0.01953916
938.826	0.01966628
938.994	0.01994804
939.162	0.01965201
939.329	0.01923562
939.497	0.01937719
939.665	0.01992181
939.832	0.01926074
940	0.01955846
940.167	0.01931802
940.335	0.01954875
940.502	0.01971624
940.67	0.01966961
940.837	0.01975499
941.005	0.02018332
941.172	0.02022103
941.34	0.02011529
941.507	0.02082
941.674	0.02056041
941.842	0.02071277
942.009	0.0208681
942.177	0.02076183
942.344	0.02068707
942.511	0.02219494
942.678	0.02220948
942.846	0.02268308
943.013	0.02307852
943.18	0.02272317
943.347	0.02268224
943.514	0.02254183
943.682	0.0215435
943.849	0.02090033
944.016	0.02040537
944.183	0.02076702
944.35	0.02045757
944.517	0.02114708
944.684	0.02094946
944.851	0.02056732
945.018	0.02053219
945.185	0.02058073
945.352	0.01981175
945.519	0.02077631
945.686	0.02004548
945.853	0.01999551
946.02	0.01968353
946.187	0.01938882
946.353	0.01943755
946.52	0.01979585
946.687	0.01921275
946.854	0.01976211
947.021	0.02010342
947.187	0.02008371
947.354	0.02019212
947.521	0.02030737
947.687	0.01976942
947.854	0.01970386
948.021	0.01990997
948.187	0.01883376
948.354	0.019047
948.52	0.01863181
948.687	0.01840081
948.854	0.01831144
949.02	0.01779152
949.187	0.01667643
949.353	0.01672595
949.52	0.01638594
949.686	0.01626474
949.852	0.01649367
950.019	0.0171603
950.185	0.01663537
950.352	0.01671138
950.518	0.01681011
950.684	0.01700539
950.851	0.01661183
951.017	0.01598259
951.183	0.01500169
951.349	0.01581711
951.516	0.01577979
951.682	0.01587625
951.848	0.01574259
952.014	0.01605409
952.18	0.01635303
952.346	0.01700078
952.512	0.01709558
952.679	0.01672821
952.845	0.01635107
953.011	0.01589198
953.177	0.01623312
953.343	0.01576759
953.509	0.01519037
953.675	0.01463725
953.841	0.01498899
954.007	0.01503513
954.172	0.01510223
954.338	0.01457182
954.504	0.01478428
954.67	0.01486435
954.836	0.01455486
955.002	0.01410864
955.167	0.01445592
955.333	0.01400399
955.499	0.01412256
955.665	0.01391652
955.83	0.01370457
955.996	0.01358003
956.162	0.01345138
956.327	0.01294935
956.493	0.01305056
956.659	0.0128631
956.824	0.01257753
956.99	0.01265578
957.155	0.0126494
957.321	0.01230003
957.486	0.01230846
957.652	0.01229568
957.817	0.01216015
957.983	0.01199009
958.148	0.01188378
958.314	0.011697
958.479	0.01175104
958.644	0.01178575
958.81	0.01209417
958.975	0.01205593
959.14	0.01176423
959.306	0.01178656
959.471	0.01178855
959.636	0.01141642
959.801	0.01109764
959.967	0.01082817
960.132	0.01051257
960.297	0.01086165
960.462	0.01055014
960.627	0.01053932
960.792	0.01110739
960.957	0.01090131
961.123	0.01103311
961.288	0.01096983
961.453	0.0109908
961.618	0.01071609
961.783	0.01073444
961.948	0.01079876
962.113	0.01082236
962.277	0.01032837
962.442	0.01042814
962.607	0.0101945
962.772	0.01038035
962.937	0.01020897
963.102	0.01013477
963.267	0.01027615
963.431	0.01046946
963.596	0.0107735
963.761	0.01082487
963.926	0.01099354
964.09	0.01119585
964.255	0.01109417
964.42	0.01094555
964.584	0.01091885
964.749	0.0109205
964.914	0.01079692
965.078	0.01034646
965.243	0.01022299
965.407	0.01030583
965.572	0.01020301
965.736	0.01013259
965.901	0.00984381
966.065	0.00994526
966.23	0.01042206
966.394	0.01039241
966.559	0.00992822
966.723	0.00994585
966.887	0.00965715
967.052	0.01001512
967.216	0.00997785
967.38	0.00966869
967.545	0.0096143
967.709	0.0094901
967.873	0.00952065
968.037	0.00970824
968.202	0.00893569
968.366	0.00882086
968.53	0.00864922
968.694	0.00876219
968.858	0.00908149
969.022	0.00895865
969.187	0.00920377
969.351	0.00951384
969.515	0.009422
969.679	0.00975395
969.843	0.00978666
970.007	0.00942806
970.171	0.00940783
970.335	0.00917173
970.499	0.00916475
970.662	0.0090956
970.826	0.00886197
970.99	0.00843654
971.154	0.00871243
971.318	0.00895104
971.482	0.00894327
971.645	0.00878073
971.809	0.00888517
971.973	0.00883381
972.137	0.00911278
972.3	0.00895565
972.464	0.00869725
972.628	0.00882378
972.791	0.00917972
972.955	0.0094711
973.119	0.00957309
973.282	0.00910721
973.446	0.00907269
973.609	0.00933793
973.773	0.00902774
973.936	0.00883708
974.1	0.00868043
974.263	0.00859115
974.427	0.00866562
974.59	0.00886754
974.754	0.00868681
974.917	0.00870096
975.08	0.0083752
975.244	0.00810756
975.407	0.00825788
975.57	0.00834002
975.734	0.00795158
975.897	0.00774649
976.06	0.00748611
976.223	0.00751375
976.387	0.0073602
976.55	0.00662141
976.713	0.00612581
976.876	0.00593674
977.039	0.00590666
977.202	0.00630187
977.365	0.00632678
977.528	0.00665185
977.692	0.00718047
977.855	0.00761924
978.018	0.00762539
978.181	0.00732665
978.344	0.00736409
978.506	0.00742361
978.669	0.00714548
978.832	0.00696194
978.995	0.00689952
979.158	0.00677612
979.321	0.00703472
979.484	0.00670076
979.646	0.00654421
979.809	0.00668308
979.972	0.00660891
980.135	0.00669168
980.297	0.00697999
980.46	0.00707822
980.623	0.00722056
980.786	0.00743584
980.948	0.00752753
981.111	0.00764536
981.273	0.00778488
981.436	0.00809249
981.599	0.00815745
981.761	0.00766042
981.924	0.00738671
982.086	0.00747089
982.249	0.00681124
982.411	0.00665768
982.573	0.00606122
982.736	0.00529652
982.898	0.00567004
983.061	0.00523897
983.223	0.00447237
983.385	0.00515244
983.548	0.00505103
983.71	0.00527624
983.872	0.00598961
984.034	0.00588489
984.197	0.00662996
984.359	0.00692456
984.521	0.00709418
984.683	0.00701104
984.845	0.00699252
985.008	0.0067288
985.17	0.0068935
985.332	0.00652748
985.494	0.00682727
985.656	0.00678945
985.818	0.00664929
985.98	0.00646829
986.142	0.00674675
986.304	0.00641758
986.466	0.00636517
986.628	0.00640191
986.79	0.00641647
986.952	0.00667397
987.113	0.00690691
987.275	0.00646003
987.437	0.006738
987.599	0.00688496
987.761	0.00695391
987.922	0.0064537
988.084	0.00702851
988.246	0.00718564
988.408	0.00760158
988.569	0.00763365
988.731	0.00754588
988.893	0.00728814
989.054	0.00753639
989.216	0.00678412
989.377	0.00635002
989.539	0.00674117
989.701	0.00624928
989.862	0.00622958
990.024	0.00614447
990.185	0.00626478
990.347	0.00625017
990.508	0.00619413
990.669	0.00546406
990.831	0.00580436
990.992	0.00595586
991.154	0.00613303
991.315	0.00607606
991.476	0.00671268
991.638	0.00763562
991.799	0.0077982
991.96	0.00745824
992.121	0.00742005
992.283	0.0066182
992.444	0.00693393
992.605	0.00592355
992.766	0.00585986
992.927	0.00589266
993.088	0.00602908
993.249	0.00587619
993.41	0.00651741
993.572	0.0057057
993.733	0.0064544
993.894	0.00626643
994.055	0.00585045
994.216	0.00582714
994.376	0.00614274
994.537	0.00615808
994.698	0.00678049
994.859	0.00624342
995.02	0.00648393
995.181	0.00672615
995.342	0.0070755
995.503	0.00693992
995.663	0.00657819
995.824	0.00611966
995.985	0.00616927
996.146	0.00541167
996.306	0.0055739
996.467	0.00559986
996.628	0.00542337
996.788	0.00573628
996.949	0.00674204
997.11	0.00708574
997.27	0.00749389
997.431	0.00730569
997.591	0.00696855
997.752	0.00735125
997.912	0.00750619
998.073	0.00733894
998.233	0.00820233
998.394	0.00765247
998.554	0.00851976
998.714	0.00838877
998.875	0.00883334
999.035	0.00884569
999.196	0.00808086
999.356	0.00705098
999.516	0.00800293
999.676	0.00759047
999.837	0.00784244
999.997	0.00733311
1000.157	0.00684267
1000.317	0.00758259
1000.477	0.00774533
1000.638	0.00720601
1000.798	0.00712262
1000.958	0.0065189
1001.118	0.00685777
1001.278	0.00764809
1001.438	0.0068005
1001.598	0.0065071
1001.758	0.00580306
1001.918	0.00538209
1002.078	0.00612277
1002.238	0.00577014
1002.398	0.00618659
1002.558	0.00654602
1002.718	0.0064693
1002.878	0.00690339
1003.037	0.00708811
1003.197	0.00771627
1003.357	0.0073648
1003.517	0.00714121
1003.677	0.00692051
1003.836	0.00757621
1003.996	0.00873335
1004.156	0.0086926
1004.315	0.00927653
1004.475	0.00932113
1004.635	0.00957597
1004.794	0.01001178
1004.954	0.00926731
1005.114	0.00885627
1005.273	0.00928251
1005.433	0.00692947
1005.592	0.0073994
1005.752	0.00628585
1005.911	0.0058005
1006.071	0.00684736
1006.23	0.00655445
1006.389	0.0061428
1006.549	0.00751662
1006.708	0.00735
1006.868	0.00781291
1007.027	0.00828816
1007.186	0.00855904
1007.345	0.0084875
1007.505	0.00926716
1007.664	0.00999723
1007.823	0.00985016
1007.982	0.01023859
1008.142	0.00986175
1008.301	0.00933909
1008.46	0.00874187
1008.619	0.00819579
1008.778	0.00779301
1008.937	0.0081563
1009.096	0.00852591
1009.255	0.00945186
1009.414	0.00973843
1009.573	0.01068089
1009.732	0.00992131
1009.891	0.00934219
1010.05	0.00872095
1010.209	0.00771217
1010.368	0.00686302
1010.527	0.00653201
1010.686	0.00666243
1010.845	0.0070899
1011.003	0.00742624
1011.162	0.00775059
1011.321	0.00754002
1011.48	0.00772377
1011.638	0.00751155
1011.797	0.00770642
1011.956	0.0083868
1012.115	0.00813373
1012.273	0.00849028
1012.432	0.00929688
1012.59	0.00788361
1012.749	0.00735505
1012.908	0.00631592
1013.066	0.006581
1013.225	0.00658607
1013.383	0.00491835
1013.542	0.00431735
1013.7	0.0071026
1013.859	0.00813759
1014.017	0.00869331
1014.175	0.00875045
1014.334	0.01015402
1014.492	0.0126461
1014.65	0.01294621
1014.809	0.01173285
1014.967	0.01127148
1015.125	0.01230519
1015.284	0.01374137
1015.442	0.01364755
1015.6	0.01085691
1015.758	0.01121441
1015.916	0.01191816
1016.075	0.01278583
1016.233	0.01071838
1016.391	0.00943391
1016.549	0.00888141
1016.707	0.0106749
1016.865	0.01063349
1017.023	0.01146602
1017.181	0.01082427
1017.339	0.01396207
1017.497	0.01393364
1017.655	0.01303168
1017.813	0.01290969
1017.971	0.01166562
1018.129	0.00966162
1018.286	0.01004458
1018.444	0.00745481
1018.602	0.00560382
1018.76	0.00575404
1018.918	0.00803419
1019.075	0.01012472
1019.233	0.01041759
1019.391	0.00797592
1019.549	0.00712934
1019.706	0.00980143
1019.864	0.01166431
1020.022	0.01121932
1020.179	0.01115235
1020.337	0.01039145
1020.494	0.01278502
1020.652	0.01325201
1020.809	0.01447752
1020.967	0.01329897
1021.124	0.01355952
1021.282	0.01250616
1021.439	0.01360194
1021.597	0.01500386
1021.754	0.0168795
1021.911	0.01684881
1022.069	0.01604755
1022.226	0.01432125
1022.384	0.01495182
1022.541	0.01645597
1022.698	0.01536894
1022.855	0.01603291
1023.013	0.01451925
1023.17	0.01497399
1023.327	0.01491387
1023.484	0.01490723
1023.641	0.01270577
1023.798	0.01461813
1023.956	0.01508207
1024.113	0.01576748
1024.27	0.0173927
1024.427	0.01784503
1024.584	0.01597444
1024.741	0.01710523
1024.898	0.01648883
1025.055	0.01704346
1025.212	0.0146149
1025.369	0.0137777
1025.525	0.01416128
1025.682	0.01852133
1025.839	0.01803877
1025.996	0.01573162
1026.153	0.01148431
1026.31	0.01527482
1026.466	0.01590765
1026.623	0.01804166
1026.78	0.01501074
1026.937	0.01440219
1027.093	0.02178496
1027.25	0.02646985
1027.407	0.02432731
1027.563	0.02621839
1027.72	0.02432726
1027.876	0.02560445
1028.033	0.02940191
1028.19	0.02121325
1028.346	0.02248639
1028.503	0.02276144
1028.659	0.01848561
1028.816	0.02179613
1028.972	0.02068954
1029.128	0.02077343
1029.285	0.02482194
1029.441	0.01871577
1029.598	0.01730332
1029.754	0.02046898
1029.91	0.01684294
1030.067	0.01898234
1030.223	0.01859725
1030.379	0.01963246
1030.535	0.02326809
1030.691	0.02676982
1030.848	0.02537318
1031.004	0.027637
1031.16	0.0264302
1031.316	0.02197594
1031.472	0.0167621
1031.628	0.0200813
1031.784	0.01692467
1031.94	0.02297621
1032.096	0.0181107
1032.252	0.01936595
1032.408	0.02454349
1032.564	0.02677331
1032.72	0.02446172
1032.876	0.02812989
1033.032	0.02209161
1033.188	0.02431224
1033.344	0.02270455
1033.5	0.02111522
1033.655	0.02164204
1033.811	0.021102
1033.967	0.01588537
