Data from 0_1_mm_pl_70pc_Absorbance__0__16-34-36-370.txt Node

Date: Fri Feb 24 16:34:36 CET 2023
User: Ange
Spectrometer: FLMT08341
Trigger mode: 0
Integration Time (sec): 1.000000E-2
Scans to average: 400
Electric dark correction enabled: true
Nonlinearity correction enabled: false
Boxcar width: 3
XAxis mode: Wavelengths
Number of Pixels in Spectrum: 3648
>>>>>Begin Spectral Data<<<<<
345.271	0.00067502
345.487	-0.00190984
345.704	-0.00468505
345.921	-0.00270526
346.137	-0.01723617
346.354	-0.03755683
346.571	-0.0787635
346.787	0.00059495
347.004	-0.01557171
347.22	-0.05247656
347.437	-0.08944999
347.653	-0.13586363
347.87	0.04511139
348.086	1.40617836
348.303	0.26221883
348.519	0.36252746
348.736	0.36958835
348.952	0.37494982
349.169	0.38974642
349.385	0.40805007
349.601	0.40940671
349.818	0.41033692
350.034	0.40997711
350.251	0.41089461
350.467	0.41698607
350.683	0.41136528
350.9	0.41246807
351.116	0.40733983
351.332	0.40121752
351.549	0.4117235
351.765	0.42395709
351.981	0.43061813
352.197	0.44479767
352.414	0.45788638
352.63	0.4689142
352.846	0.48286234
353.062	0.47601114
353.278	0.46618477
353.495	0.47582636
353.711	0.47707525
353.927	0.48214952
354.143	0.48199586
354.359	0.47398664
354.575	0.47346517
354.792	0.4849532
355.008	0.475904
355.224	0.46931545
355.44	0.46148077
355.656	0.46122889
355.872	0.4725116
356.088	0.49733719
356.304	0.50183849
356.52	0.50643111
356.736	0.5149143
356.952	0.52189835
357.168	0.52348514
357.384	0.52773045
357.6	0.51386798
357.816	0.51960652
358.032	0.52750089
358.248	0.53922353
358.464	0.54215451
358.679	0.54827165
358.895	0.5498059
359.111	0.55729037
359.327	0.54824958
359.543	0.55153208
359.759	0.56035205
359.974	0.55914997
360.19	0.55677211
360.406	0.55763627
360.622	0.55463924
360.838	0.55147089
361.053	0.5534006
361.269	0.55129023
361.485	0.55442945
361.701	0.56015386
361.916	0.55314198
362.132	0.55492252
362.348	0.55907964
362.563	0.55859953
362.779	0.55185135
362.995	0.554115
363.21	0.55638842
363.426	0.56148825
363.641	0.56117444
363.857	0.56691218
364.073	0.56490769
364.288	0.56131337
364.504	0.57059878
364.719	0.57016668
364.935	0.56886132
365.15	0.56919399
365.366	0.56818822
365.581	0.57358172
365.797	0.57703551
366.012	0.56860996
366.228	0.56229254
366.443	0.56861851
366.658	0.56834995
366.874	0.5638181
367.089	0.56862687
367.305	0.56758674
367.52	0.56629462
367.735	0.56612785
367.951	0.56056624
368.166	0.56139052
368.381	0.56917303
368.597	0.56059176
368.812	0.5664811
369.027	0.57031937
369.243	0.57133884
369.458	0.58219654
369.673	0.57983881
369.888	0.57818696
370.104	0.57514678
370.319	0.57277474
370.534	0.56752176
370.749	0.56682021
370.964	0.56293952
371.179	0.56279398
371.395	0.55827087
371.61	0.56058901
371.825	0.55464938
372.04	0.55444962
372.255	0.5519433
372.47	0.54552629
372.685	0.54083099
372.9	0.5386756
373.115	0.53287736
373.33	0.53475624
373.545	0.53362699
373.76	0.53342355
373.975	0.53051329
374.19	0.52742612
374.405	0.52642636
374.62	0.53029172
374.835	0.53202547
375.05	0.53080794
375.265	0.52929992
375.48	0.52948262
375.695	0.53586054
375.91	0.53240601
376.125	0.52528323
376.339	0.5150178
376.554	0.51335885
376.769	0.51014
376.984	0.50830829
377.199	0.50587901
377.414	0.50444239
377.628	0.50846966
377.843	0.51170208
378.058	0.51058989
378.273	0.51222155
378.487	0.51111557
378.702	0.50810434
378.917	0.50553381
379.131	0.49891263
379.346	0.49198389
379.561	0.48690216
379.775	0.48165919
379.99	0.47725003
380.205	0.47237976
380.419	0.46831883
380.634	0.46421566
380.848	0.46635621
381.063	0.46534849
381.278	0.46830049
381.492	0.46424991
381.707	0.46542907
381.921	0.46336477
382.136	0.46526831
382.35	0.46003497
382.565	0.4566212
382.779	0.45415473
382.994	0.45429231
383.208	0.44923367
383.422	0.4499252
383.637	0.44694453
383.851	0.44817062
384.066	0.44914434
384.28	0.44675539
384.494	0.44368682
384.709	0.44444131
384.923	0.44304786
385.137	0.43914624
385.352	0.43611569
385.566	0.43484768
385.78	0.43186708
385.995	0.42977344
386.209	0.42605195
386.423	0.42527145
386.637	0.42485718
386.852	0.42197736
387.066	0.41826698
387.28	0.41494638
387.494	0.41531772
387.708	0.41413541
387.923	0.41053039
388.137	0.40964935
388.351	0.40877632
388.565	0.40809833
388.779	0.4080352
388.993	0.40797521
389.207	0.40608588
389.421	0.40470662
389.635	0.40182017
389.85	0.39821496
390.064	0.3963787
390.278	0.39416917
390.492	0.39146796
390.706	0.39051375
390.92	0.38820839
391.134	0.38733814
391.348	0.38897218
391.561	0.38598687
391.775	0.3831779
391.989	0.37924403
392.203	0.37759152
392.417	0.37644289
392.631	0.37576133
392.845	0.37200326
393.059	0.37203908
393.273	0.37049611
393.486	0.36820342
393.7	0.36470858
393.914	0.36408759
394.128	0.36159141
394.342	0.35982167
394.555	0.35631311
394.769	0.35437617
394.983	0.35414732
395.197	0.35362445
395.41	0.35060468
395.624	0.34868004
395.838	0.34689297
396.051	0.34791454
396.265	0.34579255
396.479	0.34413334
396.692	0.34233065
396.906	0.34047033
397.12	0.3390903
397.333	0.33889564
397.547	0.33592096
397.76	0.33572679
397.974	0.33417111
398.187	0.33324933
398.401	0.33296998
398.614	0.33131424
398.828	0.32891895
399.041	0.32716574
399.255	0.32507303
399.468	0.32340779
399.682	0.32156856
399.895	0.3200257
400.109	0.31804614
400.322	0.31636139
400.536	0.31431069
400.749	0.31401272
400.962	0.31319724
401.176	0.31123048
401.389	0.30898816
401.602	0.30700795
401.816	0.30641607
402.029	0.30571252
402.242	0.30320821
402.456	0.30141639
402.669	0.29935789
402.882	0.29740816
403.095	0.29754359
403.309	0.2954864
403.522	0.29433135
403.735	0.29317086
403.948	0.29158667
404.161	0.29222176
404.375	0.29113605
404.588	0.28982137
404.801	0.28881569
405.014	0.28704625
405.227	0.28621637
405.44	0.28571518
405.653	0.28448506
405.866	0.28313419
406.079	0.2813822
406.293	0.27999781
406.506	0.27854832
406.719	0.27743584
406.932	0.27617238
407.145	0.27410341
407.358	0.27353811
407.571	0.27146864
407.784	0.27036871
407.996	0.26945658
408.209	0.26745442
408.422	0.26565729
408.635	0.26500728
408.848	0.26385391
409.061	0.26229719
409.274	0.26101825
409.487	0.25980947
409.7	0.25887079
409.912	0.25792223
410.125	0.25656031
410.338	0.25542466
410.551	0.25499362
410.764	0.25401125
410.976	0.25313784
411.189	0.25237246
411.402	0.25145001
411.615	0.25047978
411.827	0.24955035
412.04	0.24858229
412.253	0.24737263
412.465	0.24642124
412.678	0.24542301
412.891	0.24476659
413.103	0.24321749
413.316	0.2420231
413.529	0.24141791
413.741	0.24061706
413.954	0.23961952
414.166	0.23849764
414.379	0.23700262
414.591	0.23646969
414.804	0.23514826
415.016	0.23390834
415.229	0.23290399
415.441	0.23153573
415.654	0.23052036
415.866	0.22972037
416.079	0.22888016
416.291	0.22828622
416.504	0.22782527
416.716	0.22713831
416.928	0.22667394
417.141	0.22591068
417.353	0.22538626
417.566	0.22419326
417.778	0.22337482
417.99	0.22194002
418.203	0.22083032
418.415	0.21996579
418.627	0.21920683
418.839	0.2179446
419.052	0.21768936
419.264	0.21677603
419.476	0.21636623
419.688	0.21569134
419.901	0.21482519
420.113	0.21399057
420.325	0.2133829
420.537	0.21226762
420.749	0.21205667
420.961	0.21129634
421.174	0.21030144
421.386	0.20930936
421.598	0.20862986
421.81	0.20804055
422.022	0.20728655
422.234	0.20624856
422.446	0.20538729
422.658	0.2048577
422.87	0.20422725
423.082	0.20348222
423.294	0.20256427
423.506	0.20193327
423.718	0.20112612
423.93	0.20041536
424.142	0.19955507
424.354	0.19878325
424.566	0.19814239
424.778	0.1972897
424.99	0.19641262
425.202	0.19587004
425.414	0.19507464
425.625	0.19473804
425.837	0.19391176
426.049	0.19334217
426.261	0.19271789
426.473	0.19202784
426.684	0.19110112
426.896	0.19078399
427.108	0.18975705
427.32	0.18934556
427.531	0.1884297
427.743	0.18791659
427.955	0.18753233
428.167	0.18705597
428.378	0.18630848
428.59	0.18582219
428.802	0.1851831
429.013	0.18456297
429.225	0.18404211
429.436	0.18336417
429.648	0.18305121
429.86	0.18261055
430.071	0.18219291
430.283	0.18170728
430.494	0.1813469
430.706	0.18070532
430.917	0.18014022
431.129	0.17975466
431.34	0.17932719
431.552	0.17890775
431.763	0.17842344
431.975	0.17798059
432.186	0.17752323
432.398	0.17722147
432.609	0.17617654
432.821	0.17562708
433.032	0.17492286
433.243	0.17444644
433.455	0.17388413
433.666	0.17341665
433.877	0.17307973
434.089	0.17243928
434.3	0.17178037
434.511	0.17116616
434.723	0.17064571
434.934	0.16997369
435.145	0.1695129
435.356	0.16883556
435.568	0.16865031
435.779	0.16820644
435.99	0.16785805
436.201	0.16757733
436.412	0.16729957
436.624	0.16707793
436.835	0.16674159
437.046	0.16627919
437.257	0.16576794
437.468	0.16545202
437.679	0.16489729
437.89	0.16453745
438.101	0.16383764
438.312	0.163312
438.523	0.16292313
438.734	0.16261609
438.945	0.16225768
439.156	0.1617272
439.367	0.16126642
439.578	0.16108643
439.789	0.16062216
440	0.16019862
440.211	0.15975111
440.422	0.1594405
440.633	0.15915613
440.844	0.15852354
441.055	0.1578546
441.266	0.15755188
441.477	0.15711485
441.687	0.15667973
441.898	0.15615296
442.109	0.15567114
442.32	0.15535095
442.531	0.15498707
442.741	0.15447772
442.952	0.15389788
443.163	0.15340323
443.374	0.1529227
443.584	0.15236954
443.795	0.1519823
444.006	0.15174125
444.216	0.1511226
444.427	0.15069775
444.638	0.15037251
444.848	0.14986128
445.059	0.149556
445.27	0.14906771
445.48	0.14840357
445.691	0.14802007
445.901	0.14783915
446.112	0.14733319
446.323	0.14702999
446.533	0.1467696
446.744	0.1463858
446.954	0.14601289
447.165	0.14571109
447.375	0.14523228
447.586	0.14513469
447.796	0.14472948
448.006	0.14415328
448.217	0.14397848
448.427	0.14365755
448.638	0.14337367
448.848	0.14310087
449.058	0.14259973
449.269	0.14233759
449.479	0.14204997
449.689	0.14154918
449.9	0.14124546
450.11	0.1409036
450.32	0.14076659
450.531	0.14049311
450.741	0.14010247
450.951	0.13987552
451.161	0.13957427
451.372	0.13934384
451.582	0.13928127
451.792	0.13870369
452.002	0.1384102
452.212	0.13808747
452.422	0.13775103
452.633	0.13747155
452.843	0.1372201
453.053	0.13668878
453.263	0.13655434
453.473	0.13624812
453.683	0.13598066
453.893	0.13567618
454.103	0.13557998
454.313	0.13521276
454.523	0.13490663
454.733	0.13460507
454.943	0.13438982
455.153	0.13425331
455.363	0.13398082
455.573	0.13359195
455.783	0.13349533
455.993	0.13323217
456.203	0.13304753
456.413	0.13285353
456.623	0.13250077
456.833	0.1324278
457.042	0.13210646
457.252	0.13176019
457.462	0.13165984
457.672	0.1314285
457.882	0.13106947
458.091	0.13084472
458.301	0.13053505
458.511	0.13044368
458.721	0.13020244
458.931	0.12990097
459.14	0.12975764
459.35	0.12972542
459.56	0.1296587
459.769	0.12952111
459.979	0.12929547
460.189	0.12918552
460.398	0.12893524
460.608	0.12864771
460.817	0.1282517
461.027	0.12800596
461.237	0.12776361
461.446	0.12757566
461.656	0.12741215
461.865	0.1272804
462.075	0.12714845
462.284	0.12710022
462.494	0.1268015
462.703	0.12662036
462.913	0.12637918
463.122	0.12607207
463.332	0.12596268
463.541	0.12594262
463.751	0.12563667
463.96	0.12546511
464.169	0.12522731
464.379	0.1252519
464.588	0.1251702
464.797	0.12492043
465.007	0.12463435
465.216	0.12455039
465.425	0.12446291
465.635	0.12443548
465.844	0.12414298
466.053	0.12397293
466.263	0.12394642
466.472	0.1236064
466.681	0.12341663
466.89	0.12319483
467.099	0.1229751
467.309	0.12281662
467.518	0.12275877
467.727	0.12253272
467.936	0.1225461
468.145	0.12245569
468.354	0.12239755
468.563	0.12224092
468.772	0.12214807
468.982	0.12198296
469.191	0.12182065
469.4	0.12163473
469.609	0.12151489
469.818	0.12150561
470.027	0.12139894
470.236	0.12116453
470.445	0.12094683
470.654	0.12078592
470.863	0.12064544
471.072	0.12060671
471.28	0.12033635
471.489	0.12029058
471.698	0.12023322
471.907	0.12023307
472.116	0.12019577
472.325	0.12008228
472.534	0.11986769
472.743	0.11981334
472.951	0.11969005
473.16	0.11958517
473.369	0.11947129
473.578	0.11938709
473.786	0.11934771
473.995	0.11925459
474.204	0.11921211
474.413	0.11913499
474.621	0.11913471
474.83	0.11908371
475.039	0.11904472
475.247	0.11909004
475.456	0.11905326
475.665	0.11903664
475.873	0.11899236
476.082	0.11901399
476.291	0.11895148
476.499	0.11895142
476.708	0.11876783
476.916	0.11873799
477.125	0.11859758
477.333	0.11853791
477.542	0.11850756
477.75	0.11839554
477.959	0.11831279
478.167	0.11837784
478.376	0.11828907
478.584	0.11824312
478.793	0.11823953
479.001	0.11804636
479.209	0.11810689
479.418	0.11808324
479.626	0.11804583
479.834	0.11807933
480.043	0.11812442
480.251	0.11801801
480.459	0.1180503
480.668	0.11797631
480.876	0.11795984
481.084	0.11792512
481.293	0.11785142
481.501	0.11776214
481.709	0.11790745
481.917	0.11794901
482.125	0.1179594
482.334	0.11791468
482.542	0.11783068
482.75	0.11787773
482.958	0.11792617
483.166	0.11781584
483.374	0.11776124
483.583	0.11769032
483.791	0.11771617
483.999	0.11778594
484.207	0.11782133
484.415	0.11787255
484.623	0.11788682
484.831	0.11795097
485.039	0.11798398
485.247	0.11799268
485.455	0.11799154
485.663	0.11799414
485.871	0.11798848
486.079	0.11799129
486.287	0.11796615
486.495	0.11800071
486.702	0.11798332
486.91	0.11803129
487.118	0.11797854
487.326	0.11800309
487.534	0.11807394
487.742	0.11815314
487.95	0.118268
488.157	0.11840482
488.365	0.11849511
488.573	0.11866405
488.781	0.11877927
488.988	0.11888942
489.196	0.11892067
489.404	0.11891808
489.612	0.11893734
489.819	0.11895664
490.027	0.11892812
490.235	0.11894932
490.442	0.11889802
490.65	0.11886669
490.857	0.11890113
491.065	0.11896702
491.273	0.11899629
491.48	0.11914691
491.688	0.11914413
491.895	0.11929671
492.103	0.11943383
492.31	0.11960128
492.518	0.11965477
492.725	0.11980936
492.933	0.11985331
493.14	0.11999021
493.348	0.12006944
493.555	0.12017144
493.763	0.12021591
493.97	0.12036558
494.177	0.12041952
494.385	0.12048403
494.592	0.120568
494.8	0.12056014
495.007	0.12063313
495.214	0.12070994
495.422	0.12078926
495.629	0.12088556
495.836	0.12097823
496.043	0.12108086
496.251	0.12122706
496.458	0.1213462
496.665	0.1214911
496.872	0.12159837
497.08	0.12175012
497.287	0.12189681
497.494	0.12201454
497.701	0.12210719
497.908	0.12229328
498.115	0.12236865
498.322	0.12245434
498.53	0.12248115
498.737	0.12261791
498.944	0.12279954
499.151	0.12300991
499.358	0.12309651
499.565	0.12324618
499.772	0.12334265
499.979	0.1235593
500.186	0.12363697
500.393	0.12370078
500.6	0.12377429
500.807	0.12392071
501.014	0.12400423
501.221	0.12423074
501.427	0.12432152
501.634	0.12447138
501.841	0.12462798
502.048	0.12471253
502.255	0.12480218
502.462	0.12502615
502.669	0.12512109
502.875	0.12527042
503.082	0.1254402
503.289	0.12555664
503.496	0.12572905
503.702	0.12592334
503.909	0.12601585
504.116	0.12615942
504.323	0.12630109
504.529	0.12643964
504.736	0.12659666
504.943	0.12678571
505.149	0.12690367
505.356	0.12707099
505.563	0.12714708
505.769	0.1273196
505.976	0.1274611
506.182	0.12763293
506.389	0.12775927
506.595	0.1279693
506.802	0.12814338
507.008	0.12843027
507.215	0.12860935
507.421	0.12883592
507.628	0.12902644
507.834	0.12925174
508.041	0.12939129
508.247	0.12955493
508.454	0.12973784
508.66	0.12989217
508.866	0.13003338
509.073	0.13024413
509.279	0.13043009
509.486	0.13068552
509.692	0.13094207
509.898	0.13113699
510.105	0.13136419
510.311	0.13156865
510.517	0.13174427
510.723	0.13194466
510.93	0.13211295
511.136	0.13225637
511.342	0.13245405
511.548	0.13267287
511.754	0.13287085
511.961	0.13303221
512.167	0.133225
512.373	0.13336457
512.579	0.1335922
512.785	0.13379233
512.991	0.13396176
513.197	0.13417965
513.404	0.1344272
513.61	0.13463947
513.816	0.13490225
514.022	0.13507799
514.228	0.13525012
514.434	0.13549442
514.64	0.13568891
514.846	0.1358607
515.052	0.13609619
515.258	0.13629545
515.464	0.13654384
515.669	0.13681786
515.875	0.13699901
516.081	0.13722915
516.287	0.13749981
516.493	0.13773878
516.699	0.13796109
516.905	0.13817555
517.111	0.13832119
517.316	0.13853529
517.522	0.13880923
517.728	0.13902901
517.934	0.13915966
518.139	0.1393247
518.345	0.13952041
518.551	0.13983043
518.757	0.14009711
518.962	0.14027404
519.168	0.14048695
519.374	0.14075725
519.579	0.14106125
519.785	0.14130239
519.991	0.14144776
520.196	0.14165123
520.402	0.14188131
520.607	0.14208937
520.813	0.14233015
521.018	0.14257488
521.224	0.14284298
521.429	0.14314665
521.635	0.14333998
521.84	0.14359063
522.046	0.14386022
522.251	0.1441105
522.457	0.14432867
522.662	0.14455959
522.868	0.14479401
523.073	0.14509777
523.279	0.14534237
523.484	0.14558321
523.689	0.14584952
523.895	0.14609569
524.1	0.14634216
524.305	0.14659568
524.511	0.14686692
524.716	0.14712938
524.921	0.14740674
525.126	0.1476537
525.332	0.14791776
525.537	0.14816832
525.742	0.14839045
525.947	0.14859715
526.153	0.14885441
526.358	0.14908867
526.563	0.14927029
526.768	0.14946593
526.973	0.14974111
527.178	0.15004032
527.383	0.15025938
527.588	0.15051913
527.794	0.15074083
527.999	0.15109223
528.204	0.15139506
528.409	0.15161158
528.614	0.15185724
528.819	0.15215005
529.024	0.15232334
529.229	0.15258378
529.434	0.15275899
529.639	0.15299656
529.843	0.15324686
530.048	0.15343271
530.253	0.15371656
530.458	0.15403343
530.663	0.15431584
530.868	0.15461266
531.073	0.15487465
531.278	0.15510626
531.482	0.15543581
531.687	0.15563792
531.892	0.15591035
532.097	0.1561178
532.302	0.15639473
532.506	0.15668896
532.711	0.15697307
532.916	0.1571538
533.12	0.15741657
533.325	0.15759755
533.53	0.15786883
533.734	0.15806823
533.939	0.15825642
534.144	0.15847931
534.348	0.15877658
534.553	0.15902924
534.757	0.15935668
534.962	0.15965266
535.167	0.15993892
535.371	0.16026655
535.576	0.16055161
535.78	0.16081306
535.985	0.16107997
536.189	0.16134001
536.394	0.16158588
536.598	0.16177117
536.803	0.16191538
537.007	0.16217654
537.211	0.1624392
537.416	0.16266456
537.62	0.16291933
537.825	0.16315313
538.029	0.16352345
538.233	0.16386044
538.438	0.16405954
538.642	0.16429618
538.846	0.16460104
539.05	0.16477323
539.255	0.1650063
539.459	0.16520555
539.663	0.16541636
539.867	0.16570933
540.072	0.16589961
540.276	0.16612718
540.48	0.1664284
540.684	0.16666084
540.888	0.16691259
541.092	0.16716871
541.297	0.16741615
541.501	0.16768329
541.705	0.16789376
541.909	0.1681345
542.113	0.16842235
542.317	0.16865975
542.521	0.16896496
542.725	0.16925168
542.929	0.16957433
543.133	0.16990802
543.337	0.1701678
543.541	0.17044397
543.745	0.17069116
543.949	0.17089231
544.153	0.17111374
544.357	0.17134526
544.56	0.17157779
544.764	0.17183355
544.968	0.17201583
545.172	0.17223572
545.376	0.17240575
545.58	0.17261481
545.783	0.17279189
545.987	0.17299294
546.191	0.1731605
546.395	0.17343217
546.598	0.17374354
546.802	0.17404265
547.006	0.17431008
547.21	0.17455812
547.413	0.17480817
547.617	0.17504081
547.821	0.17524917
548.024	0.17541496
548.228	0.17559419
548.431	0.17577773
548.635	0.17599055
548.839	0.1761645
549.042	0.17642023
549.246	0.17666681
549.449	0.17683119
549.653	0.1770604
549.856	0.17728245
550.06	0.17747413
550.263	0.17768477
550.467	0.17787769
550.67	0.1780505
550.874	0.17827988
551.077	0.17848892
551.28	0.17868223
551.484	0.17891294
551.687	0.17912024
551.891	0.17934921
552.094	0.17945184
552.297	0.17965328
552.501	0.17985259
552.704	0.18001404
552.907	0.1801538
553.11	0.18035506
553.314	0.18061683
553.517	0.18089758
553.72	0.18109499
553.923	0.18133484
554.127	0.18156138
554.33	0.18172638
554.533	0.1819444
554.736	0.18203206
554.939	0.18221747
555.142	0.1824623
555.345	0.18257795
555.549	0.18277609
555.752	0.18301889
555.955	0.18319651
556.158	0.18344771
556.361	0.18365435
556.564	0.18378199
556.767	0.18403719
556.97	0.18427312
557.173	0.18449577
557.376	0.18464179
557.579	0.18472371
557.782	0.18487337
557.984	0.18504851
558.187	0.1851819
558.39	0.18521734
558.593	0.18531251
558.796	0.18540511
558.999	0.1855671
559.202	0.18569803
559.404	0.18582888
559.607	0.18596547
559.81	0.18617454
560.013	0.18633597
560.216	0.1865525
560.418	0.18669466
560.621	0.18683884
560.824	0.18696517
561.026	0.18716228
561.229	0.18727308
561.432	0.18740437
561.634	0.18751797
561.837	0.18767669
562.04	0.18782528
562.242	0.18800628
562.445	0.18807259
562.647	0.18825387
562.85	0.18838391
563.053	0.18849135
563.255	0.18854744
563.458	0.18867367
563.66	0.18877338
563.863	0.1889449
564.065	0.18900388
564.268	0.18918858
564.47	0.18936218
564.672	0.18955506
564.875	0.18969042
565.077	0.18979303
565.28	0.1898519
565.482	0.18999666
565.684	0.19002164
565.887	0.19003385
566.089	0.19009359
566.291	0.19017866
566.494	0.19031576
566.696	0.19045825
566.898	0.19050731
567.1	0.19058559
567.303	0.19074528
567.505	0.19080653
567.707	0.19083261
567.909	0.19086743
568.111	0.19090223
568.314	0.19098642
568.516	0.19110459
568.718	0.19119591
568.92	0.19134861
569.122	0.19144456
569.324	0.19155703
569.526	0.19163604
569.728	0.19173278
569.93	0.19181042
570.132	0.19184972
570.334	0.19188805
570.536	0.19197868
570.738	0.19197676
570.94	0.19201143
571.142	0.19209321
571.344	0.19213478
571.546	0.192156
571.748	0.19220764
571.95	0.19225467
572.152	0.19229928
572.354	0.19241012
572.555	0.19243895
572.757	0.19249218
572.959	0.19247977
573.161	0.19251344
573.363	0.19252767
573.564	0.19263442
573.766	0.19260461
573.968	0.1926983
574.17	0.19269206
574.371	0.19277369
574.573	0.19279651
574.775	0.19282342
574.976	0.19280051
575.178	0.19285835
575.38	0.19277663
575.581	0.1927598
575.783	0.19277273
575.985	0.19281175
576.186	0.19277312
576.388	0.19281222
576.589	0.19276727
576.791	0.19281532
576.992	0.19283457
577.194	0.19286553
577.395	0.19283424
577.597	0.19291436
577.798	0.19291694
578	0.1929287
578.201	0.1929459
578.402	0.19292981
578.604	0.19281607
578.805	0.19278349
579.007	0.19270344
579.208	0.19267317
579.409	0.19262208
579.611	0.19256267
579.812	0.19257627
580.013	0.19262544
580.215	0.19258122
580.416	0.19262684
580.617	0.19258933
580.818	0.19262686
581.019	0.19260277
581.221	0.19260204
581.422	0.19257281
581.623	0.19261254
581.824	0.19248145
582.025	0.19247561
582.226	0.19241968
582.428	0.19248922
582.629	0.19238457
582.83	0.19241311
583.031	0.1923568
583.232	0.19243868
583.433	0.19240381
583.634	0.19230938
583.835	0.19222529
584.036	0.19221195
584.237	0.19211236
584.438	0.19208399
584.639	0.19199251
584.84	0.19197168
585.041	0.19200037
585.242	0.19194181
585.442	0.19190158
585.643	0.1919389
585.844	0.19192337
586.045	0.19188975
586.246	0.19175326
586.447	0.1916969
586.647	0.19163768
586.848	0.19156927
587.049	0.19144128
587.25	0.19128211
587.45	0.19121147
587.651	0.19126409
587.852	0.19118484
588.053	0.19116296
588.253	0.19116075
588.454	0.19112228
588.655	0.19112367
588.855	0.19108778
589.056	0.19098559
589.256	0.19097026
589.457	0.19090121
589.658	0.19081701
589.858	0.19078144
590.059	0.19071109
590.259	0.19065909
590.46	0.19059752
590.66	0.19052599
590.861	0.19049797
591.061	0.19040781
591.262	0.19036555
591.462	0.19038562
591.662	0.19031985
591.863	0.19023315
592.063	0.19014114
592.264	0.19005734
592.464	0.19003717
592.664	0.18993426
592.865	0.18991529
593.065	0.18980435
593.265	0.18979201
593.465	0.18976741
593.666	0.18970999
593.866	0.18968533
594.066	0.18969244
594.266	0.18950483
594.467	0.1894774
594.667	0.18929093
594.867	0.18920857
595.067	0.1890814
595.267	0.18887926
595.467	0.18873622
595.668	0.18865579
595.868	0.18858101
596.068	0.18857591
596.268	0.18840982
596.468	0.18834744
596.668	0.18825993
596.868	0.188175
597.068	0.18804418
597.268	0.18795223
597.468	0.18785487
597.668	0.18784866
597.868	0.18776488
598.068	0.1877637
598.268	0.18771415
598.467	0.18781771
598.667	0.18766711
598.867	0.18759501
599.067	0.18750618
599.267	0.18743968
599.467	0.18732763
599.667	0.18720008
599.866	0.18704835
600.066	0.18700309
600.266	0.18689493
600.466	0.1868074
600.665	0.18669899
600.865	0.18664669
601.065	0.18661486
601.264	0.18649641
601.464	0.18643529
601.664	0.18645424
601.863	0.18637358
602.063	0.18631976
602.263	0.18613741
602.462	0.18605755
602.662	0.18600018
602.861	0.18598162
603.061	0.18586482
603.26	0.18584415
603.46	0.18574801
603.659	0.18577139
603.859	0.1856051
604.058	0.18543435
604.258	0.18538413
604.457	0.1853489
604.657	0.18515352
604.856	0.18504201
605.056	0.18503003
605.255	0.18502809
605.454	0.18511771
605.654	0.18497739
605.853	0.18489723
606.052	0.18494041
606.252	0.18499369
606.451	0.18499014
606.65	0.18494752
606.849	0.18478315
607.049	0.18473504
607.248	0.18464099
607.447	0.18454042
607.646	0.18440346
607.845	0.18425445
608.045	0.18410515
608.244	0.1841641
608.443	0.18408238
608.642	0.18413799
608.841	0.18408408
609.04	0.18406751
609.239	0.18407377
609.438	0.18402291
609.637	0.18398619
609.836	0.18396753
610.035	0.18383782
610.234	0.18386416
610.433	0.18386154
610.632	0.18376353
610.831	0.18389818
611.03	0.18379119
611.229	0.1838624
611.428	0.18394346
611.627	0.18393657
611.826	0.18393398
612.025	0.18408172
612.224	0.18398035
612.422	0.18399085
612.621	0.18393578
612.82	0.18389394
613.019	0.1838455
613.218	0.18383156
613.416	0.18363268
613.615	0.18362449
613.814	0.18357277
614.012	0.18347722
614.211	0.18331835
614.41	0.18333925
614.608	0.18327355
614.807	0.18330106
615.006	0.18333106
615.204	0.18336842
615.403	0.18346956
615.602	0.18358071
615.8	0.18366245
615.999	0.18363841
616.197	0.183662
616.396	0.1837071
616.594	0.1836324
616.793	0.18361416
616.991	0.18358739
617.19	0.18336118
617.388	0.18345767
617.586	0.18346622
617.785	0.18343329
617.983	0.18350228
618.182	0.1834426
618.38	0.18341905
618.578	0.18356868
618.777	0.18357517
618.975	0.18363875
619.173	0.18367549
619.372	0.18371962
619.57	0.18373149
619.768	0.18380983
619.966	0.18385331
620.165	0.18384529
620.363	0.18389274
620.561	0.18381373
620.759	0.18382301
620.957	0.18398519
621.155	0.18405263
621.354	0.18400158
621.552	0.18409729
621.75	0.18399576
621.948	0.18411635
622.146	0.18420395
622.344	0.18414792
622.542	0.18414538
622.74	0.18423189
622.938	0.18417042
623.136	0.18436087
623.334	0.1844569
623.532	0.18436802
623.73	0.18441085
623.928	0.1845484
624.126	0.18467026
624.324	0.18484314
624.522	0.18476746
624.719	0.18480356
624.917	0.18499703
625.115	0.18502607
625.313	0.18504825
625.511	0.18509622
625.708	0.18499868
625.906	0.18507061
626.104	0.18508314
626.302	0.18518918
626.499	0.18529761
626.697	0.18533026
626.895	0.18524807
627.093	0.1853584
627.29	0.18552415
627.488	0.18555406
627.686	0.18554658
627.883	0.18553674
628.081	0.18551312
628.278	0.18581094
628.476	0.18583024
628.673	0.18582456
628.871	0.18594301
629.068	0.18603904
629.266	0.18621206
629.463	0.18623157
629.661	0.18620428
629.858	0.18627322
630.056	0.18632145
630.253	0.1863279
630.451	0.18638401
630.648	0.18644611
630.845	0.18657166
631.043	0.18660617
631.24	0.1868018
631.438	0.18691887
631.635	0.18711113
631.832	0.18712301
632.029	0.1871917
632.227	0.18735068
632.424	0.18746358
632.621	0.18753599
632.818	0.18760274
633.016	0.18763455
633.213	0.1876895
633.41	0.18782735
633.607	0.18786369
633.804	0.18795468
634.001	0.18796074
634.199	0.18817721
634.396	0.18835542
634.593	0.18844832
634.79	0.18853029
634.987	0.18866815
635.184	0.1886912
635.381	0.18887624
635.578	0.18890544
635.775	0.18886939
635.972	0.18902035
636.169	0.18907707
636.366	0.18910806
636.563	0.18923572
636.76	0.18916184
636.957	0.18924342
637.153	0.18928456
637.35	0.18939168
637.547	0.18943563
637.744	0.18954796
637.941	0.18968583
638.138	0.18992746
638.334	0.18995978
638.531	0.19016803
638.728	0.19028683
638.925	0.1905513
639.121	0.19064974
639.318	0.19068654
639.515	0.19071471
639.711	0.19084736
639.908	0.19082873
640.105	0.19087829
640.301	0.19085482
640.498	0.19091529
640.695	0.19111244
640.891	0.19120137
641.088	0.19130261
641.284	0.19145765
641.481	0.19153509
641.677	0.19161027
641.874	0.19169331
642.07	0.19177555
642.267	0.19197915
642.463	0.19208492
642.66	0.19222177
642.856	0.19231687
643.053	0.19235887
643.249	0.19253285
643.445	0.19259573
643.642	0.19265235
643.838	0.19277047
644.034	0.1928539
644.231	0.19295795
644.427	0.19313621
644.623	0.19320939
644.82	0.19331713
645.016	0.19338812
645.212	0.19334972
645.408	0.19345284
645.604	0.19369019
645.801	0.19380263
645.997	0.19389776
646.193	0.19394136
646.389	0.19409554
646.585	0.19427935
646.781	0.19443373
646.977	0.19440963
647.173	0.19445128
647.37	0.1945162
647.566	0.19466934
647.762	0.19469991
647.958	0.1948664
648.154	0.19484559
648.35	0.19498372
648.546	0.19510432
648.742	0.19531412
648.937	0.19528832
649.133	0.19547666
649.329	0.19563475
649.525	0.19584107
649.721	0.19600109
649.917	0.19624319
650.113	0.19629739
650.309	0.19665791
650.504	0.19673825
650.7	0.1967488
650.896	0.1968874
651.092	0.19692522
651.287	0.19695516
651.483	0.19714992
651.679	0.19708954
651.875	0.19725683
652.07	0.19733119
652.266	0.19737024
652.462	0.19746361
652.657	0.1975915
652.853	0.19763742
653.048	0.19778248
653.244	0.19773419
653.44	0.19786449
653.635	0.1979387
653.831	0.19809326
654.026	0.19816906
654.222	0.1982323
654.417	0.19840004
654.613	0.19858483
654.808	0.19868249
655.004	0.1988945
655.199	0.19897319
655.394	0.19904789
655.59	0.19920874
655.785	0.19914852
655.98	0.19921777
656.176	0.19925733
656.371	0.19936777
656.566	0.19941653
656.762	0.19937022
656.957	0.19938573
657.152	0.19949176
657.348	0.19957304
657.543	0.1996887
657.738	0.19971052
657.933	0.19978713
658.128	0.20000845
658.324	0.20009266
658.519	0.2002159
658.714	0.20034377
658.909	0.20045529
659.104	0.20057463
659.299	0.20067825
659.494	0.20072665
659.689	0.20088098
659.884	0.20099445
660.079	0.20100211
660.274	0.2010169
660.469	0.2010299
660.664	0.20118738
660.859	0.20129783
661.054	0.20133745
661.249	0.20139563
661.444	0.20146375
661.639	0.20154447
661.834	0.20158515
662.029	0.20157941
662.224	0.20167462
662.418	0.20183424
662.613	0.20191801
662.808	0.2020161
663.003	0.20216612
663.198	0.20227653
663.392	0.20228089
663.587	0.20243173
663.782	0.20237667
663.977	0.20244141
664.171	0.2025723
664.366	0.20266591
664.561	0.2027903
664.755	0.20303017
664.95	0.20298639
665.144	0.20305194
665.339	0.20313418
665.534	0.20317424
665.728	0.2032221
665.923	0.20326627
666.117	0.20325229
666.312	0.20336651
666.506	0.20361495
666.701	0.20363015
666.895	0.20369515
667.09	0.20375775
667.284	0.20389028
667.479	0.20396204
667.673	0.20396609
667.867	0.20394825
668.062	0.20399311
668.256	0.20401552
668.45	0.2040964
668.645	0.20404068
668.839	0.2040739
669.033	0.20415649
669.228	0.20418186
669.422	0.20436724
669.616	0.20443233
669.81	0.20451864
670.004	0.20458699
670.199	0.20469182
670.393	0.20477917
670.587	0.20483442
670.781	0.20482918
670.975	0.20498194
671.169	0.20492011
671.363	0.20494358
671.558	0.20495478
671.752	0.20499312
671.946	0.20505914
672.14	0.20509758
672.334	0.20503059
672.528	0.20520271
672.722	0.20517285
672.916	0.2052271
673.11	0.20519724
673.304	0.20529985
673.497	0.20531809
673.691	0.20546829
673.885	0.20536232
674.079	0.20550736
674.273	0.20543706
674.467	0.20550221
674.661	0.20545718
674.854	0.20550805
675.048	0.20549112
675.242	0.20556755
675.436	0.20554537
675.629	0.20564809
675.823	0.20563057
676.017	0.20565377
676.211	0.20561678
676.404	0.20564806
676.598	0.2057267
676.792	0.20579495
676.985	0.2058474
677.179	0.2059253
677.372	0.20595198
677.566	0.20615601
677.76	0.20617336
677.953	0.20618348
678.147	0.20626249
678.34	0.20636653
678.534	0.20634867
678.727	0.20639231
678.921	0.20637383
679.114	0.20632196
679.307	0.20636353
679.501	0.20635848
679.694	0.20637154
679.888	0.20647323
680.081	0.20658099
680.274	0.20652816
680.468	0.20662601
680.661	0.20659503
680.854	0.20675077
681.048	0.20681897
681.241	0.20680303
681.434	0.20679731
681.627	0.2068731
681.821	0.20690142
682.014	0.20698022
682.207	0.20684827
682.4	0.20677705
682.593	0.20689764
682.786	0.20685374
682.98	0.20683129
683.173	0.20689454
683.366	0.20690767
683.559	0.20695303
683.752	0.20709064
683.945	0.20709374
684.138	0.20717697
684.331	0.207197
684.524	0.20731712
684.717	0.20735427
684.91	0.20740788
685.103	0.20733298
685.296	0.20733181
685.489	0.20731368
685.682	0.20728613
685.874	0.20721886
686.067	0.20719279
686.26	0.20722796
686.453	0.20720375
686.646	0.20716832
686.839	0.20719286
687.031	0.20730001
687.224	0.20723061
687.417	0.20732579
687.61	0.20728249
687.802	0.20730869
687.995	0.20743356
688.188	0.20749378
688.38	0.20746185
688.573	0.20754591
688.766	0.20756118
688.958	0.20759929
689.151	0.20759097
689.343	0.20749171
689.536	0.20740335
689.729	0.20740579
689.921	0.20742536
690.114	0.20732556
690.306	0.2073032
690.499	0.20734137
690.691	0.20741697
690.884	0.20746414
691.076	0.20751492
691.268	0.20743828
691.461	0.20737576
691.653	0.20739402
691.846	0.20736206
692.038	0.20727601
692.23	0.20721174
692.423	0.2071947
692.615	0.20718741
692.807	0.2073066
692.999	0.20736406
693.192	0.20734216
693.384	0.20737964
693.576	0.20735257
693.768	0.20731524
693.961	0.20726883
694.153	0.2072256
694.345	0.20712614
694.537	0.20715127
694.729	0.20712175
694.921	0.2071175
695.113	0.20716001
695.305	0.20724014
695.498	0.20722518
695.69	0.20726811
695.882	0.20721966
696.074	0.207223
696.266	0.20725912
696.458	0.2072015
696.65	0.20717943
696.842	0.20719571
697.033	0.20715718
697.225	0.20710251
697.417	0.20710614
697.609	0.207046
697.801	0.20702759
697.993	0.20701508
698.185	0.2069289
698.376	0.20696655
698.568	0.20704669
698.76	0.20705459
698.952	0.20707739
699.144	0.20702752
699.335	0.20699584
699.527	0.20698538
699.719	0.20690992
699.91	0.20692477
700.102	0.20683941
700.294	0.20684747
700.485	0.20686266
700.677	0.2068483
700.869	0.20695274
701.06	0.20705067
701.252	0.20699902
701.443	0.20710426
701.635	0.20707223
701.826	0.20712289
702.018	0.20716461
702.209	0.20714843
702.401	0.20707781
702.592	0.20720695
702.784	0.20715289
702.975	0.20719458
703.166	0.20717219
703.358	0.20708897
703.549	0.20704608
703.741	0.2070186
703.932	0.20686459
704.123	0.20676873
704.315	0.20676082
704.506	0.20677634
704.697	0.20680263
704.888	0.20686654
705.08	0.20689372
705.271	0.20694418
705.462	0.2070089
705.653	0.20700781
705.844	0.20699668
706.035	0.20707148
706.227	0.20701792
706.418	0.20701045
706.609	0.20702119
706.8	0.20703572
706.991	0.20701307
707.182	0.20702548
707.373	0.20697154
707.564	0.20701736
707.755	0.20700477
707.946	0.20698262
708.137	0.20695546
708.328	0.20696275
708.519	0.20693758
708.71	0.20691429
708.901	0.20682735
709.092	0.20683559
709.283	0.206807
709.473	0.20685211
709.664	0.20685153
709.855	0.20676421
710.046	0.20677678
710.237	0.20678706
710.427	0.20681944
710.618	0.20686361
710.809	0.20681966
711	0.20679768
711.19	0.20679095
711.381	0.20682805
711.572	0.20683755
711.762	0.20684067
711.953	0.20677109
712.144	0.20670643
712.334	0.20668207
712.525	0.20677276
712.715	0.20673179
712.906	0.2067455
713.097	0.20668819
713.287	0.2067748
713.478	0.20683405
713.668	0.20687347
713.859	0.20681514
714.049	0.20673804
714.239	0.20667807
714.43	0.20667024
714.62	0.20655713
714.811	0.20654367
715.001	0.20650351
715.191	0.20650412
715.382	0.20655997
715.572	0.2066011
715.762	0.20664635
715.953	0.20672544
716.143	0.20674997
716.333	0.2068161
716.523	0.20686051
716.714	0.20688368
716.904	0.20690718
717.094	0.20690671
717.284	0.20690509
717.474	0.20688312
717.664	0.20687084
717.855	0.20690495
718.045	0.20692617
718.235	0.2069477
718.425	0.20698193
718.615	0.20702731
718.805	0.20718012
718.995	0.2072665
719.185	0.20733853
719.375	0.20748272
719.565	0.20764108
719.755	0.20778053
719.945	0.20784354
720.135	0.20781557
720.325	0.20786363
720.515	0.20790697
720.704	0.20791299
720.894	0.20792018
721.084	0.20789337
721.274	0.20794904
721.464	0.2079974
721.654	0.20800733
721.843	0.20801092
722.033	0.20798131
722.223	0.20795655
722.413	0.20800424
722.602	0.20802733
722.792	0.20808169
722.982	0.20809119
723.171	0.20811782
723.361	0.20816083
723.55	0.2082564
723.74	0.20824886
723.93	0.20825289
724.119	0.20826562
724.309	0.20838555
724.498	0.20839888
724.688	0.20843538
724.877	0.20835847
725.067	0.20835998
725.256	0.20834835
725.446	0.20832678
725.635	0.20823181
725.825	0.20823496
726.014	0.20819988
726.203	0.20819234
726.393	0.20808703
726.582	0.20806756
726.771	0.20805571
726.961	0.208032
727.15	0.20799029
727.339	0.20799923
727.529	0.20805948
727.718	0.20810158
727.907	0.20808988
728.096	0.20805719
728.286	0.20807207
728.475	0.20813741
728.664	0.20819514
728.853	0.20810474
729.042	0.20810517
729.231	0.20812346
729.42	0.20821312
729.609	0.20823289
729.799	0.20818108
729.988	0.20811568
730.177	0.20818692
730.366	0.20822617
730.555	0.20821992
730.744	0.20816061
730.933	0.20808036
731.122	0.207987
731.31	0.20792404
731.499	0.20782621
731.688	0.20782493
731.877	0.20779816
732.066	0.20776088
732.255	0.20774243
732.444	0.20778011
732.632	0.20782135
732.821	0.20784213
733.01	0.20786998
733.199	0.20789999
733.388	0.20795995
733.576	0.20805604
733.765	0.20810797
733.954	0.20812812
734.142	0.20818594
734.331	0.20811809
734.52	0.20803608
734.708	0.20796295
734.897	0.20794792
735.086	0.20792064
735.274	0.20786656
735.463	0.207826
735.651	0.20782713
735.84	0.20792245
736.028	0.20798557
736.217	0.20803396
736.405	0.20809058
736.594	0.20820044
736.782	0.20821117
736.971	0.20825248
737.159	0.20821306
737.347	0.20824223
737.536	0.20818308
737.724	0.20816291
737.912	0.20813281
738.101	0.2082047
738.289	0.20824979
738.477	0.20831872
738.666	0.20833302
738.854	0.20837064
739.042	0.20839583
739.23	0.20840549
739.418	0.20841689
739.607	0.20836904
739.795	0.20841057
739.983	0.20842719
740.171	0.20849558
740.359	0.20852023
740.547	0.20849871
740.735	0.20846622
740.923	0.20854733
741.112	0.20856217
741.3	0.20858662
741.488	0.20856025
741.676	0.20862544
741.864	0.20868948
742.052	0.2087828
742.239	0.20874138
742.427	0.20872585
742.615	0.20869764
742.803	0.20875338
742.991	0.20875863
743.179	0.20880396
743.367	0.20882131
743.555	0.2088997
743.742	0.20895709
743.93	0.20906619
744.118	0.20903798
744.306	0.20906787
744.494	0.20899672
744.681	0.20894564
744.869	0.20893939
745.057	0.20896335
745.244	0.20896092
745.432	0.20904662
745.62	0.20905301
745.807	0.20917182
745.995	0.2092377
746.182	0.20932191
746.37	0.20933842
746.558	0.20937627
746.745	0.20933074
746.933	0.20934963
747.12	0.20934058
747.308	0.20938526
747.495	0.20934276
747.683	0.20931034
747.87	0.20929388
748.057	0.20937483
748.245	0.20944491
748.432	0.20954163
748.62	0.20947744
748.807	0.20949922
748.994	0.20957251
749.182	0.20958203
749.369	0.20954811
749.556	0.209569
749.743	0.20955597
749.931	0.2096717
750.118	0.20976498
750.305	0.20981068
750.492	0.20983328
750.68	0.20995824
750.867	0.20996863
751.054	0.21005557
751.241	0.2100686
751.428	0.21014419
751.615	0.21015686
751.802	0.21025837
751.989	0.21021832
752.176	0.21031193
752.363	0.21028357
752.55	0.21036922
752.737	0.21031853
752.924	0.2103454
753.111	0.21036306
753.298	0.21046683
753.485	0.21048553
753.672	0.21056475
753.859	0.21062058
754.046	0.21068127
754.233	0.21070964
754.42	0.21081317
754.606	0.21082061
754.793	0.21086936
754.98	0.21092202
755.167	0.21085992
755.353	0.21094518
755.54	0.21103571
755.727	0.21099025
755.914	0.21108866
756.1	0.21110262
756.287	0.21109518
756.474	0.21114278
756.66	0.21112232
756.847	0.21119611
757.033	0.21126101
757.22	0.21128302
757.407	0.21143345
757.593	0.21156206
757.78	0.21162772
757.966	0.21172869
758.153	0.21175701
758.339	0.21180646
758.526	0.21178636
758.712	0.2117075
758.898	0.21164888
759.085	0.2116863
759.271	0.21168632
759.458	0.21170295
759.644	0.21178545
759.83	0.21185704
760.017	0.21189666
760.203	0.21198709
760.389	0.21202296
760.576	0.21204588
760.762	0.21208033
760.948	0.21208586
761.134	0.21215205
761.32	0.21215594
761.507	0.21216216
761.693	0.21220066
761.879	0.21220236
762.065	0.21218828
762.251	0.2122142
762.437	0.21216918
762.623	0.2122337
762.809	0.21228378
762.995	0.21234147
763.181	0.21241573
763.367	0.21241368
763.553	0.21232077
763.739	0.21237718
763.925	0.21237833
764.111	0.21243907
764.297	0.21250981
764.483	0.21260935
764.669	0.21272443
764.855	0.21284099
765.041	0.21290897
765.227	0.21293756
765.412	0.21286775
765.598	0.21282157
765.784	0.21274971
765.97	0.21276413
766.156	0.2127428
766.341	0.21271392
766.527	0.21271038
766.713	0.21271443
766.898	0.21274583
767.084	0.21278567
767.27	0.21278562
767.455	0.21290062
767.641	0.21294766
767.827	0.21302104
768.012	0.21314883
768.198	0.21326975
768.383	0.213305
768.569	0.21337897
768.754	0.21342449
768.94	0.21343176
769.125	0.21348326
769.311	0.21345832
769.496	0.21339795
769.682	0.21343484
769.867	0.21351789
770.052	0.21356507
770.238	0.21363254
770.423	0.21371
770.608	0.21386925
770.794	0.2139319
770.979	0.21399384
771.164	0.21403967
771.35	0.21397755
771.535	0.21403315
771.72	0.21400583
771.905	0.21401996
772.09	0.21406322
772.276	0.21411032
772.461	0.21406842
772.646	0.214201
772.831	0.21422605
773.016	0.21431529
773.201	0.21427184
773.386	0.21431522
773.571	0.21434164
773.756	0.21439587
773.941	0.21435865
774.126	0.21443924
774.311	0.21434384
774.496	0.21437926
774.681	0.21441856
774.866	0.2144505
775.051	0.21443169
775.236	0.214428
775.421	0.21440495
775.606	0.21448987
775.791	0.21452274
775.976	0.21453879
776.16	0.21449209
776.345	0.21456481
776.53	0.21470813
776.715	0.21471923
776.899	0.21474386
777.084	0.21479004
777.269	0.21475498
777.454	0.21478421
777.638	0.2147484
777.823	0.21467631
778.008	0.2146739
778.192	0.21474095
778.377	0.21468439
778.561	0.21481096
778.746	0.21492567
778.931	0.21502918
779.115	0.21509445
779.3	0.21514347
779.484	0.21508912
779.669	0.21505794
779.853	0.21490347
780.037	0.21486479
780.222	0.21479842
780.406	0.21476903
780.591	0.21474718
780.775	0.21484607
780.959	0.21501877
781.144	0.21512353
781.328	0.21515282
781.512	0.21513304
781.697	0.215165
781.881	0.21515545
782.065	0.2151838
782.249	0.21513861
782.434	0.21512224
782.618	0.21505377
782.802	0.21507587
782.986	0.21508184
783.17	0.21513393
783.354	0.21508227
783.539	0.21508549
783.723	0.21508599
783.907	0.21520724
784.091	0.2153298
784.275	0.21541832
784.459	0.21545989
784.643	0.21554563
784.827	0.21560516
785.011	0.21572601
785.195	0.21583367
785.379	0.21578976
785.563	0.21574886
785.747	0.21571585
785.93	0.21572559
786.114	0.21567553
786.298	0.21556007
786.482	0.21536433
786.666	0.21535593
786.85	0.21523486
787.033	0.21527928
787.217	0.21522889
787.401	0.21527985
787.585	0.21534249
787.768	0.21543217
787.952	0.2153919
788.136	0.21545309
788.319	0.21535321
788.503	0.21533517
788.687	0.21527119
788.87	0.2152776
789.054	0.21518776
789.237	0.21520014
789.421	0.21525466
789.605	0.21531644
789.788	0.21532714
789.972	0.21537642
790.155	0.2152685
790.338	0.21527147
790.522	0.21523244
790.705	0.21518473
790.889	0.21510933
791.072	0.21508274
791.256	0.21504074
791.439	0.21512012
791.622	0.21517906
791.806	0.21530789
791.989	0.21531743
792.172	0.21537262
792.355	0.21549361
792.539	0.21549917
792.722	0.21550496
792.905	0.21552893
793.088	0.21544352
793.271	0.21549211
793.455	0.21555866
793.638	0.21550465
793.821	0.2155282
794.004	0.21551072
794.187	0.21548426
794.37	0.21550176
794.553	0.21554799
794.736	0.21545661
794.919	0.21538181
795.102	0.21532191
795.285	0.21522779
795.468	0.21517575
795.651	0.21513844
795.834	0.21513534
796.017	0.21522802
796.2	0.21524793
796.383	0.21527947
796.566	0.21546114
796.749	0.21549834
796.931	0.21548533
797.114	0.21533477
797.297	0.2152081
797.48	0.21513172
797.663	0.21504939
797.845	0.21491426
798.028	0.21486937
798.211	0.21489161
798.393	0.21496031
798.576	0.21506864
798.759	0.21513621
798.941	0.21526688
799.124	0.2153434
799.307	0.21538981
799.489	0.21546208
799.672	0.21547101
799.854	0.21535436
800.037	0.21523629
800.219	0.21508652
800.402	0.21505326
800.584	0.21499325
800.767	0.21491352
800.949	0.21490752
801.132	0.21500623
801.314	0.21506575
801.496	0.21513151
801.679	0.21505541
801.861	0.21502833
802.043	0.21502074
802.226	0.21498745
802.408	0.21489845
802.59	0.21493597
802.772	0.21493577
802.955	0.21498054
803.137	0.21492179
803.319	0.21484648
803.501	0.21479211
803.684	0.21484331
803.866	0.21469022
804.048	0.21469876
804.23	0.21463912
804.412	0.21468854
804.594	0.21465478
804.776	0.21466726
804.958	0.21461101
805.14	0.21465309
805.322	0.21457442
805.504	0.21455179
805.686	0.21448992
805.868	0.21447692
806.05	0.21440492
806.232	0.21434053
806.414	0.21435458
806.596	0.21432336
806.778	0.21433011
806.96	0.21438637
807.141	0.2143817
807.323	0.21437297
807.505	0.21440551
807.687	0.2144464
807.869	0.21447968
808.05	0.2144518
808.232	0.2143926
808.414	0.21440203
808.595	0.21435653
808.777	0.21426424
808.959	0.21417082
809.14	0.21411799
809.322	0.21412654
809.504	0.21407475
809.685	0.2140309
809.867	0.21395738
810.048	0.21401423
810.23	0.21396265
810.411	0.21392178
810.593	0.21378212
810.774	0.21370563
810.956	0.21368891
811.137	0.21365663
811.319	0.21357915
811.5	0.2135279
811.681	0.21345273
811.863	0.21341351
812.044	0.21338959
812.225	0.21332354
812.407	0.21329911
812.588	0.21323613
812.769	0.21314232
812.951	0.21306504
813.132	0.21303736
813.313	0.21301036
813.494	0.2129295
813.675	0.21293167
813.857	0.21292157
814.038	0.21303506
814.219	0.21308211
814.4	0.21307087
814.581	0.21303618
814.762	0.213021
814.943	0.21299611
815.124	0.21296836
815.305	0.21281445
815.486	0.21268344
815.667	0.21263772
815.848	0.21254759
816.029	0.21248997
816.21	0.21231671
816.391	0.21225484
816.572	0.21224663
816.753	0.21224417
816.934	0.21219491
817.115	0.21219786
817.295	0.21213643
817.476	0.21211384
817.657	0.2119756
817.838	0.21183344
818.019	0.2117013
818.199	0.21163582
818.38	0.21157202
818.561	0.21159353
818.741	0.21164402
818.922	0.21175366
819.103	0.21177536
819.283	0.21184268
819.464	0.2117595
819.645	0.21169368
819.825	0.21165131
820.006	0.21156622
820.186	0.21147426
820.367	0.21144688
820.547	0.21131692
820.728	0.21126256
820.908	0.21121964
821.089	0.21105789
821.269	0.21097966
821.45	0.21080729
821.63	0.21065763
821.81	0.21061922
821.991	0.21060658
822.171	0.21049306
822.351	0.21044348
822.532	0.21043496
822.712	0.21041351
822.892	0.21045896
823.072	0.21047439
823.253	0.21042803
823.433	0.21038601
823.613	0.21043219
823.793	0.21033504
823.973	0.21033187
824.154	0.21026612
824.334	0.21016412
824.514	0.21010043
824.694	0.21010817
824.874	0.20993405
825.054	0.20984338
825.234	0.20970323
825.414	0.20948107
825.594	0.20937184
825.774	0.20917447
825.954	0.20904752
826.134	0.20905291
826.314	0.208969
826.494	0.20891404
826.674	0.20891829
826.854	0.20881212
827.033	0.20883036
827.213	0.20883123
827.393	0.20871468
827.573	0.20870297
827.753	0.20866531
827.932	0.2086598
828.112	0.20879502
828.292	0.20879782
828.472	0.20873077
828.651	0.20872637
828.831	0.20860556
829.011	0.20855678
829.19	0.20845544
829.37	0.20823201
829.549	0.20808618
829.729	0.20784625
829.909	0.20760805
830.088	0.2074866
830.268	0.20734897
830.447	0.2072803
830.627	0.20723615
830.806	0.20712913
830.986	0.20719841
831.165	0.20725756
831.344	0.2073414
831.524	0.20735281
831.703	0.20726998
831.883	0.20714932
832.062	0.20709131
832.241	0.20692807
832.421	0.20672444
832.6	0.20646499
832.779	0.20625791
832.958	0.20610442
833.138	0.20595134
833.317	0.20595594
833.496	0.20586033
833.675	0.20584404
833.854	0.20599201
834.034	0.20598291
834.213	0.20602706
834.392	0.20609896
834.571	0.20592783
834.75	0.20594485
834.929	0.20589225
835.108	0.20569386
835.287	0.20563412
835.466	0.20556903
835.645	0.20548938
835.824	0.20553881
836.003	0.20548231
836.182	0.20546382
836.361	0.20534109
836.54	0.20521408
836.719	0.20496822
836.897	0.20472394
837.076	0.20452085
837.255	0.2044354
837.434	0.2043472
837.613	0.20432303
837.791	0.20422943
837.97	0.20423718
838.149	0.20417984
838.328	0.20414523
838.506	0.20395111
838.685	0.20381832
838.864	0.20371687
839.042	0.20349615
839.221	0.20346138
839.4	0.20341712
839.578	0.20324175
839.757	0.20317525
839.935	0.20306097
840.114	0.20296282
840.292	0.20305384
840.471	0.20298121
840.649	0.20291033
840.828	0.20290869
841.006	0.20282329
841.185	0.20272482
841.363	0.20266404
841.541	0.20257494
841.72	0.20249787
841.898	0.20235893
842.076	0.20219265
842.255	0.20214162
842.433	0.20209429
842.611	0.20199891
842.789	0.20186
842.968	0.20168584
843.146	0.20160077
843.324	0.20154203
843.502	0.20144036
843.68	0.20124632
843.859	0.20106346
844.037	0.20098959
844.215	0.2008658
844.393	0.20079351
844.571	0.20061951
844.749	0.20046794
844.927	0.20033058
845.105	0.20027444
845.283	0.20020576
845.461	0.20021901
845.639	0.20016861
845.817	0.20012527
845.995	0.20006965
846.173	0.20015046
846.351	0.20005724
846.529	0.19981573
846.706	0.19962839
846.884	0.19953214
847.062	0.19942407
847.24	0.19935381
847.418	0.19921525
847.595	0.19909486
847.773	0.19913934
847.951	0.1990768
848.129	0.19894931
848.306	0.19888062
848.484	0.19874816
848.662	0.1986961
848.839	0.19866764
849.017	0.19862651
849.194	0.19855551
849.372	0.19840133
849.549	0.19829564
849.727	0.19821156
849.905	0.19801959
850.082	0.19782469
850.26	0.19757036
850.437	0.19745083
850.614	0.19747053
850.792	0.19744237
850.969	0.1974626
851.147	0.19753597
851.324	0.19760396
851.501	0.19764331
851.679	0.19754168
851.856	0.19731952
852.033	0.19717852
852.211	0.1969028
852.388	0.19656345
852.565	0.1963711
852.742	0.19620383
852.92	0.19600884
853.097	0.19594794
853.274	0.19578474
853.451	0.19574518
853.628	0.19570941
853.805	0.19559709
853.982	0.19535894
854.159	0.1952881
854.336	0.1952513
854.514	0.19515543
854.691	0.194998
854.868	0.19495041
855.045	0.19478496
855.221	0.1948012
855.398	0.19475146
855.575	0.19459158
855.752	0.19459445
855.929	0.19459561
856.106	0.19449892
856.283	0.19447349
856.46	0.19440174
856.637	0.19430077
856.813	0.19421091
856.99	0.1940079
857.167	0.19388204
857.344	0.19373561
857.52	0.19357027
857.697	0.19334813
857.874	0.19318396
858.05	0.1929596
858.227	0.19285686
858.404	0.19272699
858.58	0.19268352
858.757	0.1925744
858.933	0.19261893
859.11	0.1925878
859.287	0.1925354
859.463	0.19241424
859.64	0.19228607
859.816	0.19210643
859.993	0.19196275
860.169	0.19168519
860.345	0.19153222
860.522	0.19144751
860.698	0.19133918
860.875	0.19119195
861.051	0.19112301
861.227	0.19112703
861.404	0.19123042
861.58	0.19120062
861.756	0.19121919
861.932	0.19120004
862.109	0.19117768
862.285	0.19114247
862.461	0.19104335
862.637	0.19085819
862.813	0.19068168
862.99	0.19054008
863.166	0.19045334
863.342	0.19053025
863.518	0.19035834
863.694	0.19030944
863.87	0.19014415
864.046	0.19005952
864.222	0.18991458
864.398	0.18968418
864.574	0.18926361
864.75	0.18913857
864.926	0.18894249
865.102	0.18882498
865.278	0.18856278
865.454	0.1883332
865.63	0.18824657
865.805	0.18812151
865.981	0.18794098
866.157	0.18784327
866.333	0.18779299
866.509	0.18785389
866.684	0.18783631
866.86	0.1877797
867.036	0.1877797
867.212	0.18764491
867.387	0.18749456
867.563	0.18726867
867.739	0.18704451
867.914	0.18688702
868.09	0.1867723
868.265	0.18653744
868.441	0.18652472
868.617	0.18637231
868.792	0.18635739
868.968	0.18619213
869.143	0.18619601
869.319	0.18601485
869.494	0.18594895
869.67	0.18573831
869.845	0.18560759
870.02	0.18547036
870.196	0.18540672
870.371	0.18521347
870.546	0.18516149
870.722	0.18508353
870.897	0.18492121
871.072	0.18483113
871.248	0.18456613
871.423	0.18443905
871.598	0.18423726
871.773	0.18390755
871.949	0.18368042
872.124	0.18369647
872.299	0.18358205
872.474	0.18354382
872.649	0.18344779
872.824	0.1832419
872.999	0.18327058
873.174	0.18317657
873.349	0.18286852
873.524	0.1826918
873.699	0.18258306
873.874	0.18242565
874.049	0.18248522
874.224	0.18242191
874.399	0.18247084
874.574	0.18271225
874.749	0.18280804
874.924	0.182663
875.099	0.18256
875.274	0.18234304
875.449	0.18222039
875.623	0.1819514
875.798	0.18162
875.973	0.18135715
876.148	0.18119356
876.322	0.18116763
876.497	0.18115466
876.672	0.18108645
876.846	0.18109641
877.021	0.18092135
877.196	0.18071346
877.37	0.18067601
877.545	0.18052921
877.72	0.18029949
877.894	0.18010144
878.069	0.17995587
878.243	0.17986038
878.418	0.17980575
878.592	0.17977396
878.767	0.17961314
878.941	0.17956446
879.116	0.17926936
879.29	0.17905094
879.464	0.17892638
879.639	0.17892171
879.813	0.17879265
879.987	0.17866768
880.162	0.17869862
880.336	0.1787328
880.51	0.17869222
880.685	0.17864471
880.859	0.17833187
881.033	0.17801249
881.207	0.17785224
881.381	0.17755914
881.556	0.17740842
881.73	0.17722596
881.904	0.17715484
882.078	0.17721645
882.252	0.17721313
882.426	0.17710212
882.6	0.17705365
882.774	0.17711838
882.948	0.17707374
883.122	0.17692471
883.296	0.17670529
883.47	0.17674477
883.644	0.17668343
883.818	0.17648266
883.992	0.17628276
884.166	0.17639689
884.34	0.17635188
884.514	0.17623995
884.687	0.17609572
884.861	0.17601887
885.035	0.17601847
885.209	0.17596466
885.382	0.17563608
885.556	0.17533826
885.73	0.17522903
885.904	0.17505307
886.077	0.17482884
886.251	0.1746766
886.425	0.1744603
886.598	0.17434089
886.772	0.17417577
886.945	0.17406666
887.119	0.17381462
887.292	0.17375612
887.466	0.17363469
887.64	0.1735515
887.813	0.17339962
887.986	0.17336258
888.16	0.17332852
888.333	0.17319792
888.507	0.1731727
888.68	0.17298731
888.854	0.17281715
889.027	0.17279375
889.2	0.1727257
889.374	0.17260613
889.547	0.17258352
889.72	0.17250862
889.893	0.17237826
890.067	0.17230428
890.24	0.17215173
890.413	0.17204057
890.586	0.17182014
890.759	0.17179751
890.933	0.17163922
891.106	0.17161405
891.279	0.17171165
891.452	0.17161309
891.625	0.17158526
891.798	0.17160879
891.971	0.17144463
892.144	0.17123062
892.317	0.17106727
892.49	0.17067604
892.663	0.17049966
892.836	0.17042608
893.009	0.17031492
893.182	0.17025205
893.355	0.17019956
893.527	0.17010778
893.7	0.17020166
893.873	0.17010128
894.046	0.16980967
894.219	0.1697441
894.391	0.16958646
894.564	0.16954576
894.737	0.16944774
894.91	0.16916231
895.082	0.16902354
895.255	0.16889929
895.428	0.16869924
895.6	0.16856694
895.773	0.16829102
895.945	0.16817033
896.118	0.16810422
896.291	0.16809232
896.463	0.16812198
896.636	0.16798464
896.808	0.16803333
896.981	0.1681993
897.153	0.16821318
897.326	0.16823815
897.498	0.16811369
897.67	0.16794237
897.843	0.16774064
898.015	0.16747275
898.187	0.16708067
898.36	0.16655307
898.532	0.16603633
898.704	0.16584358
898.877	0.16566584
899.049	0.16564205
899.221	0.16564856
899.393	0.16564146
899.566	0.16594318
899.738	0.16616177
899.91	0.16608646
900.082	0.16609763
900.254	0.16601655
900.426	0.16589065
900.598	0.16574167
900.77	0.16560201
900.942	0.16549853
901.114	0.16542014
901.286	0.16528989
901.458	0.16519997
901.63	0.16501455
901.802	0.16499507
901.974	0.16489558
902.146	0.16473643
902.318	0.16470153
902.49	0.16467147
902.662	0.16456418
902.834	0.16462187
903.005	0.16460277
903.177	0.16461674
903.349	0.16469161
903.521	0.16472482
903.693	0.16458632
903.864	0.16458026
904.036	0.16433105
904.208	0.16402718
904.379	0.16364473
904.551	0.16330719
904.723	0.16298663
904.894	0.16281855
905.066	0.16259701
905.237	0.16252786
905.409	0.16238373
905.58	0.16250145
905.752	0.16249059
905.923	0.16247848
906.095	0.16242181
906.266	0.16240167
906.438	0.16238295
906.609	0.16256963
906.78	0.16235382
906.952	0.16229297
907.123	0.16210073
907.295	0.16202602
907.466	0.16187991
907.637	0.16178759
907.808	0.16142728
907.98	0.16131408
908.151	0.16118357
908.322	0.1612296
908.493	0.16101779
908.665	0.16088491
908.836	0.1606714
909.007	0.16069995
909.178	0.16059677
909.349	0.16053416
909.52	0.16036815
909.691	0.16031017
909.862	0.16029982
910.033	0.16020998
910.204	0.1601185
910.375	0.16005246
910.546	0.1599454
910.717	0.15976916
910.888	0.15968751
911.059	0.15956783
911.23	0.15948628
911.401	0.15930005
911.572	0.15908714
911.742	0.15899551
911.913	0.15891772
912.084	0.158751
912.255	0.15857977
912.426	0.15838446
912.596	0.15821537
912.767	0.15817414
912.938	0.15792103
913.108	0.15763841
913.279	0.15751957
913.45	0.15744912
913.62	0.15746184
913.791	0.15755832
913.962	0.1575596
914.132	0.1576321
914.303	0.15776502
914.473	0.15791257
914.644	0.15781146
914.814	0.15771708
914.985	0.15748071
915.155	0.15719988
915.326	0.15685212
915.496	0.1565928
915.666	0.15620171
915.837	0.15609116
916.007	0.15581058
916.177	0.15566975
916.348	0.1556423
916.518	0.15568532
916.688	0.15570078
916.858	0.15568668
917.029	0.15564824
917.199	0.15574029
917.369	0.15584868
917.539	0.155897
917.709	0.15576088
917.88	0.15558889
918.05	0.15546403
918.22	0.15529026
918.39	0.15503697
918.56	0.15467556
918.73	0.15438237
918.9	0.1541586
919.07	0.15402038
919.24	0.15384419
919.41	0.15367163
919.58	0.1535175
919.75	0.15360635
919.92	0.15348686
920.09	0.15363674
920.26	0.15349403
920.429	0.15351871
920.599	0.15345517
920.769	0.15358851
920.939	0.15332475
921.109	0.15312129
921.278	0.15273213
921.448	0.15259651
921.618	0.15247348
921.787	0.15219554
921.957	0.15194966
922.127	0.15182083
922.296	0.15193338
922.466	0.15204859
922.636	0.152164
922.805	0.15198447
922.975	0.15200739
923.144	0.15203118
923.314	0.15197477
923.483	0.15182776
923.653	0.15162361
923.822	0.151352
923.992	0.1512242
924.161	0.15115917
924.331	0.15092027
924.5	0.150799
924.669	0.150389
924.839	0.15028043
925.008	0.15020884
925.177	0.15004393
925.347	0.149956
925.516	0.14990466
925.685	0.14991825
925.854	0.15017314
926.023	0.15005668
926.193	0.15011555
926.362	0.15008814
926.531	0.15001804
926.7	0.14983906
926.869	0.14979226
927.038	0.14961573
927.207	0.14957248
927.376	0.14948521
927.545	0.14961191
927.715	0.14968442
927.884	0.14976634
928.052	0.15001892
928.221	0.15005321
928.39	0.14997019
928.559	0.14999743
928.728	0.15000599
928.897	0.15003579
929.066	0.15005829
929.235	0.14966613
929.404	0.14951828
929.572	0.14952208
929.741	0.14939178
929.91	0.14914971
930.079	0.14883415
930.247	0.14845313
930.416	0.14834941
930.585	0.14834558
930.753	0.14833248
930.922	0.14827329
931.091	0.14830306
931.259	0.14823588
931.428	0.14849917
931.596	0.14851292
931.765	0.14850598
931.934	0.14848774
932.102	0.14808982
932.27	0.14809122
932.439	0.14794655
932.607	0.14767022
932.776	0.14747529
932.944	0.14722207
933.113	0.1469114
933.281	0.14690507
933.449	0.14638737
933.618	0.14624787
933.786	0.14617395
933.954	0.14599615
934.123	0.14598363
934.291	0.14597023
934.459	0.14591973
934.627	0.14590234
934.795	0.14595207
934.964	0.14568556
935.132	0.14570478
935.3	0.14530994
935.468	0.14530973
935.636	0.14530684
935.804	0.1453467
935.972	0.1449115
936.14	0.1450825
936.308	0.14478566
936.476	0.14470548
936.644	0.14461357
936.812	0.14427405
936.98	0.1442146
937.148	0.14399933
937.316	0.14356127
937.484	0.14366213
937.652	0.14349409
937.82	0.14368465
937.987	0.14345827
938.155	0.14321397
938.323	0.1434793
938.491	0.14323422
938.658	0.14348487
938.826	0.14374165
938.994	0.14300879
939.162	0.14356858
939.329	0.14378967
939.497	0.14380083
939.665	0.14439045
939.832	0.14431562
940	0.14476593
940.167	0.14474887
940.335	0.1444797
940.502	0.14378843
940.67	0.14408432
940.837	0.14346668
941.005	0.1427661
941.172	0.1425015
941.34	0.14351026
941.507	0.1442464
941.674	0.14529448
941.842	0.14480557
942.009	0.14612293
942.177	0.14593411
942.344	0.14646315
942.511	0.14617409
942.678	0.1458822
942.846	0.14514774
943.013	0.14558519
943.18	0.1442598
943.347	0.14450698
943.514	0.14394127
943.682	0.14309705
943.849	0.14262599
944.016	0.14253101
944.183	0.14302867
944.35	0.14276198
944.517	0.1435667
944.684	0.14411515
944.851	0.14323196
945.018	0.14275836
945.185	0.14235578
945.352	0.14053165
945.519	0.14074443
945.686	0.14058375
945.853	0.14076776
946.02	0.14121065
946.187	0.14087261
946.353	0.14217028
946.52	0.14409977
946.687	0.14394985
946.854	0.14358157
947.021	0.14319273
947.187	0.14312115
947.354	0.14254237
947.521	0.14161871
947.687	0.14037649
947.854	0.14094502
948.021	0.1407216
948.187	0.13988267
948.354	0.13987264
948.52	0.13973665
948.687	0.1402692
948.854	0.14078076
949.02	0.13936072
949.187	0.13873122
949.353	0.13858613
949.52	0.13768483
949.686	0.13770311
949.852	0.13773683
950.019	0.1377558
950.185	0.13867187
950.352	0.13890067
950.518	0.13928156
950.684	0.14018121
950.851	0.14000737
951.017	0.13913661
951.183	0.13897858
951.349	0.13851435
951.516	0.13806112
951.682	0.13743819
951.848	0.13608569
952.014	0.135709
952.18	0.13568736
952.346	0.13521807
952.512	0.13523486
952.679	0.13619081
952.845	0.13574952
953.011	0.1365183
953.177	0.13741462
953.343	0.13692402
953.509	0.13745667
953.675	0.13731736
953.841	0.13645415
954.007	0.13734184
954.172	0.13781738
954.338	0.1368682
954.504	0.13685137
954.67	0.13599434
954.836	0.13610924
955.002	0.13641247
955.167	0.13584356
955.333	0.13520606
955.499	0.13587927
955.665	0.13529954
955.83	0.13539796
955.996	0.1353066
956.162	0.13454255
956.327	0.13468962
956.493	0.13464183
956.659	0.1347396
956.824	0.13524194
956.99	0.13532563
957.155	0.13479057
957.321	0.13535529
957.486	0.13553531
957.652	0.1354126
957.817	0.13547802
957.983	0.13539507
958.148	0.13469924
958.314	0.13490872
958.479	0.13373989
958.644	0.13322153
958.81	0.13292832
958.975	0.13203497
959.14	0.13167659
959.306	0.13183381
959.471	0.13082197
959.636	0.13086426
959.801	0.13125903
959.967	0.13155384
960.132	0.13200906
960.297	0.1319
960.462	0.13258056
960.627	0.13269349
960.792	0.13266767
960.957	0.13229385
961.123	0.13179809
961.288	0.13120175
961.453	0.13146781
961.618	0.13133619
961.783	0.13218139
961.948	0.13238219
962.113	0.13216661
962.277	0.13207014
962.442	0.13239732
962.607	0.13179768
962.772	0.13126622
962.937	0.13055348
963.102	0.13032456
963.267	0.13027693
963.431	0.13038063
963.596	0.13005577
963.761	0.1300834
963.926	0.12960059
964.09	0.12991516
964.255	0.13024172
964.42	0.13030571
964.584	0.13001307
964.749	0.12963687
964.914	0.12980356
965.078	0.12996046
965.243	0.1295342
965.407	0.12865981
965.572	0.12810895
965.736	0.12866392
965.901	0.12904016
966.065	0.1292429
966.23	0.12962295
966.394	0.1298886
966.559	0.13057684
966.723	0.13062781
966.887	0.13013396
967.052	0.12996792
967.216	0.12889494
967.38	0.12778045
967.545	0.1275869
967.709	0.12773862
967.873	0.12825508
968.037	0.12809351
968.202	0.12796931
968.366	0.12863484
968.53	0.12915203
968.694	0.1290621
968.858	0.12858553
969.022	0.12798193
969.187	0.1274984
969.351	0.12758298
969.515	0.12795229
969.679	0.12765981
969.843	0.12716592
970.007	0.12679612
970.171	0.12710706
970.335	0.12744571
970.499	0.12717917
970.662	0.12664502
970.826	0.12712224
970.99	0.12748221
971.154	0.12761434
971.318	0.12705083
971.482	0.12664113
971.645	0.12644089
971.809	0.12690773
971.973	0.12661896
972.137	0.12658113
972.3	0.12660011
972.464	0.12669151
972.628	0.12733483
972.791	0.12759872
972.955	0.12713991
973.119	0.12695439
973.282	0.12681463
973.446	0.12666784
973.609	0.12673142
973.773	0.12621598
973.936	0.12630209
974.1	0.12605186
974.263	0.12624975
974.427	0.12616522
974.59	0.12617268
974.754	0.12620609
974.917	0.12586991
975.08	0.12562046
975.244	0.12547311
975.407	0.12533534
975.57	0.12502489
975.734	0.12435494
975.897	0.12395938
976.06	0.1243465
976.223	0.12455337
976.387	0.12460338
976.55	0.12450822
976.713	0.12421318
976.876	0.12479799
977.039	0.12438447
977.202	0.123858
977.365	0.12337365
977.528	0.12324296
977.692	0.12276649
977.855	0.12261764
978.018	0.12204663
978.181	0.12212877
978.344	0.12223455
978.506	0.12168506
978.669	0.12167733
978.832	0.1216669
978.995	0.12231743
979.158	0.12257486
979.321	0.12229601
979.484	0.12182521
979.646	0.12174457
979.809	0.12188216
979.972	0.12180525
980.135	0.12162185
980.297	0.12177056
980.46	0.12171934
980.623	0.12247548
980.786	0.12308596
980.948	0.12223497
981.111	0.12206072
981.273	0.12196816
981.436	0.12133001
981.599	0.12171785
981.761	0.12146687
981.924	0.12145589
982.086	0.12175705
982.249	0.12216689
982.411	0.12196522
982.573	0.12252381
982.736	0.12286097
982.898	0.12239173
983.061	0.12197984
983.223	0.12160705
983.385	0.12118716
983.548	0.12126344
983.71	0.12069801
983.872	0.1200838
984.034	0.11992029
984.197	0.11903656
984.359	0.11897163
984.521	0.11915297
984.683	0.11916172
984.845	0.11960451
985.008	0.11952907
985.17	0.11990904
985.332	0.12077177
985.494	0.12115031
985.656	0.1212188
985.818	0.12052364
985.98	0.12051437
986.142	0.12033838
986.304	0.12033167
986.466	0.12035449
986.628	0.12000096
986.79	0.11976959
986.952	0.11987946
987.113	0.11923647
987.275	0.11917983
987.437	0.11916884
987.599	0.11905543
987.761	0.11915112
987.922	0.11860658
988.084	0.11825035
988.246	0.11847276
988.408	0.1188911
988.569	0.11848909
988.731	0.11859948
988.893	0.11858854
989.054	0.11931389
989.216	0.12014742
989.377	0.11930548
989.539	0.11873308
989.701	0.1184387
989.862	0.1185789
990.024	0.11845148
990.185	0.11757728
990.347	0.11740291
990.508	0.11765162
990.669	0.1179704
990.831	0.1185873
990.992	0.11850334
991.154	0.11841154
991.315	0.11903232
991.476	0.11881742
991.638	0.11917301
991.799	0.11914168
991.96	0.11939864
992.121	0.11912563
992.283	0.11978977
992.444	0.11975196
992.605	0.1194005
992.766	0.11935369
992.927	0.11888875
993.088	0.11847009
993.249	0.11862996
993.41	0.117591
993.572	0.11732963
993.733	0.11734051
993.894	0.11735722
994.055	0.11736094
994.216	0.11707488
994.376	0.11576381
994.537	0.11643436
994.698	0.11677665
994.859	0.11707422
995.02	0.11737732
995.181	0.11671212
995.342	0.11658765
995.503	0.11718699
995.663	0.11703557
995.824	0.11621834
995.985	0.11714227
996.146	0.11649549
996.306	0.11794597
996.467	0.11805812
996.628	0.11878772
996.788	0.11870409
996.949	0.11937147
997.11	0.117613
997.27	0.11709963
997.431	0.11542787
997.591	0.11437796
997.752	0.11272991
997.912	0.11263374
998.073	0.1124231
998.233	0.11282583
998.394	0.11364966
998.554	0.11412671
998.714	0.11500725
998.875	0.11486035
999.035	0.11429316
999.196	0.11372569
999.356	0.11319495
999.516	0.11345805
999.676	0.11417093
999.837	0.11386495
999.997	0.11338255
1000.157	0.11310255
1000.317	0.11217474
1000.477	0.11212233
1000.638	0.11046967
1000.798	0.11055827
1000.958	0.1113406
1001.118	0.11251414
1001.278	0.11283333
1001.438	0.1142055
1001.598	0.11427657
1001.758	0.11547464
1001.918	0.1149354
1002.078	0.11266145
1002.238	0.11311015
1002.398	0.11352002
1002.558	0.1126665
1002.718	0.11328946
1002.878	0.11352342
1003.037	0.11190022
1003.197	0.11252708
1003.357	0.11100253
1003.517	0.1113779
1003.677	0.11121332
1003.836	0.11062212
1003.996	0.11000341
1004.156	0.11112578
1004.315	0.11203512
1004.475	0.11354644
1004.635	0.11332607
1004.794	0.11460484
1004.954	0.11434072
1005.114	0.11451081
1005.273	0.11545026
1005.433	0.11535098
1005.592	0.11526766
1005.752	0.11569769
1005.911	0.11398151
1006.071	0.11401097
1006.23	0.11395896
1006.389	0.11268472
1006.549	0.1125494
1006.708	0.11114342
1006.868	0.10896586
1007.027	0.10988388
1007.186	0.11060983
1007.345	0.11106633
1007.505	0.11051846
1007.664	0.11028828
1007.823	0.11034317
1007.982	0.11167995
1008.142	0.11185472
1008.301	0.11254217
1008.46	0.1116664
1008.619	0.11081739
1008.778	0.1103533
1008.937	0.11104926
1009.096	0.11082346
1009.255	0.11129735
1009.414	0.10948545
1009.573	0.10993846
1009.732	0.11346467
1009.891	0.1142181
1010.05	0.11515841
1010.209	0.11404228
1010.368	0.11294793
1010.527	0.11414774
1010.686	0.1143002
1010.845	0.11211313
1011.003	0.11056498
1011.162	0.11037302
1011.321	0.10937313
1011.48	0.1108145
1011.638	0.10872863
1011.797	0.1090744
1011.956	0.10909557
1012.115	0.10903673
1012.273	0.10817233
1012.432	0.10997137
1012.59	0.10882552
1012.749	0.11084142
1012.908	0.11061441
1013.066	0.11166133
1013.225	0.1103425
1013.383	0.10918609
1013.542	0.10824233
1013.7	0.10771158
1013.859	0.10822333
1014.017	0.10908774
1014.175	0.1079762
1014.334	0.1119958
1014.492	0.11388869
1014.65	0.11600795
1014.809	0.11742376
1014.967	0.11665622
1015.125	0.11434271
1015.284	0.11566114
1015.442	0.11580191
1015.6	0.11624973
1015.758	0.11647705
1015.916	0.11575189
1016.075	0.11636743
1016.233	0.11624997
1016.391	0.11720278
1016.549	0.11548014
1016.707	0.11497894
1016.865	0.11378472
1017.023	0.11198601
1017.181	0.11166332
1017.339	0.11131583
1017.497	0.10765239
1017.655	0.10838366
1017.813	0.1070695
1017.971	0.10684038
1018.129	0.10769531
1018.286	0.1064868
1018.444	0.10470715
1018.602	0.10645242
1018.76	0.10645526
1018.918	0.10835377
1019.075	0.10819586
1019.233	0.10781603
1019.391	0.10983888
1019.549	0.1120039
1019.706	0.11164475
1019.864	0.11183692
1020.022	0.1128127
1020.179	0.11239212
1020.337	0.11244868
1020.494	0.10983604
1020.652	0.10999806
1020.809	0.10885777
1020.967	0.10734927
1021.124	0.1036893
1021.282	0.10581761
1021.439	0.1056357
1021.597	0.10714438
1021.754	0.10760059
1021.911	0.11241838
1022.069	0.11188187
1022.226	0.11143516
1022.384	0.10750369
1022.541	0.1089823
1022.698	0.10479048
1022.855	0.10572935
1023.013	0.10381542
1023.17	0.10043918
1023.327	0.10228934
1023.484	0.10394839
1023.641	0.10295342
1023.798	0.11240116
1023.956	0.11262756
1024.113	0.10704341
1024.27	0.11160295
1024.427	0.11352995
1024.584	0.11406455
1024.741	0.11157349
1024.898	0.10489737
1025.055	0.10168899
1025.212	0.10299187
1025.369	0.10118631
1025.525	0.10024857
1025.682	0.10245723
1025.839	0.10379673
1025.996	0.10575793
1026.153	0.11034427
1026.31	0.11330353
1026.466	0.11853916
1026.623	0.11956683
1026.78	0.11617823
1026.937	0.11811293
1027.093	0.11851913
1027.25	0.11952786
1027.407	0.11829452
1027.563	0.11785189
1027.72	0.11810108
1027.876	0.1173201
1028.033	0.1174257
1028.19	0.11690324
1028.346	0.11389449
1028.503	0.11778005
1028.659	0.11537734
1028.816	0.11820798
1028.972	0.1239466
1029.128	0.13013445
1029.285	0.127323
1029.441	0.12846375
1029.598	0.1237518
1029.754	0.12883236
1029.91	0.12143484
1030.067	0.11605421
1030.223	0.1083776
1030.379	0.10810429
1030.535	0.10512401
1030.691	0.10365889
1030.848	0.09716866
1031.004	0.10519907
1031.16	0.10820733
1031.316	0.11493933
1031.472	0.12100438
1031.628	0.12183869
1031.784	0.12919748
1031.94	0.12862439
1032.096	0.12548474
1032.252	0.12370356
1032.408	0.12205415
1032.564	0.11436185
1032.72	0.11406001
1032.876	0.10183384
1033.032	0.10935961
1033.188	0.10781061
1033.344	0.10698571
1033.5	0.1036824
1033.655	0.10588201
1033.811	0.10622028
1033.967	0.11958763
