Data from 1_mm_pl_50pc_Absorbance__0__17-22-37-838.txt Node

Date: Wed Mar 08 17:22:37 CET 2023
User: Ange
Spectrometer: FLMT08341
Trigger mode: 0
Integration Time (sec): 1.000000E-2
Scans to average: 400
Electric dark correction enabled: true
Nonlinearity correction enabled: false
Boxcar width: 3
XAxis mode: Wavelengths
Number of Pixels in Spectrum: 3648
>>>>>Begin Spectral Data<<<<<
345.271	0.06745065
345.487	0.05714344
345.704	0.05459028
345.921	0.04961839
346.137	0.05157671
346.354	0.02823181
346.571	0.02255372
346.787	0.033881
347.004	0.01742062
347.22	-0.02155066
347.437	0.1074596
347.653	0.27050595
347.87	-0.35257407
348.086	-0.39221547
348.303	-0.07787398
348.519	0.26172234
348.736	0.24537251
348.952	0.25236722
349.169	0.25542943
349.385	0.26632203
349.601	0.25949455
349.818	0.25529175
350.034	0.2529559
350.251	0.25208624
350.467	0.25437503
350.683	0.24853224
350.9	0.24648637
351.116	0.2450382
351.332	0.24382463
351.549	0.25280793
351.765	0.25923147
351.981	0.26445542
352.197	0.27581026
352.414	0.28554501
352.63	0.2910232
352.846	0.29900994
353.062	0.29348736
353.278	0.28848967
353.495	0.29475761
353.711	0.29496238
353.927	0.29613483
354.143	0.29872914
354.359	0.29579102
354.575	0.29574792
354.792	0.30298925
355.008	0.29513809
355.224	0.29183086
355.44	0.29006219
355.656	0.28759024
355.872	0.29151704
356.088	0.30351174
356.304	0.30528459
356.52	0.30904484
356.736	0.31435897
356.952	0.31814443
357.168	0.32156425
357.384	0.3251148
357.6	0.31772927
357.816	0.32336253
358.032	0.32812114
358.248	0.33287022
358.464	0.33376567
358.679	0.337435
358.895	0.33781597
359.111	0.34517315
359.327	0.34101135
359.543	0.34282662
359.759	0.34798349
359.974	0.34769157
360.19	0.34839859
360.406	0.35109966
360.622	0.34956711
360.838	0.34801974
361.053	0.35020777
361.269	0.35057128
361.485	0.35526818
361.701	0.35834413
361.916	0.35621846
362.132	0.35647917
362.348	0.36051539
362.563	0.36324582
362.779	0.36077276
362.995	0.36324213
363.21	0.36704793
363.426	0.36826957
363.641	0.37089838
363.857	0.37449002
364.073	0.37350277
364.288	0.37356274
364.504	0.37892531
364.719	0.3798565
364.935	0.38257096
365.15	0.3853585
365.366	0.38662614
365.581	0.39143441
365.797	0.39467419
366.012	0.38996589
366.228	0.38784391
366.443	0.39444348
366.658	0.39476959
366.874	0.39310258
367.089	0.39624495
367.305	0.39878687
367.52	0.40044472
367.735	0.40172748
367.951	0.39821581
368.166	0.40106188
368.381	0.40812205
368.597	0.40529411
368.812	0.40777918
369.027	0.41138732
369.243	0.41438298
369.458	0.42219145
369.673	0.42370271
369.888	0.42474136
370.104	0.42381756
370.319	0.42546701
370.534	0.42456768
370.749	0.42492296
370.964	0.42436307
371.179	0.42416118
371.395	0.42177545
371.61	0.42627475
371.825	0.4242903
372.04	0.4269544
372.255	0.42682698
372.47	0.42513047
372.685	0.4242457
372.9	0.42370428
373.115	0.42229647
373.33	0.42535149
373.545	0.42673305
373.76	0.4310324
373.975	0.43189668
374.19	0.43234767
374.405	0.43654638
374.62	0.44323027
374.835	0.44720407
375.05	0.44941864
375.265	0.45044792
375.48	0.45253337
375.695	0.46149882
375.91	0.46086924
376.125	0.4565635
376.339	0.45240053
376.554	0.45185586
376.769	0.45307364
376.984	0.45287104
377.199	0.45277961
377.414	0.4535439
377.628	0.45775486
377.843	0.46254965
378.058	0.46533273
378.273	0.46809756
378.487	0.47210195
378.702	0.47215899
378.917	0.47394589
379.131	0.47356183
379.346	0.47034898
379.561	0.46927215
379.775	0.46822645
379.99	0.46543517
380.205	0.46214178
380.419	0.45959066
380.634	0.45690171
380.848	0.46109807
381.063	0.46271767
381.278	0.46592239
381.492	0.46537926
381.707	0.47083243
381.921	0.4725045
382.136	0.47866725
382.35	0.47780014
382.565	0.477265
382.779	0.4783344
382.994	0.48134738
383.208	0.48002664
383.422	0.48581772
383.637	0.48577763
383.851	0.48970958
384.066	0.49229141
384.28	0.49379936
384.494	0.49611279
384.709	0.49875789
384.923	0.49867275
385.137	0.49652812
385.352	0.49588343
385.566	0.49825708
385.78	0.49747657
385.995	0.49528249
386.209	0.49475944
386.423	0.49695956
386.637	0.50058986
386.852	0.49937615
387.066	0.49899607
387.28	0.49749948
387.494	0.50166619
387.708	0.50380759
387.923	0.50282097
388.137	0.50520437
388.351	0.50845898
388.565	0.51113761
388.779	0.51394667
388.993	0.51790592
389.207	0.5181849
389.421	0.51961676
389.635	0.51802021
389.85	0.51762653
390.064	0.5182866
390.278	0.51935484
390.492	0.51891887
390.706	0.52087452
390.92	0.52221055
391.134	0.52559358
391.348	0.53039108
391.561	0.52935637
391.775	0.52975113
391.989	0.52817069
392.203	0.52955921
392.417	0.53125468
392.631	0.53294084
392.845	0.53112988
393.059	0.53454468
393.273	0.53407601
393.486	0.533393
393.7	0.53107239
393.914	0.53242264
394.128	0.53191656
394.342	0.53176751
394.555	0.5280927
394.769	0.52954594
394.983	0.53217886
395.197	0.53530734
395.41	0.53548333
395.624	0.53677097
395.838	0.53674559
396.051	0.5421469
396.265	0.54158503
396.479	0.54269392
396.692	0.54221569
396.906	0.54071964
397.12	0.54013784
397.333	0.54306775
397.547	0.54217415
397.76	0.54463918
397.974	0.54487188
398.187	0.54677742
398.401	0.54961321
398.614	0.55145477
398.828	0.55141121
399.041	0.55211268
399.255	0.55197331
399.468	0.55251109
399.682	0.55247453
399.895	0.55277881
400.109	0.55179827
400.322	0.55100756
400.536	0.54903616
400.749	0.5516096
400.962	0.55168256
401.176	0.55155267
401.389	0.55145915
401.602	0.54939391
401.816	0.55117915
402.029	0.55343428
402.242	0.55232345
402.456	0.55239954
402.669	0.55065058
402.882	0.54771933
403.095	0.55116277
403.309	0.55027568
403.522	0.55067977
403.735	0.54922347
403.948	0.54971757
404.161	0.55472334
404.375	0.55668487
404.588	0.5563626
404.801	0.55701255
405.014	0.55559495
405.227	0.55814151
405.44	0.5588105
405.653	0.55751117
405.866	0.55604409
406.079	0.55507586
406.293	0.55411038
406.506	0.55472861
406.719	0.55343007
406.932	0.55269625
407.145	0.55058917
407.358	0.55336062
407.571	0.55262641
407.784	0.55349321
407.996	0.55364719
408.209	0.55253732
408.422	0.55138371
408.635	0.5521664
408.848	0.55140003
409.061	0.5491637
409.274	0.54813755
409.487	0.54682008
409.7	0.54720442
409.912	0.54800707
410.125	0.54755753
410.338	0.54731464
410.551	0.54813702
410.764	0.54798203
410.976	0.54808068
411.189	0.54748695
411.402	0.54579909
411.615	0.54625466
411.827	0.54584162
412.04	0.54606432
412.253	0.54497558
412.465	0.54401665
412.678	0.54333865
412.891	0.54431116
413.103	0.54092239
413.316	0.539687
413.529	0.54001981
413.741	0.54058292
413.954	0.54067758
414.166	0.54045628
414.379	0.53906985
414.591	0.54040718
414.804	0.53953023
415.016	0.53846143
415.229	0.53691636
415.441	0.53530381
415.654	0.53514418
415.866	0.53464472
416.079	0.53431804
416.291	0.53325621
416.504	0.53339962
416.716	0.53335034
416.928	0.53325972
417.141	0.53153495
417.353	0.53119519
417.566	0.52877591
417.778	0.52853674
417.99	0.52589436
418.203	0.52405282
418.415	0.5228076
418.627	0.52276334
418.839	0.52188435
419.052	0.52327513
419.264	0.5223092
419.476	0.52227655
419.688	0.52194495
419.901	0.52121863
420.113	0.51963722
420.325	0.51802081
420.537	0.51541329
420.749	0.51470305
420.961	0.51393048
421.174	0.51260203
421.386	0.51086722
421.598	0.50963923
421.81	0.50849259
422.022	0.50705285
422.234	0.50628056
422.446	0.50460066
422.658	0.50317327
422.87	0.50257432
423.082	0.50154208
423.294	0.50018716
423.506	0.49975717
423.718	0.49781171
423.93	0.49607962
424.142	0.49441452
424.354	0.49263988
424.566	0.49109886
424.778	0.49032535
424.99	0.48848168
425.202	0.48695897
425.414	0.4860619
425.625	0.48569437
425.837	0.48394108
426.049	0.4832103
426.261	0.48144109
426.473	0.47968944
426.684	0.47861024
426.896	0.47777209
427.108	0.47597246
427.32	0.47546102
427.531	0.47375893
427.743	0.47247378
427.955	0.4722848
428.167	0.47037537
428.378	0.46859597
428.59	0.4673053
428.802	0.46576744
429.013	0.46404022
429.225	0.46238043
429.436	0.4602977
429.648	0.45963025
429.86	0.45856779
430.071	0.45704741
430.283	0.45562208
430.494	0.45434462
430.706	0.45331802
430.917	0.45153804
431.129	0.45002977
431.34	0.44821293
431.552	0.446694
431.763	0.44487987
431.975	0.44358361
432.186	0.44131799
432.398	0.44002201
432.609	0.43723169
432.821	0.43561482
433.032	0.4340798
433.243	0.43245243
433.455	0.43049562
433.666	0.4292753
433.877	0.42822061
434.089	0.42667072
434.3	0.42452574
434.511	0.4222875
434.723	0.42051173
434.934	0.41824935
435.145	0.41596483
435.356	0.41339324
435.568	0.41182867
435.779	0.41008124
435.99	0.40812292
436.201	0.40645756
436.412	0.40485883
436.624	0.40346414
436.835	0.40203462
437.046	0.40073066
437.257	0.39907275
437.468	0.39815147
437.679	0.39680502
437.89	0.39529724
438.101	0.39389915
438.312	0.39241871
438.523	0.39050363
438.734	0.38898905
438.945	0.38718025
439.156	0.38480916
439.367	0.38322516
439.578	0.38156272
439.789	0.37930499
440	0.3777358
440.211	0.37586889
440.422	0.37417623
440.633	0.37293751
440.844	0.37075839
441.055	0.3687992
441.266	0.36735177
441.477	0.36525944
441.687	0.36346678
441.898	0.36146862
442.109	0.35941225
442.32	0.3576331
442.531	0.35550254
442.741	0.35306471
442.952	0.35132606
443.163	0.34962429
443.374	0.3477047
443.584	0.34579127
443.795	0.34419322
444.006	0.34253302
444.216	0.34086281
444.427	0.3386965
444.638	0.33686943
444.848	0.33514221
445.059	0.33328716
445.27	0.33146357
445.48	0.3295516
445.691	0.32804725
445.901	0.32672044
446.112	0.32486998
446.323	0.32290862
446.533	0.3211695
446.744	0.3191662
446.954	0.31728243
447.165	0.31533159
447.375	0.31375738
447.586	0.31218222
447.796	0.31072143
448.006	0.30897166
448.217	0.30751166
448.427	0.3059306
448.638	0.30413148
448.848	0.30218684
449.058	0.3001718
449.269	0.29844265
449.479	0.29692777
449.689	0.2951303
449.9	0.293449
450.11	0.29172785
450.32	0.29012314
450.531	0.28855957
450.741	0.28671185
450.951	0.28500103
451.161	0.28324524
451.372	0.28169186
451.582	0.28068623
451.792	0.27895119
452.002	0.27731277
452.212	0.27558916
452.422	0.27397398
452.633	0.27255164
452.843	0.27122159
453.053	0.26893663
453.263	0.2674352
453.473	0.26586773
453.683	0.26465694
453.893	0.2629191
454.103	0.26144284
454.313	0.25977681
454.523	0.25839869
454.733	0.25691264
454.943	0.25554086
455.153	0.2539082
455.363	0.25243843
455.573	0.2507088
455.783	0.24920844
455.993	0.24751232
456.203	0.24608511
456.413	0.24450158
456.623	0.24289406
456.833	0.24155289
457.042	0.24011983
457.252	0.23855566
457.462	0.23718428
457.672	0.23571243
457.882	0.23435829
458.091	0.2330185
458.301	0.2314669
458.511	0.23015586
458.721	0.2286921
458.931	0.22743632
459.14	0.22610559
459.35	0.22490489
459.56	0.22382554
459.769	0.22281469
459.979	0.22152239
460.189	0.22032397
460.398	0.21890129
460.608	0.21787221
460.817	0.21661769
461.027	0.2153993
461.237	0.21408239
461.446	0.21299098
461.656	0.21212516
461.865	0.21116259
462.075	0.2101164
462.284	0.2091479
462.494	0.20796572
462.703	0.20683186
462.913	0.20584941
463.122	0.20469753
463.332	0.20356964
463.541	0.20250271
463.751	0.2013864
463.96	0.20031264
464.169	0.19931333
464.379	0.19837018
464.588	0.19733078
464.797	0.19647612
465.007	0.19544432
465.216	0.19461614
465.425	0.19388636
465.635	0.19313821
465.844	0.19221005
466.053	0.19136578
466.263	0.19059386
466.472	0.18981886
466.681	0.18890643
466.89	0.18796397
467.099	0.18713174
467.309	0.18630425
467.518	0.18564404
467.727	0.18483459
467.936	0.18388706
468.145	0.18321352
468.354	0.18256025
468.563	0.18180209
468.772	0.18098073
468.982	0.18017599
469.191	0.17953122
469.4	0.17890668
469.609	0.17809259
469.818	0.17736693
470.027	0.1766414
470.236	0.17598659
470.445	0.17533415
470.654	0.17453515
470.863	0.17386671
471.072	0.17332424
471.28	0.17263492
471.489	0.17212668
471.698	0.17156302
471.907	0.17104903
472.116	0.17059027
472.325	0.17010167
472.534	0.16960768
472.743	0.16907754
472.951	0.16855281
473.16	0.16812957
473.369	0.16754283
473.578	0.16693227
473.786	0.16646986
473.995	0.16598476
474.204	0.16567962
474.413	0.16520494
474.621	0.16473706
474.83	0.16445901
475.039	0.16415822
475.247	0.16380334
475.456	0.16342195
475.665	0.16302266
475.873	0.16268102
476.082	0.16223089
476.291	0.16185748
476.499	0.16167422
476.708	0.1613163
476.916	0.16105312
477.125	0.16082302
477.333	0.16065723
477.542	0.16055447
477.75	0.16021139
477.959	0.1599209
478.167	0.15977607
478.376	0.15956885
478.584	0.15929965
478.793	0.15900788
479.001	0.15881763
479.209	0.15870774
479.418	0.15854758
479.626	0.15833939
479.834	0.158232
480.043	0.15813045
480.251	0.1580845
480.459	0.15793653
480.668	0.15790507
480.876	0.15775983
481.084	0.15770612
481.293	0.15761414
481.501	0.15754159
481.709	0.15749787
481.917	0.15751331
482.125	0.15744529
482.334	0.15750154
482.542	0.1575416
482.75	0.1575343
482.958	0.15757058
483.166	0.15757576
483.374	0.15759742
483.583	0.15769195
483.791	0.15767588
483.999	0.15767052
484.207	0.15776778
484.415	0.1579082
484.623	0.15788939
484.831	0.15787875
485.039	0.15790554
485.247	0.15799541
485.455	0.15802781
485.663	0.1581031
485.871	0.1581664
486.079	0.15834065
486.287	0.1585362
486.495	0.15867301
486.702	0.15876744
486.91	0.15893345
487.118	0.15898584
487.326	0.15909929
487.534	0.15936135
487.742	0.15959875
487.95	0.15978196
488.157	0.16008925
488.365	0.16037955
488.573	0.16073898
488.781	0.16109658
488.988	0.1613617
489.196	0.16159274
489.404	0.16189005
489.612	0.16221777
489.819	0.16247943
490.027	0.16270749
490.235	0.16289087
490.442	0.16314365
490.65	0.16341414
490.857	0.16384402
491.065	0.16420529
491.273	0.16463876
491.48	0.16504721
491.688	0.1655775
491.895	0.16608407
492.103	0.16655803
492.31	0.16685786
492.518	0.16717639
492.725	0.16753364
492.933	0.16789079
493.14	0.16814101
493.348	0.16846896
493.555	0.16885657
493.763	0.16928696
493.97	0.16976292
494.177	0.17023233
494.385	0.17076105
494.592	0.17125132
494.8	0.17160948
495.007	0.17209205
495.214	0.17251999
495.422	0.17300958
495.629	0.17355487
495.836	0.17401469
496.043	0.17462239
496.251	0.17524542
496.458	0.17572655
496.665	0.17622168
496.872	0.176714
497.08	0.17714468
497.287	0.17762725
497.494	0.17811028
497.701	0.17867361
497.908	0.17933035
498.115	0.17982514
498.322	0.18036334
498.53	0.18092055
498.737	0.18146346
498.944	0.18203581
499.151	0.18254617
499.358	0.18306089
499.565	0.18376329
499.772	0.18443089
499.979	0.18510248
500.186	0.18585755
500.393	0.18650237
500.6	0.18708631
500.807	0.18771047
501.014	0.18834262
501.221	0.18889986
501.427	0.18950121
501.634	0.19010578
501.841	0.19078569
502.048	0.19153899
502.255	0.19216206
502.462	0.19281715
502.669	0.19350053
502.875	0.19414189
503.082	0.19479783
503.289	0.19533422
503.496	0.19597238
503.702	0.19668451
503.909	0.19742437
504.116	0.19821339
504.323	0.19896976
504.529	0.19970612
504.736	0.20051898
504.943	0.20134492
505.149	0.20223223
505.356	0.20306608
505.563	0.20390585
505.769	0.20473919
505.976	0.20551346
506.182	0.20634513
506.389	0.20704833
506.595	0.20776566
506.802	0.20850675
507.008	0.20919987
507.215	0.20996649
507.421	0.21076561
507.628	0.21148121
507.834	0.21226601
508.041	0.21305004
508.247	0.21381596
508.454	0.21460865
508.66	0.21534929
508.866	0.21608949
509.073	0.21694579
509.279	0.217789
509.486	0.21850863
509.692	0.21930832
509.898	0.2201127
510.105	0.22096003
510.311	0.22184181
510.517	0.22269936
510.723	0.22353667
510.93	0.22439361
511.136	0.2252618
511.342	0.22613133
511.548	0.22699053
511.754	0.22786242
511.961	0.22866279
512.167	0.22952178
512.373	0.23035869
512.579	0.23123519
512.785	0.2321125
512.991	0.23298433
513.197	0.23385546
513.404	0.23482224
513.61	0.23570685
513.816	0.23663831
514.022	0.23753252
514.228	0.23843705
514.434	0.23930893
514.64	0.24017753
514.846	0.24108588
515.052	0.24196233
515.258	0.24290002
515.464	0.24385052
515.669	0.24478501
515.875	0.2457969
516.081	0.24682709
516.287	0.24779595
516.493	0.24882561
516.699	0.24973499
516.905	0.2506026
517.111	0.25154125
517.316	0.25237256
517.522	0.253196
517.728	0.25407119
517.934	0.25500522
518.139	0.25598471
518.345	0.25691908
518.551	0.25780715
518.757	0.25870146
518.962	0.25968773
519.168	0.26063288
519.374	0.26154371
519.579	0.26249893
519.785	0.26359897
519.991	0.26467343
520.196	0.26585842
520.402	0.26691944
520.607	0.26798258
520.813	0.26905989
521.018	0.27007843
521.224	0.27087939
521.429	0.27182651
521.635	0.27274192
521.84	0.27354772
522.046	0.27440036
522.251	0.27523261
522.457	0.27609502
522.662	0.2771441
522.868	0.2780468
523.073	0.27893838
523.279	0.28005063
523.484	0.28107763
523.689	0.28212198
523.895	0.2831934
524.1	0.28425585
524.305	0.28530455
524.511	0.28630129
524.716	0.28725709
524.921	0.28829403
525.126	0.28926687
525.332	0.29024789
525.537	0.29111165
525.742	0.29213389
525.947	0.29317468
526.153	0.29413335
526.358	0.29503127
526.563	0.29604905
526.768	0.29701163
526.973	0.29815565
527.178	0.29920744
527.383	0.30022464
527.588	0.30121429
527.794	0.30217058
527.999	0.30319783
528.204	0.30425155
528.409	0.30513934
528.614	0.30615096
528.819	0.30712829
529.024	0.3080707
529.229	0.30907983
529.434	0.31009281
529.639	0.31108088
529.843	0.31209292
530.048	0.31298042
530.253	0.31391029
530.458	0.31499107
530.663	0.31601874
530.868	0.31695472
531.073	0.31786407
531.278	0.31875918
531.482	0.31966787
531.687	0.32062194
531.892	0.3215459
532.097	0.3224596
532.302	0.32345733
532.506	0.32441266
532.711	0.3254587
532.916	0.32658052
533.12	0.32766602
533.325	0.32872276
533.53	0.32981696
533.734	0.33086343
533.939	0.33197123
534.144	0.33302363
534.348	0.33403112
534.553	0.33509651
534.757	0.33609873
534.962	0.3370935
535.167	0.33807172
535.371	0.338967
535.576	0.34001243
535.78	0.34091067
535.985	0.34185665
536.189	0.3427099
536.394	0.34361693
536.598	0.34453954
536.803	0.34551838
537.007	0.34638517
537.211	0.34742631
537.416	0.34829087
537.62	0.34927354
537.825	0.35026198
538.029	0.35134049
538.233	0.35234575
538.438	0.35340158
538.642	0.35432137
538.846	0.35544252
539.05	0.35648288
539.255	0.35745032
539.459	0.35832119
539.663	0.35918694
539.867	0.36007271
540.072	0.36100448
540.276	0.36187324
540.48	0.36291311
540.684	0.36390313
540.888	0.36499812
541.092	0.36607116
541.297	0.36709794
541.501	0.36810869
541.705	0.36908294
541.909	0.36989127
542.113	0.37069214
542.317	0.37155713
542.521	0.37246262
542.725	0.37336052
542.929	0.37424908
543.133	0.37513113
543.337	0.37612488
543.541	0.37719076
543.745	0.37801799
543.949	0.37887206
544.153	0.37970056
544.357	0.38054503
544.56	0.38146792
544.764	0.38244121
544.968	0.38332277
545.172	0.38422152
545.376	0.38526431
545.58	0.38622153
545.783	0.38729316
545.987	0.3881899
546.191	0.38897489
546.395	0.38988124
546.598	0.39094335
546.802	0.39188756
547.006	0.39285676
547.21	0.39351967
547.413	0.39445686
547.617	0.39548141
547.821	0.39639819
548.024	0.39731991
548.228	0.39810277
548.431	0.39902492
548.635	0.40005934
548.839	0.40091919
549.042	0.40174618
549.246	0.4025629
549.449	0.40335362
549.653	0.40428028
549.856	0.40502481
550.06	0.40586493
550.263	0.40676045
550.467	0.40766986
550.67	0.40861563
550.874	0.40944856
551.077	0.41035137
551.28	0.41125853
551.484	0.41209582
551.687	0.41295429
551.891	0.41382407
552.094	0.41470538
552.297	0.41568413
552.501	0.41658487
552.704	0.41756071
552.907	0.41843734
553.11	0.41921385
553.314	0.41991851
553.517	0.42056277
553.72	0.42131383
553.923	0.42211785
554.127	0.42293151
554.33	0.42373732
554.533	0.42464401
554.736	0.4254399
554.939	0.42625821
555.142	0.42703703
555.345	0.42770276
555.549	0.42845722
555.752	0.42920562
555.955	0.42986737
556.158	0.43071976
556.361	0.43155443
556.564	0.43229293
556.767	0.43311502
556.97	0.4338742
557.173	0.43470815
557.376	0.43560962
557.579	0.43633088
557.782	0.43714517
557.984	0.43800341
558.187	0.4388378
558.39	0.43957682
558.593	0.44040002
558.796	0.44115719
558.999	0.44193774
559.202	0.44274367
559.404	0.44339281
559.607	0.44416496
559.81	0.44499104
560.013	0.44564798
560.216	0.44637995
560.418	0.44718286
560.621	0.44784629
560.824	0.44859168
561.026	0.44923508
561.229	0.44985246
561.432	0.45064766
561.634	0.45132829
561.837	0.45198046
562.04	0.45266721
562.242	0.45343413
562.445	0.45407775
562.647	0.45478788
562.85	0.45528391
563.053	0.45591824
563.255	0.45660765
563.458	0.4572768
563.66	0.45789621
563.863	0.45858836
564.065	0.45923786
564.268	0.46000351
564.47	0.46066487
564.672	0.46128696
564.875	0.46195919
565.077	0.462582
565.28	0.46318058
565.482	0.46386962
565.684	0.46448632
565.887	0.46517941
566.089	0.46587082
566.291	0.46656624
566.494	0.46726343
566.696	0.46794787
566.898	0.46859266
567.1	0.46932505
567.303	0.46993626
567.505	0.47050026
567.707	0.47093154
567.909	0.47139841
568.111	0.47195205
568.314	0.47247567
568.516	0.47298962
568.718	0.47347332
568.92	0.47406723
569.122	0.47470582
569.324	0.4754205
569.526	0.47585725
569.728	0.47646292
569.93	0.47696685
570.132	0.4775869
570.334	0.47818717
570.536	0.47867766
570.738	0.47914635
570.94	0.4798153
571.142	0.48040587
571.344	0.48086048
571.546	0.48135036
571.748	0.48185719
571.95	0.48237159
572.152	0.48294528
572.354	0.48357433
572.555	0.48416789
572.757	0.48495433
572.959	0.48551321
573.161	0.48591795
573.363	0.48641974
573.564	0.4869246
573.766	0.48718695
573.968	0.48749898
574.17	0.48766133
574.371	0.48807852
574.573	0.48856579
574.775	0.48901083
574.976	0.48940192
575.178	0.48989629
575.38	0.49027715
575.581	0.49067977
575.783	0.49112143
575.985	0.49153509
576.186	0.49205995
576.388	0.49240554
576.589	0.49277557
576.791	0.49330243
576.992	0.49377028
577.194	0.49414697
577.395	0.49452566
577.597	0.49483205
577.798	0.49527386
578	0.49572143
578.201	0.49615912
578.402	0.49655934
578.604	0.49683317
578.805	0.49717372
579.007	0.4976017
579.208	0.49802979
579.409	0.49829146
579.611	0.49841756
579.812	0.49876586
580.013	0.49912793
580.215	0.49932221
580.416	0.49960883
580.617	0.49985804
580.818	0.50038157
581.019	0.50076889
581.221	0.50114144
581.422	0.50154493
581.623	0.50207725
581.824	0.5022431
582.025	0.50254752
582.226	0.50273815
582.428	0.50305086
582.629	0.50325315
582.83	0.50348917
583.031	0.50365155
583.232	0.50402933
583.433	0.50426945
583.634	0.50434635
583.835	0.5045294
584.036	0.50462693
584.237	0.50468809
584.438	0.50476624
584.639	0.5048095
584.84	0.50498025
585.041	0.50511842
585.242	0.50519082
585.442	0.50536428
585.643	0.50570507
585.844	0.50593332
586.045	0.50625915
586.246	0.50630739
586.447	0.50655546
586.647	0.50671958
586.848	0.50682816
587.049	0.50689758
587.25	0.5069894
587.45	0.50701793
587.651	0.50724046
587.852	0.50736592
588.053	0.50761064
588.253	0.50785923
588.454	0.50793622
588.655	0.50806925
588.855	0.50817352
589.056	0.50826941
589.256	0.50843601
589.457	0.50851276
589.658	0.50861892
589.858	0.5086915
590.059	0.50883689
590.259	0.50905092
590.46	0.50918166
590.66	0.50918689
590.861	0.50924527
591.061	0.50917996
591.262	0.50932297
591.462	0.50929944
591.662	0.50912503
591.863	0.50897019
592.063	0.5089796
592.264	0.50894621
592.464	0.50897486
592.664	0.50892873
592.865	0.50910817
593.065	0.50904991
593.265	0.50920262
593.465	0.50919874
593.666	0.50913467
593.866	0.50912397
594.066	0.50909084
594.266	0.50880493
594.467	0.50873685
594.667	0.50853461
594.867	0.50846227
595.067	0.50837673
595.267	0.50820063
595.467	0.50809411
595.668	0.50806076
595.868	0.50807638
596.068	0.50800157
596.268	0.50779079
596.468	0.5077777
596.668	0.5078346
596.868	0.50772801
597.068	0.50776029
597.268	0.50777717
597.468	0.50774253
597.668	0.50768664
597.868	0.50750907
598.068	0.50736661
598.268	0.50718884
598.467	0.50702021
598.667	0.50670054
598.867	0.50638381
599.067	0.50620597
599.267	0.50603404
599.467	0.50581133
599.667	0.50561912
599.866	0.5054171
600.066	0.50528436
600.266	0.50517844
600.466	0.50498396
600.665	0.50481862
600.865	0.5045693
601.065	0.50441954
601.264	0.50412455
601.464	0.50395805
601.664	0.50372689
601.863	0.50351055
602.063	0.50323444
602.263	0.50286489
602.462	0.50262319
602.662	0.50239801
602.861	0.50202345
603.061	0.50172927
603.26	0.50147066
603.46	0.50124219
603.659	0.50117164
603.859	0.50091665
604.058	0.50062089
604.258	0.50047877
604.457	0.50038433
604.657	0.50003486
604.856	0.49959937
605.056	0.49923833
605.255	0.49887536
605.454	0.49859629
605.654	0.49823525
605.853	0.49787282
606.052	0.49756696
606.252	0.49743254
606.451	0.49724452
606.65	0.49708989
606.849	0.49660602
607.049	0.49624616
607.248	0.49580698
607.447	0.49548271
607.646	0.49517116
607.845	0.4947313
608.045	0.49411639
608.244	0.49389886
608.443	0.49347101
608.642	0.49311578
608.841	0.49265788
609.04	0.49214884
609.239	0.49171215
609.438	0.49134696
609.637	0.49097416
609.836	0.49059293
610.035	0.49019164
610.234	0.48983601
610.433	0.48935276
610.632	0.48894638
610.831	0.48857222
611.03	0.48805193
611.229	0.48773718
611.428	0.48731101
611.627	0.48693275
611.826	0.48663051
612.025	0.48637629
612.224	0.48592759
612.422	0.48554003
612.621	0.48492302
612.82	0.48447596
613.019	0.48399936
613.218	0.48356697
613.416	0.4829048
613.615	0.48244981
613.814	0.48191277
614.012	0.48147851
614.211	0.48096297
614.41	0.4804508
614.608	0.47992187
614.807	0.47935153
615.006	0.47890621
615.204	0.47844221
615.403	0.47812958
615.602	0.47770955
615.8	0.47731607
615.999	0.47669293
616.197	0.47633832
616.396	0.47579882
616.594	0.47525673
616.793	0.4746024
616.991	0.47402559
617.19	0.47338842
617.388	0.47299567
617.586	0.4723597
617.785	0.47172233
617.983	0.47116286
618.182	0.47056635
618.38	0.46995767
618.578	0.4694414
618.777	0.46886028
618.975	0.46841364
619.173	0.46792853
619.372	0.46743244
619.57	0.46688827
619.768	0.46640903
619.966	0.46577049
620.165	0.46507434
620.363	0.464423
620.561	0.46371366
620.759	0.46301776
620.957	0.46243783
621.155	0.46174081
621.354	0.46102827
621.552	0.46055511
621.75	0.45984219
621.948	0.45935894
622.146	0.45872765
622.344	0.45801908
622.542	0.45740484
622.74	0.45678234
622.938	0.45600139
623.136	0.45545522
623.334	0.45490236
623.532	0.45427816
623.73	0.45380851
623.928	0.45334466
624.126	0.45285401
624.324	0.45235725
624.522	0.45161521
624.719	0.4508106
624.917	0.45023502
625.115	0.44941764
625.313	0.44876516
625.511	0.44812881
625.708	0.44736059
625.906	0.44672669
626.104	0.44607746
626.302	0.44540961
626.499	0.44475624
626.697	0.44386212
626.895	0.44294608
627.093	0.44217366
627.29	0.44147215
627.488	0.44071295
627.686	0.43996442
627.883	0.43909171
628.081	0.4382895
628.278	0.43788508
628.476	0.4372714
628.673	0.43670057
628.871	0.43620295
629.068	0.43553445
629.266	0.43502846
629.463	0.43435778
629.661	0.43350715
629.858	0.43270176
630.056	0.43180656
630.253	0.43090436
630.451	0.43007552
630.648	0.42909895
630.845	0.4283053
631.043	0.42746886
631.24	0.42678387
631.438	0.42610411
631.635	0.42533782
631.832	0.42451762
632.029	0.42396661
632.227	0.42320093
632.424	0.42243345
632.621	0.42156451
632.818	0.42071574
633.016	0.41996463
633.213	0.4192952
633.41	0.41848741
633.607	0.41772482
633.804	0.41699069
634.001	0.41621346
634.199	0.41544916
634.396	0.41467078
634.593	0.4137143
634.79	0.4129982
634.987	0.41223426
635.184	0.41143026
635.381	0.41079108
635.578	0.41006833
635.775	0.40925953
635.972	0.40864422
636.169	0.40778197
636.366	0.4070469
636.563	0.40622473
636.76	0.4052164
636.957	0.40439945
637.153	0.4035167
637.35	0.40277412
637.547	0.40201948
637.744	0.40117432
637.941	0.40045258
638.138	0.39982641
638.334	0.39903227
638.531	0.39832447
638.728	0.39755697
638.925	0.39688679
639.121	0.39620637
639.318	0.39539913
639.515	0.39447062
639.711	0.39368389
639.908	0.39274348
640.105	0.39179898
640.301	0.39077436
640.498	0.38984377
640.695	0.38904815
640.891	0.38832861
641.088	0.38752076
641.284	0.38679977
641.481	0.38601547
641.677	0.38521542
641.874	0.38431437
642.07	0.38345008
642.267	0.38260815
642.463	0.38175094
642.66	0.38106108
642.856	0.38028762
643.053	0.37950147
643.249	0.3787575
643.445	0.37798475
643.642	0.37710015
643.838	0.37629323
644.034	0.37534461
644.231	0.37436471
644.427	0.37348718
644.623	0.37268554
644.82	0.3718507
645.016	0.37102355
645.212	0.37012055
645.408	0.36931443
645.604	0.36869138
645.801	0.36790784
645.997	0.36696366
646.193	0.36614813
646.389	0.36546167
646.585	0.36477098
646.781	0.36400505
646.977	0.36319238
647.173	0.36238683
647.37	0.36168064
647.566	0.36083704
647.762	0.36003735
647.958	0.35920093
648.154	0.35825486
648.35	0.35732678
648.546	0.35638309
648.742	0.35565313
648.937	0.35475656
649.133	0.35384733
649.329	0.35293835
649.525	0.35207215
649.721	0.35116801
649.917	0.35048508
650.113	0.34941475
650.309	0.3486936
650.504	0.34778063
650.7	0.34687176
650.896	0.34606052
651.092	0.34523763
651.287	0.34431005
651.483	0.3435236
651.679	0.34257498
651.875	0.34186209
652.07	0.34116605
652.266	0.34034672
652.462	0.33959069
652.657	0.33880448
652.853	0.33801706
653.048	0.33721894
653.244	0.33626555
653.44	0.33542044
653.635	0.33449018
653.831	0.33368021
654.026	0.33291649
654.222	0.33203445
654.417	0.3312927
654.613	0.33042104
654.808	0.32940328
655.004	0.32860769
655.199	0.32760071
655.394	0.32661519
655.59	0.32576529
655.785	0.32472181
655.98	0.32393039
656.176	0.3231498
656.371	0.32251199
656.566	0.32183794
656.762	0.32102475
656.957	0.32030348
657.152	0.31967707
657.348	0.31891958
657.543	0.31821327
657.738	0.31727677
657.933	0.31636443
658.128	0.31551488
658.324	0.31459764
658.519	0.31372876
658.714	0.31287949
658.909	0.31191324
659.104	0.31106206
659.299	0.31020534
659.494	0.30935395
659.689	0.30849425
659.884	0.30751543
660.079	0.30650818
660.274	0.30560489
660.469	0.30467511
660.664	0.30384923
660.859	0.30298105
661.054	0.30218597
661.249	0.30139363
661.444	0.30062186
661.639	0.29975596
661.834	0.29887536
662.029	0.2980385
662.224	0.29726877
662.418	0.29643229
662.613	0.29561153
662.808	0.29475164
663.003	0.29399331
663.198	0.29313082
663.392	0.29217427
663.587	0.29136797
663.782	0.29039615
663.977	0.28944189
664.171	0.28864611
664.366	0.28776246
664.561	0.28700665
664.755	0.28627196
664.95	0.28544711
665.144	0.28471299
665.339	0.28412785
665.534	0.28342615
665.728	0.28282074
665.923	0.28208006
666.117	0.28125471
666.312	0.28035858
666.506	0.27956703
666.701	0.27859768
666.895	0.27769051
667.09	0.27671129
667.284	0.27595454
667.479	0.27516277
667.673	0.2744164
667.867	0.27363314
668.062	0.27289785
668.256	0.27219211
668.45	0.27166338
668.645	0.27084831
668.839	0.27010581
669.033	0.26932102
669.228	0.26856839
669.422	0.267837
669.616	0.2670488
669.81	0.26621581
670.004	0.26552596
670.199	0.2649267
670.393	0.26430679
670.587	0.26358766
670.781	0.26277487
670.975	0.26194981
671.169	0.26100471
671.363	0.26003322
671.558	0.25909012
671.752	0.25820639
671.946	0.25745757
672.14	0.25680884
672.334	0.25594018
672.528	0.2552469
672.722	0.25446516
672.916	0.2537395
673.11	0.25286928
673.304	0.2521051
673.497	0.25117027
673.691	0.25048844
673.885	0.24955353
674.079	0.24880858
674.273	0.24786053
674.467	0.24708779
674.661	0.24622365
674.854	0.24544886
675.048	0.24475991
675.242	0.24420322
675.436	0.24356614
675.629	0.24298741
675.823	0.2422475
676.017	0.24157893
676.211	0.24087601
676.404	0.24010014
676.598	0.23932551
676.792	0.23857176
676.985	0.2377875
677.179	0.23707084
677.372	0.23625097
677.566	0.23546129
677.76	0.23465706
677.953	0.233835
678.147	0.23308549
678.34	0.23240121
678.534	0.23172941
678.727	0.2310972
678.921	0.23056396
679.114	0.22999327
679.307	0.22941036
679.501	0.22877678
679.694	0.22814659
679.888	0.22746242
680.081	0.22681416
680.274	0.22600476
680.468	0.22531381
680.661	0.22456453
680.854	0.22391034
681.048	0.22315002
681.241	0.22236903
681.434	0.22154284
681.627	0.22071586
681.821	0.21978409
682.014	0.21898987
682.207	0.21804937
682.4	0.2172564
682.593	0.21653073
682.786	0.21580025
682.98	0.21513109
683.173	0.21460724
683.366	0.21400089
683.559	0.21347767
683.752	0.21289033
683.945	0.21234973
684.138	0.21183013
684.331	0.21118658
684.524	0.21050718
684.717	0.20977392
684.91	0.20910917
685.103	0.2083741
685.296	0.20751898
685.489	0.20665131
685.682	0.20595965
685.874	0.20518522
686.067	0.20442561
686.26	0.20369848
686.453	0.20304684
686.646	0.20249245
686.839	0.20203441
687.031	0.20150835
687.224	0.20105274
687.417	0.20075142
687.61	0.20023897
687.802	0.1997214
687.995	0.19919198
688.188	0.19861917
688.38	0.19803951
688.573	0.19749161
688.766	0.19690439
688.958	0.19630482
689.151	0.19572761
689.343	0.19519094
689.536	0.19452107
689.729	0.19385783
689.921	0.19319005
690.114	0.19247634
690.306	0.19190546
690.499	0.19135713
690.691	0.1907443
690.884	0.19015074
691.076	0.18956325
691.268	0.18884992
691.461	0.18813578
691.653	0.18747579
691.846	0.18685542
692.038	0.18625953
692.23	0.18561309
692.423	0.18503852
692.615	0.18452165
692.807	0.1840494
692.999	0.18347946
693.192	0.18280026
693.384	0.18218204
693.576	0.18168036
693.768	0.18121368
693.961	0.18072755
694.153	0.18026361
694.345	0.17984636
694.537	0.17950157
694.729	0.17919077
694.921	0.17876888
695.113	0.17821972
695.305	0.17764865
695.498	0.1769808
695.69	0.1763679
695.882	0.17566836
696.074	0.17491639
696.266	0.17424828
696.458	0.17363657
696.65	0.17313423
696.842	0.17269879
697.033	0.17221204
697.225	0.17170052
697.417	0.17127112
697.609	0.17078849
697.801	0.17028154
697.993	0.16967629
698.185	0.16904727
698.376	0.16841555
698.568	0.16789487
698.76	0.16730564
698.952	0.16681363
699.144	0.16637149
699.335	0.16602878
699.527	0.165658
699.719	0.16526286
699.91	0.16483236
700.102	0.16436251
700.294	0.16388442
700.485	0.16341786
700.677	0.16287926
700.869	0.16247955
701.06	0.16206679
701.252	0.16165154
701.443	0.16129399
701.635	0.16090857
701.826	0.16046231
702.018	0.16004997
702.209	0.15965825
702.401	0.15923631
702.592	0.15885606
702.784	0.15851335
702.975	0.15816744
703.166	0.15788777
703.358	0.15750865
703.549	0.15700899
703.741	0.15648494
703.932	0.15593842
704.123	0.15536204
704.315	0.15484024
704.506	0.15436501
704.697	0.15381368
704.888	0.15341729
705.08	0.15310868
705.271	0.15282166
705.462	0.15241103
705.653	0.15194059
705.844	0.15137278
706.035	0.15093237
706.227	0.15036972
706.418	0.14979673
706.609	0.14923199
706.8	0.14881829
706.991	0.14838719
707.182	0.14812737
707.373	0.14780798
707.564	0.14756239
707.755	0.14729599
707.946	0.14703107
708.137	0.1466991
708.328	0.14630137
708.519	0.14581517
708.71	0.14530157
708.901	0.14468853
709.092	0.14425313
709.283	0.14377774
709.473	0.14332558
709.664	0.14312495
709.855	0.14284813
710.046	0.14270092
710.237	0.1424799
710.427	0.14209395
710.618	0.14176167
710.809	0.14141941
711	0.14093883
711.19	0.1404452
711.381	0.13999816
711.572	0.13957993
711.762	0.13925167
711.953	0.1388777
712.144	0.13845284
712.334	0.13807199
712.525	0.13778985
712.715	0.1373933
712.906	0.13698157
713.097	0.13659252
713.287	0.13620317
713.478	0.13585311
713.668	0.13553771
713.859	0.13524577
714.049	0.1350559
714.239	0.13493355
714.43	0.13459235
714.62	0.13428374
714.811	0.13394122
715.001	0.13359181
715.191	0.13324515
715.382	0.13279924
715.572	0.13245698
715.762	0.13228628
715.953	0.13215346
716.143	0.1320897
716.333	0.13197989
716.523	0.13185493
716.714	0.13174235
716.904	0.1315616
717.094	0.13138082
717.284	0.13109107
717.474	0.13074096
717.664	0.13041307
717.855	0.13008152
718.045	0.12977777
718.235	0.12953242
718.425	0.12931427
718.615	0.12910075
718.805	0.12893329
718.995	0.12877778
719.185	0.12859838
719.375	0.12840418
719.565	0.12816614
719.755	0.12785266
719.945	0.1276043
720.135	0.12742402
720.325	0.12718954
720.515	0.12700403
720.704	0.12682802
720.894	0.1266353
721.084	0.12642066
721.274	0.12619348
721.464	0.12586469
721.654	0.12564654
721.843	0.12538712
722.033	0.12522211
722.223	0.12503595
722.413	0.12494521
722.602	0.12480237
722.792	0.12464298
722.982	0.12444609
723.171	0.12423244
723.361	0.1239494
723.55	0.12373895
723.74	0.1233869
723.93	0.1231389
724.119	0.12300866
724.309	0.12286648
724.498	0.12274289
724.688	0.12260583
724.877	0.12237622
725.067	0.12216712
725.256	0.12197079
725.446	0.12183978
725.635	0.12163746
725.825	0.12144616
726.014	0.12125328
726.203	0.12109676
726.393	0.12095972
726.582	0.12080726
726.771	0.12061292
726.961	0.12046731
727.15	0.12035645
727.339	0.12022152
727.529	0.12010563
727.718	0.11996636
727.907	0.11978255
728.096	0.11949867
728.286	0.11920945
728.475	0.11888604
728.664	0.11862844
728.853	0.11842292
729.042	0.11829677
729.231	0.11817296
729.42	0.11802514
729.609	0.11787138
729.799	0.11763084
729.988	0.1173951
730.177	0.11710956
730.366	0.11674078
730.555	0.11644833
730.744	0.11618749
730.933	0.11591041
731.122	0.11572359
731.31	0.11557359
731.499	0.11538133
731.688	0.11530864
731.877	0.11516935
732.066	0.11513181
732.255	0.11523779
732.444	0.11535051
732.632	0.11543761
732.821	0.11556223
733.01	0.11561372
733.199	0.11569488
733.388	0.11566407
733.576	0.11548272
733.765	0.11525998
733.954	0.11499324
734.142	0.11468512
734.331	0.11437112
734.52	0.11407369
734.708	0.11383142
734.897	0.11375281
735.086	0.1136872
735.274	0.11361736
735.463	0.1135869
735.651	0.11361821
735.84	0.11367125
736.028	0.11369277
736.217	0.1135755
736.405	0.11342996
736.594	0.11338274
736.782	0.11333445
736.971	0.11329076
737.159	0.11313187
737.347	0.11299817
737.536	0.1128073
737.724	0.11268524
737.912	0.11249275
738.101	0.11240558
738.289	0.11224181
738.477	0.11214735
738.666	0.11194766
738.854	0.11185207
739.042	0.11175806
739.23	0.11165699
739.418	0.11155023
739.607	0.11150338
739.795	0.11145625
739.983	0.1115147
740.171	0.11156534
740.359	0.11159236
740.547	0.11169513
740.735	0.11174803
740.923	0.11176
741.112	0.11179601
741.3	0.1118515
741.488	0.11194049
741.676	0.11199625
741.864	0.1120026
742.052	0.11198134
742.239	0.11190611
742.427	0.11173639
742.615	0.1114631
742.803	0.11125465
742.991	0.11107097
743.179	0.11088496
743.367	0.11077349
743.555	0.11069183
743.742	0.11074426
743.93	0.11094388
744.118	0.11101263
744.306	0.11110649
744.494	0.11119119
744.681	0.11121106
744.869	0.11125975
745.057	0.11120957
745.244	0.11110455
745.432	0.11100148
745.62	0.11089972
745.807	0.11087227
745.995	0.11089357
746.182	0.11099163
746.37	0.11108477
746.558	0.11114485
746.745	0.111259
746.933	0.11134915
747.12	0.11136232
747.308	0.11135052
747.495	0.11127381
747.683	0.11128047
747.87	0.11128652
748.057	0.11122963
748.245	0.1111708
748.432	0.11107078
748.62	0.11104967
748.807	0.11101654
748.994	0.11093858
749.182	0.11091769
749.369	0.11089951
749.556	0.1109003
749.743	0.11099271
749.931	0.11102776
750.118	0.11111308
750.305	0.1111904
750.492	0.11117363
750.68	0.11131495
750.867	0.1114965
751.054	0.11164192
751.241	0.11168502
751.428	0.11164228
751.615	0.11158156
751.802	0.11151112
751.989	0.11130361
752.176	0.1110656
752.363	0.11081816
752.55	0.11063618
752.737	0.11057891
752.924	0.11062152
753.111	0.11080509
753.298	0.1110766
753.485	0.11133428
753.672	0.11148747
753.859	0.11162064
754.046	0.1116843
754.233	0.1116913
754.42	0.1116342
754.606	0.11142655
754.793	0.11125159
754.98	0.1112622
755.167	0.11124895
755.353	0.11133519
755.54	0.11141323
755.727	0.11155286
755.914	0.11171381
756.1	0.11187065
756.287	0.1118743
756.474	0.11191092
756.66	0.11184384
756.847	0.11172591
757.033	0.11150248
757.22	0.11136986
757.407	0.11121082
757.593	0.11110609
757.78	0.11110663
757.966	0.1111731
758.153	0.11126119
758.339	0.11136625
758.526	0.1114444
758.712	0.11158955
758.898	0.1118125
759.085	0.11201599
759.271	0.11220002
759.458	0.11245166
759.644	0.11267271
759.83	0.11289015
760.017	0.11299671
760.203	0.11309625
760.389	0.11309539
760.576	0.11306406
760.762	0.11298205
760.948	0.11299496
761.134	0.11299309
761.32	0.11304342
761.507	0.11310694
761.693	0.11322557
761.879	0.11336216
762.065	0.11351276
762.251	0.11369228
762.437	0.1139511
762.623	0.1142224
762.809	0.11442764
762.995	0.1146141
763.181	0.11479474
763.367	0.11503294
763.553	0.11512633
763.739	0.11509468
763.925	0.11498867
764.111	0.11491209
764.297	0.11484677
764.483	0.11474813
764.669	0.11464208
764.855	0.11464979
765.041	0.11466716
765.227	0.11467287
765.412	0.11468131
765.598	0.1147823
765.784	0.1149474
765.97	0.11509208
766.156	0.11514133
766.341	0.11529739
766.527	0.11552304
766.713	0.11576876
766.898	0.11591276
767.084	0.11601
767.27	0.11601853
767.455	0.11603124
767.641	0.1160812
767.827	0.11605972
768.012	0.11604718
768.198	0.11606349
768.383	0.11609348
768.569	0.11618516
768.754	0.11636412
768.94	0.11648059
769.125	0.11671053
769.311	0.11694316
769.496	0.1171875
769.682	0.11743427
769.867	0.11769411
770.052	0.11790785
770.238	0.11800888
770.423	0.11806709
770.608	0.11810134
770.794	0.11809856
770.979	0.11811386
771.164	0.11819639
771.35	0.11818854
771.535	0.11832902
771.72	0.11845699
771.905	0.11871427
772.09	0.11887233
772.276	0.11899217
772.461	0.11902842
772.646	0.11916039
772.831	0.11928123
773.016	0.11940964
773.201	0.11945932
773.386	0.11961094
773.571	0.11981787
773.756	0.12000265
773.941	0.12021803
774.126	0.12046001
774.311	0.12072976
774.496	0.12089861
774.681	0.12107764
774.866	0.12129999
775.051	0.12154325
775.236	0.12174599
775.421	0.12185432
775.606	0.12196634
775.791	0.12202146
775.976	0.12214188
776.16	0.12214766
776.345	0.12214987
776.53	0.12218346
776.715	0.12226186
776.899	0.12229387
777.084	0.12238397
777.269	0.12239718
777.454	0.12244057
777.638	0.12253753
777.823	0.12267278
778.008	0.12280141
778.192	0.12299571
778.377	0.12309803
778.561	0.12318752
778.746	0.12327494
778.931	0.12327688
779.115	0.12326814
779.3	0.12315737
779.484	0.12312314
779.669	0.12317644
779.853	0.12327317
780.037	0.12339797
780.222	0.12353427
780.406	0.1235778
780.591	0.12371867
780.775	0.12376893
780.959	0.12383303
781.144	0.1238459
781.328	0.12385479
781.512	0.12393405
781.697	0.12414171
781.881	0.12434115
782.065	0.12454399
782.249	0.12466556
782.434	0.12480802
782.618	0.12487342
782.802	0.12492672
782.986	0.12486353
783.17	0.12481618
783.354	0.12475403
783.539	0.12480064
783.723	0.12483726
783.907	0.12490867
784.091	0.12496162
784.275	0.1249784
784.459	0.12498714
784.643	0.12499012
784.827	0.12497666
785.011	0.12492949
785.195	0.12493019
785.379	0.12492833
785.563	0.12502975
785.747	0.12507069
785.93	0.12507189
786.114	0.12498863
786.298	0.12482296
786.482	0.12464298
786.666	0.12447664
786.85	0.12436742
787.033	0.1243929
787.217	0.12436615
787.401	0.12447819
787.585	0.1247043
787.768	0.12497534
787.952	0.12524093
788.136	0.12545953
788.319	0.12567732
788.503	0.12599417
788.687	0.12623746
788.87	0.12644802
789.054	0.12657761
789.237	0.12671176
789.421	0.12679922
789.605	0.12686992
789.788	0.12684457
789.972	0.12676127
790.155	0.12677956
790.338	0.12685339
790.522	0.12691973
790.705	0.12699569
790.889	0.12704744
791.072	0.12722639
791.256	0.12747216
791.439	0.12771106
791.622	0.12798813
791.806	0.12827571
791.989	0.12854932
792.172	0.12873813
792.355	0.12879661
792.539	0.1288274
792.722	0.12879809
792.905	0.12870233
793.088	0.12867093
793.271	0.12864781
793.455	0.12868688
793.638	0.12881116
793.821	0.12896039
794.004	0.12911107
794.187	0.12938551
794.37	0.12963883
794.553	0.12984371
794.736	0.12992812
794.919	0.13003594
795.102	0.13010789
795.285	0.13022329
795.468	0.13024527
795.651	0.13027454
795.834	0.13039176
796.017	0.13059451
796.2	0.13079928
796.383	0.13104229
796.566	0.13126064
796.749	0.1314876
796.931	0.13161581
797.114	0.13177587
797.297	0.13194395
797.48	0.13204998
797.663	0.13213989
797.845	0.13222836
798.028	0.13234456
798.211	0.1324194
798.393	0.13255416
798.576	0.13261822
798.759	0.13271357
798.941	0.13292803
799.124	0.13313728
799.307	0.13325784
799.489	0.13348241
799.672	0.13351871
799.854	0.13362443
800.037	0.13370688
800.219	0.13370661
800.402	0.1337488
800.584	0.13380541
800.767	0.13391657
800.949	0.1341309
801.132	0.13436656
801.314	0.13459348
801.496	0.13489251
801.679	0.13516312
801.861	0.13539645
802.043	0.13554194
802.226	0.13562644
802.408	0.13555341
802.59	0.13560807
802.772	0.13546186
802.955	0.13549024
803.137	0.13551096
803.319	0.13544231
803.501	0.13534345
803.684	0.13535977
803.866	0.13534757
804.048	0.13546154
804.23	0.13554299
804.412	0.13573192
804.594	0.13593672
804.776	0.13624428
804.958	0.13661015
805.14	0.13684484
805.322	0.13703633
805.504	0.13704967
805.686	0.13701933
805.868	0.13702866
806.05	0.13713352
806.232	0.13713451
806.414	0.13718994
806.596	0.13726547
806.778	0.13729086
806.96	0.13733231
807.141	0.13740381
807.323	0.13724105
807.505	0.13719383
807.687	0.13713673
807.869	0.13704486
808.05	0.13693697
808.232	0.1367694
808.414	0.13655699
808.595	0.13655682
808.777	0.13650719
808.959	0.13652327
809.14	0.13650786
809.322	0.13661721
809.504	0.13687691
809.685	0.13717633
809.867	0.13738838
810.048	0.13752733
810.23	0.13756028
810.411	0.13771961
810.593	0.13787251
810.774	0.13784371
810.956	0.13780116
811.137	0.13769442
811.319	0.13766619
811.5	0.13772609
811.681	0.13771026
811.863	0.13768397
812.044	0.13778341
812.225	0.13796254
812.407	0.13809045
812.588	0.13817728
812.769	0.13822956
812.951	0.13831367
813.132	0.13839114
813.313	0.13844715
813.494	0.13841213
813.675	0.13858031
813.857	0.13875683
814.038	0.13900196
814.219	0.13925207
814.4	0.13952143
814.581	0.13978283
814.762	0.14002633
814.943	0.14013639
815.124	0.14022482
815.305	0.14023623
815.486	0.14028493
815.667	0.14028486
815.848	0.14026521
816.029	0.14028792
816.21	0.14039679
816.391	0.14044928
816.572	0.14051066
816.753	0.14054402
816.934	0.140556
817.115	0.14050209
817.295	0.14049035
817.476	0.14035567
817.657	0.14037304
817.838	0.14042978
818.019	0.14036344
818.199	0.14029686
818.38	0.14037004
818.561	0.14038717
818.741	0.14045399
818.922	0.14047199
819.103	0.14052378
819.283	0.14071434
819.464	0.14095898
819.645	0.14113156
819.825	0.14133361
820.006	0.14147832
820.186	0.14162706
820.367	0.14175095
820.547	0.14177159
820.728	0.14180476
820.908	0.141871
821.089	0.14199544
821.269	0.14220127
821.45	0.14249347
821.63	0.14266636
821.81	0.14297361
821.991	0.14322314
822.171	0.14342413
822.351	0.14354297
822.532	0.14366184
822.712	0.14371249
822.892	0.14386301
823.072	0.14388935
823.253	0.14396714
823.433	0.14400807
823.613	0.14414952
823.793	0.14424328
823.973	0.14432934
824.154	0.14435441
824.334	0.1443935
824.514	0.14438214
824.694	0.14440805
824.874	0.14443839
825.054	0.14448493
825.234	0.1445286
825.414	0.14457227
825.594	0.14464674
825.774	0.14471107
825.954	0.14478666
826.134	0.14482077
826.314	0.14487519
826.494	0.14491926
826.674	0.14495678
826.854	0.14490904
827.033	0.1449622
827.213	0.14497339
827.393	0.1449302
827.573	0.14494057
827.753	0.14498884
827.932	0.14512342
828.112	0.14530884
828.292	0.14539193
828.472	0.14540024
828.651	0.14540438
828.831	0.14536897
829.011	0.14534596
829.19	0.14527741
829.37	0.14541601
829.549	0.1456135
829.729	0.14589008
829.909	0.14621603
830.088	0.14650536
830.268	0.14674153
830.447	0.14694771
830.627	0.14700602
830.806	0.1469997
830.986	0.14699991
831.165	0.14702923
831.344	0.14702763
831.524	0.14703008
831.703	0.147051
831.883	0.14702945
832.062	0.14707534
832.241	0.14714089
832.421	0.14715789
832.6	0.14719046
832.779	0.14728163
832.958	0.14748125
833.138	0.14776762
833.317	0.14804192
833.496	0.14823527
833.675	0.14845538
833.854	0.14869396
834.034	0.14880626
834.213	0.14878558
834.392	0.14866627
834.571	0.14843572
834.75	0.1482861
834.929	0.14816171
835.108	0.14800657
835.287	0.14805591
835.466	0.14810489
835.645	0.14822514
835.824	0.14835574
836.003	0.14850833
836.182	0.148506
836.361	0.14844272
836.54	0.14828124
836.719	0.1482339
836.897	0.1481001
837.076	0.14811438
837.255	0.14810665
837.434	0.14819297
837.613	0.14831593
837.791	0.14844323
837.97	0.14857354
838.149	0.14866833
838.328	0.14863196
838.506	0.14857838
838.685	0.1485846
838.864	0.14865332
839.042	0.14866254
839.221	0.14865073
839.4	0.14869103
839.578	0.14882579
839.757	0.14905101
839.935	0.14926513
840.114	0.14940615
840.292	0.14966268
840.471	0.14982761
840.649	0.15000868
840.828	0.15011948
841.006	0.15010055
841.185	0.15000325
841.363	0.15001231
841.541	0.14984154
841.72	0.14974648
841.898	0.14956185
842.076	0.14942749
842.255	0.1493496
842.433	0.1494306
842.611	0.14943569
842.789	0.1495159
842.968	0.14953701
843.146	0.14966123
843.324	0.14970682
843.502	0.14975726
843.68	0.14966214
843.859	0.14956014
844.037	0.14939132
844.215	0.14911125
844.393	0.14887061
844.571	0.14877302
844.749	0.14863325
844.927	0.14865552
845.105	0.14856217
845.283	0.14869501
845.461	0.14895882
845.639	0.1492067
845.817	0.14937557
845.995	0.14963269
846.173	0.14967791
846.351	0.14981659
846.529	0.14977931
846.706	0.14970581
846.884	0.14963442
847.062	0.14944752
847.24	0.14926517
847.418	0.1490853
847.595	0.14904347
847.773	0.14901604
847.951	0.14903095
848.129	0.14908036
848.306	0.14923351
848.484	0.14931582
848.662	0.14951013
848.839	0.14965688
849.017	0.14986203
849.194	0.15007076
849.372	0.15017522
849.549	0.15025264
849.727	0.15034316
849.905	0.15038067
850.082	0.15047112
850.26	0.15051572
850.437	0.15062258
850.614	0.15072818
850.792	0.15086068
850.969	0.15093934
851.147	0.15114505
851.324	0.15105883
851.501	0.15103148
851.679	0.15081066
851.856	0.15067975
852.033	0.15046504
852.211	0.15037065
852.388	0.15016004
852.565	0.1503162
852.742	0.15039906
852.92	0.1505859
853.097	0.15087895
853.274	0.15118659
853.451	0.15123138
853.628	0.15127355
853.805	0.1512085
853.982	0.15106619
854.159	0.15084371
854.336	0.15053756
854.514	0.15037294
854.691	0.15034661
854.868	0.15029387
855.045	0.15013136
855.221	0.15001654
855.398	0.15000685
855.575	0.14988931
855.752	0.14967288
855.929	0.14956866
856.106	0.14943587
856.283	0.14945003
856.46	0.14948723
856.637	0.14963397
856.813	0.14975433
856.99	0.14994047
857.167	0.14999935
857.344	0.15015923
857.52	0.15026717
857.697	0.15021754
857.874	0.15002591
858.05	0.14991414
858.227	0.14983024
858.404	0.14978199
858.58	0.1497144
858.757	0.14947456
858.933	0.14944691
859.11	0.14932605
859.287	0.14911599
859.463	0.14888853
859.64	0.14877081
859.816	0.148647
859.993	0.14865646
860.169	0.1486063
860.345	0.14856296
860.522	0.14849924
860.698	0.14838361
860.875	0.14816157
861.051	0.14795119
861.227	0.14784674
861.404	0.14782841
861.58	0.14788995
861.756	0.14818206
861.932	0.14854892
862.109	0.14888436
862.285	0.1491598
862.461	0.14938775
862.637	0.14948903
862.813	0.14959143
862.99	0.14942801
863.166	0.14914494
863.342	0.14889964
863.518	0.14874903
863.694	0.14855852
863.87	0.14836166
864.046	0.14823967
864.222	0.14823329
864.398	0.14821468
864.574	0.14817564
864.75	0.14810782
864.926	0.14804691
865.102	0.14809587
865.278	0.14799187
865.454	0.1480161
865.63	0.14805156
865.805	0.14813946
865.981	0.14820597
866.157	0.14822388
866.333	0.14824896
866.509	0.14840383
866.684	0.14845029
866.86	0.14852539
867.036	0.1484788
867.212	0.14842701
867.387	0.14835029
867.563	0.14831808
867.739	0.14816782
867.914	0.14814013
868.09	0.14796953
868.265	0.14790058
868.441	0.14779341
868.617	0.147797
868.792	0.1475774
868.968	0.14745067
869.143	0.14736274
869.319	0.14740008
869.494	0.14749324
869.67	0.14760615
869.845	0.14759074
870.02	0.14779514
870.196	0.1480133
870.371	0.14805757
870.546	0.14806977
870.722	0.1481617
870.897	0.14817209
871.072	0.14819305
871.248	0.14796553
871.423	0.14776115
871.598	0.14739017
871.773	0.14711956
871.949	0.14669267
872.124	0.14649759
872.299	0.14634485
872.474	0.14622579
872.649	0.14590039
872.824	0.14587249
872.999	0.14574193
873.174	0.14573132
873.349	0.14555342
873.524	0.14525306
873.699	0.14510028
873.874	0.14512824
874.049	0.14502681
874.224	0.14499973
874.399	0.14487483
874.574	0.14480156
874.749	0.14483474
874.924	0.14476431
875.099	0.14471784
875.274	0.14471512
875.449	0.1447309
875.623	0.14454409
875.798	0.14438839
875.973	0.14415562
876.148	0.14397795
876.322	0.14371531
876.497	0.14355307
876.672	0.14325365
876.846	0.14321802
877.021	0.14314345
877.196	0.14307703
877.37	0.14317724
877.545	0.14339025
877.72	0.14348667
877.894	0.14362386
878.069	0.14349593
878.243	0.14337315
878.418	0.14336277
878.592	0.1431588
878.767	0.14295793
878.941	0.14270754
879.116	0.14248488
879.29	0.14250722
879.464	0.14272622
879.639	0.14278012
879.813	0.14302683
879.987	0.14308477
880.162	0.14301623
880.336	0.14306018
880.51	0.14297241
880.685	0.14250539
880.859	0.14230125
881.033	0.14192579
881.207	0.14165911
881.381	0.14151453
881.556	0.14132009
881.73	0.14120695
881.904	0.14129436
882.078	0.14112176
882.252	0.14095863
882.426	0.1409782
882.6	0.14100935
882.774	0.14106803
882.948	0.14124787
883.122	0.14119032
883.296	0.14119885
883.47	0.1412056
883.644	0.14098554
883.818	0.14071592
883.992	0.14043044
884.166	0.13999294
884.34	0.13984069
884.514	0.13982861
884.687	0.13976069
884.861	0.13969256
885.035	0.13975444
885.209	0.13996709
885.382	0.14025948
885.556	0.14038839
885.73	0.14043215
885.904	0.14046453
886.077	0.14049205
886.251	0.14041842
886.425	0.14024114
886.598	0.14003776
886.772	0.13990292
886.945	0.13970674
887.119	0.13965314
887.292	0.13969002
887.466	0.13975564
887.64	0.13971583
887.813	0.13970888
887.986	0.13952303
888.16	0.13955657
888.333	0.13950551
888.507	0.13951808
888.68	0.13951628
888.854	0.13955535
889.027	0.13940381
889.2	0.13949854
889.374	0.1394061
889.547	0.13934047
889.72	0.13917142
889.893	0.1389639
890.067	0.13872458
890.24	0.13861254
890.413	0.13838807
890.586	0.13816428
890.759	0.13810314
890.933	0.13798431
891.106	0.13789304
891.279	0.1378533
891.452	0.1377574
891.625	0.13774876
891.798	0.13765039
891.971	0.13742107
892.144	0.13723868
892.317	0.13701304
892.49	0.13672817
892.663	0.13654003
892.836	0.13625588
893.009	0.13607985
893.182	0.13578065
893.355	0.13547295
893.527	0.13525922
893.7	0.13529011
893.873	0.13527855
894.046	0.13519235
894.219	0.13510617
894.391	0.13514299
894.564	0.13523149
894.737	0.13522525
894.91	0.13504167
895.082	0.13470081
895.255	0.13447997
895.428	0.13419187
895.6	0.13398008
895.773	0.13366752
895.945	0.13341524
896.118	0.13320801
896.291	0.13312343
896.463	0.13292774
896.636	0.13295302
896.808	0.13292652
896.981	0.13293727
897.153	0.13289484
897.326	0.13285997
897.498	0.1328135
897.67	0.13294728
897.843	0.13300046
898.015	0.13279165
898.187	0.13255401
898.36	0.13236109
898.532	0.13203672
898.704	0.13191398
898.877	0.13169364
899.049	0.13158025
899.221	0.13162582
899.393	0.13172132
899.566	0.13180837
899.738	0.13201979
899.91	0.13202352
900.082	0.13206727
900.254	0.13199873
900.426	0.13197749
900.598	0.13187305
900.77	0.13175577
900.942	0.13149159
901.114	0.13125468
901.286	0.13093208
901.458	0.13068921
901.63	0.13043961
901.802	0.13029581
901.974	0.13016716
902.146	0.1300626
902.318	0.13005287
902.49	0.13003352
902.662	0.12976671
902.834	0.12947391
903.005	0.12924472
903.177	0.12896541
903.349	0.12869525
903.521	0.12842734
903.693	0.12824961
903.864	0.1282714
904.036	0.12832863
904.208	0.1282406
904.379	0.12830635
904.551	0.12842847
904.723	0.12833747
904.894	0.12825458
905.066	0.12803061
905.237	0.12778085
905.409	0.12749936
905.58	0.1271929
905.752	0.12690425
905.923	0.12669292
906.095	0.12645107
906.266	0.12635635
906.438	0.12626608
906.609	0.12642304
906.78	0.12628872
906.952	0.12622918
907.123	0.12612036
907.295	0.12601803
907.466	0.12583379
907.637	0.12562191
907.808	0.12512845
907.98	0.12483216
908.151	0.12438151
908.322	0.12409584
908.493	0.12378501
908.665	0.12348863
908.836	0.12320488
909.007	0.12313308
909.178	0.1230519
909.349	0.12306804
909.52	0.12305036
909.691	0.1230066
909.862	0.12293937
910.033	0.12305944
910.204	0.12301098
910.375	0.12310427
910.546	0.12318349
910.717	0.12317449
910.888	0.12335901
911.059	0.12351405
911.23	0.12346916
911.401	0.12348235
911.572	0.12349888
911.742	0.12349602
911.913	0.12369208
912.084	0.12358063
912.255	0.12345586
912.426	0.12333237
912.596	0.1232105
912.767	0.12308299
912.938	0.12288014
913.108	0.12251494
913.279	0.12225966
913.45	0.12208953
913.62	0.12206022
913.791	0.12193759
913.962	0.12177219
914.132	0.12165318
914.303	0.1215451
914.473	0.12150128
914.644	0.12135183
914.814	0.12104626
914.985	0.12082195
915.155	0.12048494
915.326	0.12017048
915.496	0.11995015
915.666	0.11959602
915.837	0.11948846
916.007	0.11931219
916.177	0.11913681
916.348	0.1190169
916.518	0.11885492
916.688	0.11859582
916.858	0.11853207
917.029	0.1181693
917.199	0.11792146
917.369	0.11772211
917.539	0.11769921
917.709	0.11764577
917.88	0.11754583
918.05	0.1172558
918.22	0.11722595
918.39	0.11721088
918.56	0.11716529
918.73	0.11708022
918.9	0.11711876
919.07	0.11718764
919.24	0.1173866
919.41	0.11734764
919.58	0.11731686
919.75	0.11735995
919.92	0.11719171
920.09	0.11691733
920.26	0.11666018
920.429	0.11641159
920.599	0.11622736
920.769	0.11619033
920.939	0.1160146
921.109	0.11588987
921.278	0.11579221
921.448	0.1156513
921.618	0.11543831
921.787	0.11524191
921.957	0.11495735
922.127	0.1146673
922.296	0.11453996
922.466	0.1143058
922.636	0.11411343
922.805	0.11389081
922.975	0.11358254
923.144	0.11317268
923.314	0.11285967
923.483	0.11237286
923.653	0.1119847
923.822	0.11157576
923.992	0.11133744
924.161	0.11127316
924.331	0.11112118
924.5	0.11098834
924.669	0.1109063
924.839	0.11076468
925.008	0.11076859
925.177	0.11068671
925.347	0.11055735
925.516	0.11064424
925.685	0.11065261
925.854	0.11062999
926.023	0.11075141
926.193	0.11082853
926.362	0.11086237
926.531	0.11088724
926.7	0.11071839
926.869	0.11062763
927.038	0.11033691
927.207	0.11000968
927.376	0.10970289
927.545	0.10952404
927.715	0.10926845
927.884	0.10901128
928.052	0.108706
928.221	0.1085325
928.39	0.108409
928.559	0.10820925
928.728	0.10793907
928.897	0.10779343
929.066	0.10764257
929.235	0.10753757
929.404	0.10741998
929.572	0.10723123
929.741	0.10692545
929.91	0.10657258
930.079	0.1062218
930.247	0.10602511
930.416	0.10570279
930.585	0.10549305
930.753	0.1053221
930.922	0.10527886
931.091	0.10539857
931.259	0.10536953
931.428	0.10542718
931.596	0.10557641
931.765	0.10585216
931.934	0.10602162
932.102	0.10602183
932.27	0.10602353
932.439	0.10602872
932.607	0.1058367
932.776	0.10580114
932.944	0.10559654
933.113	0.10549228
933.281	0.10553848
933.449	0.10534571
933.618	0.10534136
933.786	0.10541093
933.954	0.10544175
934.123	0.10522115
934.291	0.10516838
934.459	0.10510026
934.627	0.105104
934.795	0.10488984
934.964	0.10469868
935.132	0.10441426
935.3	0.10432774
935.468	0.10402736
935.636	0.10374256
935.804	0.10350964
935.972	0.10354029
936.14	0.10350496
936.308	0.10352577
936.476	0.1038023
936.644	0.10395674
936.812	0.10422735
936.98	0.10446448
937.148	0.10457133
937.316	0.1046128
937.484	0.10470016
937.652	0.1045536
937.82	0.10468855
937.987	0.10457673
938.155	0.10447437
938.323	0.10450206
938.491	0.10465628
938.658	0.10469627
938.826	0.10461798
938.994	0.10465978
939.162	0.10476276
939.329	0.10492725
939.497	0.10517644
939.665	0.10525609
939.832	0.105295
940	0.10519168
940.167	0.10528644
940.335	0.1049141
940.502	0.10450872
940.67	0.10440656
940.837	0.10445289
941.005	0.10438593
941.172	0.10532631
941.34	0.1051029
941.507	0.10605094
941.674	0.10662038
941.842	0.1068436
942.009	0.10771951
942.177	0.10705152
942.344	0.10704005
942.511	0.107366
942.678	0.10769396
942.846	0.10756395
943.013	0.10750948
943.18	0.10645833
943.347	0.10764487
943.514	0.10699207
943.682	0.10714289
943.849	0.10614873
944.016	0.10562457
944.183	0.10561856
944.35	0.10600342
944.517	0.10599874
944.684	0.10586107
944.851	0.10372261
945.018	0.103825
945.185	0.10367103
945.352	0.10279597
945.519	0.10236151
945.686	0.10138637
945.853	0.10184807
946.02	0.10287199
946.187	0.10195422
946.353	0.10277682
946.52	0.10228549
946.687	0.10123539
946.854	0.10093874
947.021	0.10019556
947.187	0.09943273
947.354	0.09902206
947.521	0.09790495
947.687	0.09800853
947.854	0.09842483
948.021	0.09774844
948.187	0.09709694
948.354	0.09732779
948.52	0.09723137
948.687	0.09763825
948.854	0.09756747
949.02	0.09680928
949.187	0.09695856
949.353	0.09666321
949.52	0.09600552
949.686	0.09546065
949.852	0.09510408
950.019	0.09434672
950.185	0.09397353
950.352	0.09371009
950.518	0.09333979
950.684	0.09336834
950.851	0.09345922
951.017	0.09291552
951.183	0.09311679
951.349	0.09264412
951.516	0.09169085
951.682	0.09149376
951.848	0.0906373
952.014	0.08986162
952.18	0.08900319
952.346	0.08858436
952.512	0.08828874
952.679	0.08856679
952.845	0.08854656
953.011	0.08863355
953.177	0.08841566
953.343	0.08809641
953.509	0.0875422
953.675	0.08774001
953.841	0.08765258
954.007	0.08737997
954.172	0.08737073
954.338	0.08728297
954.504	0.0868408
954.67	0.0863221
954.836	0.08567574
955.002	0.08495257
955.167	0.08410487
955.333	0.08342376
955.499	0.0833494
955.665	0.08303553
955.83	0.08271791
955.996	0.08233214
956.162	0.08195187
956.327	0.08179297
956.493	0.08125328
956.659	0.08094336
956.824	0.08086732
956.99	0.0805169
957.155	0.08022186
957.321	0.07986792
957.486	0.07961255
957.652	0.07950953
957.817	0.07918137
957.983	0.0788452
958.148	0.07867783
958.314	0.07820776
958.479	0.07801972
958.644	0.07787142
958.81	0.07804624
958.975	0.0777136
959.14	0.07759716
959.306	0.07753485
959.471	0.07787692
959.636	0.07797022
959.801	0.07818548
959.967	0.07789698
960.132	0.07790433
960.297	0.07795879
960.462	0.07825119
960.627	0.07810951
960.792	0.07750482
960.957	0.07724563
961.123	0.07705626
961.288	0.07675282
961.453	0.07652364
961.618	0.07613492
961.783	0.07618222
961.948	0.07665005
962.113	0.07615263
962.277	0.07611624
962.442	0.07609443
962.607	0.07593567
962.772	0.07585488
962.937	0.07519066
963.102	0.07473878
963.267	0.07459869
963.431	0.07447881
963.596	0.07439014
963.761	0.07448193
963.926	0.07445491
964.09	0.07447187
964.255	0.07441557
964.42	0.07444816
964.584	0.07433643
964.749	0.07436281
964.914	0.07400132
965.078	0.07347625
965.243	0.0735361
965.407	0.07351569
965.572	0.07373136
965.736	0.07363058
965.901	0.07359322
966.065	0.07397237
966.23	0.07408817
966.394	0.07413369
966.559	0.07398067
966.723	0.0738858
966.887	0.07378082
967.052	0.0737298
967.216	0.07317606
967.38	0.07262459
967.545	0.07255416
967.709	0.07284211
967.873	0.07269978
968.037	0.07280386
968.202	0.07277306
968.366	0.07305978
968.53	0.07361095
968.694	0.07345458
968.858	0.07315851
969.022	0.07279005
969.187	0.07266132
969.351	0.07237506
969.515	0.07212563
969.679	0.07188285
969.843	0.0719281
970.007	0.07163317
970.171	0.07169594
970.335	0.07121913
970.499	0.07076541
970.662	0.07063529
970.826	0.07053237
970.99	0.07026561
971.154	0.07041373
971.318	0.07022357
971.482	0.07026564
971.645	0.07034429
971.809	0.07005373
971.973	0.06958749
972.137	0.06932707
972.3	0.06898967
972.464	0.06905577
972.628	0.06911865
972.791	0.06922837
972.955	0.06924689
973.119	0.06935014
973.282	0.06903023
973.446	0.06858682
973.609	0.06852147
973.773	0.06806659
973.936	0.06763543
974.1	0.06730039
974.263	0.06707022
974.427	0.06727996
974.59	0.06732431
974.754	0.06666023
974.917	0.06659216
975.08	0.0663824
975.244	0.06610298
975.407	0.06601244
975.57	0.06533788
975.734	0.06509162
975.897	0.06476752
976.06	0.06434191
976.223	0.06401459
976.387	0.06379024
976.55	0.06338158
976.713	0.0635002
976.876	0.06362603
977.039	0.06376575
977.202	0.06364072
977.365	0.06369338
977.528	0.06383222
977.692	0.06379393
977.855	0.06347548
978.018	0.06318701
978.181	0.06296873
978.344	0.06295124
978.506	0.06308968
978.669	0.06314666
978.832	0.0630748
978.995	0.06315422
979.158	0.06303443
979.321	0.06312909
979.484	0.06335827
979.646	0.06334643
979.809	0.06332739
979.972	0.06334305
980.135	0.06364847
980.297	0.0638105
980.46	0.06383125
980.623	0.06363794
980.786	0.06344361
980.948	0.06329287
981.111	0.06340506
981.273	0.06305637
981.436	0.06264971
981.599	0.06249889
981.761	0.06233613
981.924	0.06252884
982.086	0.06210611
982.249	0.06207147
982.411	0.0616669
982.573	0.06153753
982.736	0.06145362
982.898	0.06134728
983.061	0.06088059
983.223	0.06086524
983.385	0.06075521
983.548	0.06111795
983.71	0.06134741
983.872	0.06147337
984.034	0.06136402
984.197	0.06113506
984.359	0.06128115
984.521	0.06093322
984.683	0.06063202
984.845	0.06057348
985.008	0.06022256
985.17	0.06021382
985.332	0.06023071
985.494	0.05993105
985.656	0.05971392
985.818	0.059493
985.98	0.0590478
986.142	0.05868004
986.304	0.05827225
986.466	0.05807419
986.628	0.05776082
986.79	0.05796453
986.952	0.05790815
987.113	0.05785737
987.275	0.05802648
987.437	0.05816652
987.599	0.05799923
987.761	0.05810576
987.922	0.05761326
988.084	0.05777023
988.246	0.05790942
988.408	0.05739863
988.569	0.0572337
988.731	0.05732676
988.893	0.05696345
989.054	0.05711863
989.216	0.05685948
989.377	0.05687281
989.539	0.05700059
989.701	0.05689427
989.862	0.05657689
990.024	0.05651626
990.185	0.05641583
990.347	0.05610042
990.508	0.05568536
990.669	0.05557424
990.831	0.05540521
990.992	0.05574265
991.154	0.05601355
991.315	0.05617031
991.476	0.05615482
991.638	0.05637897
991.799	0.05647355
991.96	0.05666042
992.121	0.05665833
992.283	0.0568259
992.444	0.05624706
992.605	0.0561842
992.766	0.05589601
992.927	0.05555423
993.088	0.05557234
993.249	0.05511228
993.41	0.0544866
993.572	0.05442993
993.733	0.05434023
993.894	0.05398651
994.055	0.05352249
994.216	0.05313611
994.376	0.05272389
994.537	0.05273952
994.698	0.0526268
994.859	0.05242246
995.02	0.05261187
995.181	0.05274899
995.342	0.05255221
995.503	0.05219478
995.663	0.05166662
995.824	0.05134924
995.985	0.05152658
996.146	0.05110408
996.306	0.05120207
996.467	0.05125153
996.628	0.05184138
996.788	0.05227422
996.949	0.05247264
997.11	0.05241132
997.27	0.05215714
997.431	0.05193028
997.591	0.05157252
997.752	0.05114546
997.912	0.05106953
998.073	0.05133054
998.233	0.05082758
998.394	0.05112524
998.554	0.05158143
998.714	0.05157294
998.875	0.0508706
999.035	0.05059763
999.196	0.0502855
999.356	0.05064447
999.516	0.05024538
999.676	0.05004085
999.837	0.04966969
999.997	0.05025072
1000.157	0.04991507
1000.317	0.04923568
1000.477	0.04889375
1000.638	0.04898626
1000.798	0.04851608
1000.958	0.04914136
1001.118	0.04931104
1001.278	0.04931008
1001.438	0.04950107
1001.598	0.04983189
1001.758	0.0496603
1001.918	0.049454
1002.078	0.04872962
1002.238	0.04861862
1002.398	0.04873441
1002.558	0.04942507
1002.718	0.04922545
1002.878	0.04926298
1003.037	0.04886849
1003.197	0.04937408
1003.357	0.04902485
1003.517	0.04942708
1003.677	0.0487777
1003.836	0.04814786
1003.996	0.04802123
1004.156	0.04853934
1004.315	0.04799947
1004.475	0.04772842
1004.635	0.04749707
1004.794	0.04725132
1004.954	0.0472905
1005.114	0.04704429
1005.273	0.04742525
1005.433	0.04747748
1005.592	0.04768042
1005.752	0.04729061
1005.911	0.04717469
1006.071	0.04728963
1006.23	0.0473286
1006.389	0.046809
1006.549	0.04676441
1006.708	0.04641114
1006.868	0.04631749
1007.027	0.0470217
1007.186	0.04651092
1007.345	0.04676052
1007.505	0.04693516
1007.664	0.04708031
1007.823	0.04740782
1007.982	0.04737122
1008.142	0.04656769
1008.301	0.04696126
1008.46	0.04669188
1008.619	0.04586565
1008.778	0.04620931
1008.937	0.0464761
1009.096	0.04618264
1009.255	0.04634601
1009.414	0.04566407
1009.573	0.0453228
1009.732	0.04594741
1009.891	0.04531797
1010.05	0.04594146
1010.209	0.04646177
1010.368	0.04670338
1010.527	0.04826593
1010.686	0.04897969
1010.845	0.04965549
1011.003	0.0498999
1011.162	0.04929602
1011.321	0.04971501
1011.48	0.05035081
1011.638	0.0507335
1011.797	0.0506072
1011.956	0.04947848
1012.115	0.04939022
1012.273	0.04923887
1012.432	0.04879128
1012.59	0.04829543
1012.749	0.04741022
1012.908	0.04701105
1013.066	0.04707541
1013.225	0.04745206
1013.383	0.04683668
1013.542	0.04714411
1013.7	0.04674593
1013.859	0.04688711
1014.017	0.04772054
1014.175	0.04753889
1014.334	0.04735648
1014.492	0.04787125
1014.65	0.04739869
1014.809	0.04685574
1014.967	0.04616072
1015.125	0.0453994
1015.284	0.04606808
1015.442	0.04552522
1015.6	0.04548938
1015.758	0.04548641
1015.916	0.04657018
1016.075	0.04630294
1016.233	0.04653348
1016.391	0.04626713
1016.549	0.04629366
1016.707	0.04584144
1016.865	0.04550754
1017.023	0.04494177
1017.181	0.04576351
1017.339	0.04553406
1017.497	0.04561758
1017.655	0.04576938
1017.813	0.04735773
1017.971	0.04699496
1018.129	0.04724466
1018.286	0.04650294
1018.444	0.04650001
1018.602	0.04649164
1018.76	0.04709512
1018.918	0.04646347
1019.075	0.04650921
1019.233	0.04653264
1019.391	0.04640154
1019.549	0.04699538
1019.706	0.04772023
1019.864	0.04754152
1020.022	0.04745353
1020.179	0.04876622
1020.337	0.04919501
1020.494	0.04971217
1020.652	0.04863828
1020.809	0.04848158
1020.967	0.04818979
1021.124	0.04878943
1021.282	0.0492801
1021.439	0.04942848
1021.597	0.05000415
1021.754	0.05067614
1021.911	0.05164108
1022.069	0.05061759
1022.226	0.04839004
1022.384	0.04703181
1022.541	0.04601457
1022.698	0.04593038
1022.855	0.04650136
1023.013	0.04559053
1023.17	0.0458392
1023.327	0.04840052
1023.484	0.04926451
1023.641	0.05022038
1023.798	0.04982534
1023.956	0.05010473
1024.113	0.05009389
1024.27	0.05102754
1024.427	0.05107503
1024.584	0.05083396
1024.741	0.05097836
1024.898	0.05063456
1025.055	0.04982385
1025.212	0.04994907
1025.369	0.049309
1025.525	0.0481495
1025.682	0.04932501
1025.839	0.04959453
1025.996	0.05138458
1026.153	0.05285485
1026.31	0.05388076
1026.466	0.05581185
1026.623	0.0563902
1026.78	0.05547957
1026.937	0.05604834
1027.093	0.05496004
1027.25	0.053816
1027.407	0.05469383
1027.563	0.0540953
1027.72	0.05264177
1027.876	0.05172104
1028.033	0.05056508
1028.19	0.05075547
1028.346	0.04956645
1028.503	0.04788454
1028.659	0.04701323
1028.816	0.04778562
1028.972	0.04822014
1029.128	0.04877239
1029.285	0.04792207
1029.441	0.05038771
1029.598	0.05140255
1029.754	0.0527484
1029.91	0.05317143
1030.067	0.05375582
1030.223	0.05458616
1030.379	0.05434928
1030.535	0.05461842
1030.691	0.05396264
1030.848	0.05449852
1031.004	0.05403517
1031.16	0.0545959
1031.316	0.05641034
1031.472	0.05963095
1031.628	0.05906134
1031.784	0.05999809
1031.94	0.06021502
1032.096	0.06137835
1032.252	0.06307643
1032.408	0.06160035
1032.564	0.05898273
1032.72	0.06102229
1032.876	0.0587582
1033.032	0.05912895
1033.188	0.05948021
1033.344	0.05599607
1033.5	0.0533203
1033.655	0.05419397
1033.811	0.05143258
1033.967	0.05275846
