Data from 1_mm_pl_60pc_Absorbance__0__17-23-10-141.txt Node

Date: Wed Mar 08 17:23:10 CET 2023
User: Ange
Spectrometer: FLMT08341
Trigger mode: 0
Integration Time (sec): 1.000000E-2
Scans to average: 400
Electric dark correction enabled: true
Nonlinearity correction enabled: false
Boxcar width: 3
XAxis mode: Wavelengths
Number of Pixels in Spectrum: 3648
>>>>>Begin Spectral Data<<<<<
345.271	0.0444873
345.487	0.04662297
345.704	0.02402444
345.921	0.02574023
346.137	0.03243167
346.354	0.0182722
346.571	0.02655617
346.787	-0.01341672
347.004	0.11808422
347.22	-0.03621516
347.437	0.02620687
347.653	0.05086719
347.87	0.01091761
348.086	0.05041358
348.303	-0.07564639
348.519	0.26845006
348.736	0.23961634
348.952	0.23317008
349.169	0.23381862
349.385	0.2460245
349.601	0.24195218
349.818	0.23967895
350.034	0.23467176
350.251	0.23269526
350.467	0.23515886
350.683	0.22866435
350.9	0.22667671
351.116	0.22529252
351.332	0.2248641
351.549	0.23215929
351.765	0.23877279
351.981	0.24251049
352.197	0.25377331
352.414	0.26166132
352.63	0.26667183
352.846	0.27346042
353.062	0.2694897
353.278	0.26702798
353.495	0.27264177
353.711	0.27053472
353.927	0.27120601
354.143	0.27324252
354.359	0.27110982
354.575	0.26989812
354.792	0.27391632
355.008	0.27010076
355.224	0.26787588
355.44	0.26518814
355.656	0.26337608
355.872	0.26764502
356.088	0.28110348
356.304	0.28517877
356.52	0.28486269
356.736	0.28878396
356.952	0.29310759
357.168	0.29478211
357.384	0.29915714
357.6	0.29069812
357.816	0.29285361
358.032	0.30033964
358.248	0.30791424
358.464	0.30787048
358.679	0.31222623
358.895	0.31140264
359.111	0.31774801
359.327	0.31363133
359.543	0.31468191
359.759	0.31765291
359.974	0.31894115
360.19	0.31857451
360.406	0.3188561
360.622	0.31697064
360.838	0.31713537
361.053	0.31968683
361.269	0.31971939
361.485	0.31982432
361.701	0.32294102
361.916	0.32098798
362.132	0.32313885
362.348	0.32612865
362.563	0.32665279
362.779	0.32474461
362.995	0.32881716
363.21	0.33112684
363.426	0.33433179
363.641	0.3355625
363.857	0.33907592
364.073	0.33743292
364.288	0.33613065
364.504	0.34039351
364.719	0.3415412
364.935	0.34222712
365.15	0.3442052
365.366	0.34427401
365.581	0.348556
365.797	0.35182335
366.012	0.3497486
366.228	0.34734007
366.443	0.35281686
366.658	0.35289823
366.874	0.35195494
367.089	0.35609392
367.305	0.35816534
367.52	0.36041331
367.735	0.36158337
367.951	0.36034233
368.166	0.36362302
368.381	0.36937993
368.597	0.36737605
368.812	0.37005362
369.027	0.37245801
369.243	0.37521045
369.458	0.38010438
369.673	0.38116666
369.888	0.38173862
370.104	0.37972631
370.319	0.38030935
370.534	0.37889236
370.749	0.37980629
370.964	0.38011084
371.179	0.38006912
371.395	0.37858283
371.61	0.38304408
371.825	0.38132133
372.04	0.38292792
372.255	0.38287424
372.47	0.38107042
372.685	0.37986966
372.9	0.38104649
373.115	0.3793032
373.33	0.3827158
373.545	0.38354416
373.76	0.38619895
373.975	0.38574503
374.19	0.38597205
374.405	0.38760434
374.62	0.39258111
374.835	0.39582057
375.05	0.39803068
375.265	0.39994662
375.48	0.40280405
375.695	0.40956506
375.91	0.40892981
376.125	0.40579404
376.339	0.40224316
376.554	0.40193138
376.769	0.40311924
376.984	0.40384857
377.199	0.40420115
377.414	0.40470466
377.628	0.40906148
377.843	0.41329904
378.058	0.41540115
378.273	0.41633602
378.487	0.41798834
378.702	0.41790502
378.917	0.42133512
379.131	0.42055934
379.346	0.41664482
379.561	0.4155218
379.775	0.4145846
379.99	0.4119929
380.205	0.40981628
380.419	0.40678642
380.634	0.40436805
380.848	0.40867008
381.063	0.40960055
381.278	0.41293016
381.492	0.41363135
381.707	0.41799131
381.921	0.4192054
382.136	0.42362259
382.35	0.42283419
382.565	0.42299229
382.779	0.42321216
382.994	0.42457517
383.208	0.42215726
383.422	0.4258923
383.637	0.42513216
383.851	0.4282572
384.066	0.43090673
384.28	0.43213325
384.494	0.43426788
384.709	0.43717512
384.923	0.43749647
385.137	0.4371574
385.352	0.43647695
385.566	0.43682425
385.78	0.43645888
385.995	0.43587716
386.209	0.4354284
386.423	0.43766925
386.637	0.43980645
386.852	0.43833518
387.066	0.43819865
387.28	0.4373962
387.494	0.43941732
387.708	0.44056494
387.923	0.43984076
388.137	0.44159593
388.351	0.44436854
388.565	0.44663638
388.779	0.44796412
388.993	0.45115395
389.207	0.45207789
389.421	0.45231352
389.635	0.45124245
389.85	0.45118347
390.064	0.45133699
390.278	0.45242652
390.492	0.45206133
390.706	0.45228478
390.92	0.45308656
391.134	0.45567616
391.348	0.45921245
391.561	0.45888744
391.775	0.45853029
391.989	0.45625394
392.203	0.45812664
392.417	0.45967
392.631	0.4612022
392.845	0.45928595
393.059	0.46171246
393.273	0.46168954
393.486	0.46086047
393.7	0.45905809
393.914	0.46005099
394.128	0.45891199
394.342	0.45875054
394.555	0.45601561
394.769	0.45691508
394.983	0.45927307
395.197	0.46085256
395.41	0.46065359
395.624	0.46123818
395.838	0.46140172
396.051	0.46520654
396.265	0.46473006
396.479	0.46619351
396.692	0.46634928
396.906	0.46487275
397.12	0.46489254
397.333	0.46686974
397.547	0.46548531
397.76	0.46689862
397.974	0.46691773
398.187	0.46822087
398.401	0.47048923
398.614	0.47110213
398.828	0.47107479
399.041	0.4716975
399.255	0.47186951
399.468	0.47166782
399.682	0.47152048
399.895	0.47222173
400.109	0.47158715
400.322	0.47087072
400.536	0.46899714
400.749	0.47027992
400.962	0.47035786
401.176	0.46986498
401.389	0.46909625
401.602	0.46744342
401.816	0.46859359
402.029	0.47090413
402.242	0.47007433
402.456	0.46989258
402.669	0.46921104
402.882	0.46701738
403.095	0.46981877
403.309	0.4690984
403.522	0.46895687
403.735	0.4680093
403.948	0.46807909
404.161	0.47105318
404.375	0.47248693
404.588	0.4718862
404.801	0.47203024
405.014	0.47070279
405.227	0.47279731
405.44	0.47335521
405.653	0.472448
405.866	0.47173422
406.079	0.47117259
406.293	0.47069352
406.506	0.47108191
406.719	0.4695765
406.932	0.46892599
407.145	0.4672728
407.358	0.46877179
407.571	0.46769806
407.784	0.46812381
407.996	0.46822337
408.209	0.4668996
408.422	0.46613238
408.635	0.4669384
408.848	0.46623591
409.061	0.46496908
409.274	0.46419174
409.487	0.46329316
409.7	0.46373379
409.912	0.46410791
410.125	0.46314817
410.338	0.46279278
410.551	0.46313215
410.764	0.46275517
410.976	0.46277071
411.189	0.46275838
411.402	0.46149971
411.615	0.46130645
411.827	0.46101185
412.04	0.46100468
412.253	0.45958288
412.465	0.45827391
412.678	0.45707137
412.891	0.45778961
413.103	0.45583747
413.316	0.4549689
413.529	0.45540018
413.741	0.45596248
413.954	0.45639447
414.166	0.45617367
414.379	0.45477323
414.591	0.45559054
414.804	0.45443668
415.016	0.45302128
415.229	0.45177532
415.441	0.45043579
415.654	0.45062009
415.866	0.45025587
416.079	0.44985574
416.291	0.44883992
416.504	0.44892508
416.716	0.44853623
416.928	0.44838904
417.141	0.44664746
417.353	0.44623654
417.566	0.44409476
417.778	0.44372183
417.99	0.44154358
418.203	0.44014407
418.415	0.43914965
418.627	0.43894695
418.839	0.43806313
419.052	0.43906211
419.264	0.43843491
419.476	0.43866066
419.688	0.43872053
419.901	0.43755071
420.113	0.43624996
420.325	0.4348749
420.537	0.43254601
420.749	0.43188955
420.961	0.43133393
421.174	0.42986028
421.386	0.42866377
421.598	0.42777538
421.81	0.4269252
422.022	0.42585031
422.234	0.42483973
422.446	0.42306091
422.658	0.42212335
422.87	0.42185154
423.082	0.42062353
423.294	0.41956181
423.506	0.41900057
423.718	0.41775256
423.93	0.41616766
424.142	0.41477494
424.354	0.41322593
424.566	0.41233431
424.778	0.41138764
424.99	0.41011379
425.202	0.40889325
425.414	0.40838378
425.625	0.40801915
425.837	0.40613541
426.049	0.4052022
426.261	0.40371853
426.473	0.40223471
426.684	0.40119485
426.896	0.40035873
427.108	0.39865876
427.32	0.39821652
427.531	0.39724601
427.743	0.39623489
427.955	0.39618585
428.167	0.39461309
428.378	0.39310831
428.59	0.39205938
428.802	0.39067311
429.013	0.38906727
429.225	0.38774047
429.436	0.38587433
429.648	0.38529215
429.86	0.38442432
430.071	0.38344719
430.283	0.38238444
430.494	0.38109282
430.706	0.38015277
430.917	0.37882477
431.129	0.37756132
431.34	0.37591675
431.552	0.37474603
431.763	0.37339185
431.975	0.37244286
432.186	0.3706815
432.398	0.36959607
432.609	0.36753471
432.821	0.36644001
433.032	0.36506757
433.243	0.36391578
433.455	0.36231119
433.666	0.36127023
433.877	0.36011059
434.089	0.3586292
434.3	0.35699584
434.511	0.35503074
434.723	0.3534311
434.934	0.35192133
435.145	0.35008494
435.356	0.34832673
435.568	0.3472835
435.779	0.34581392
435.99	0.34417483
436.201	0.34278304
436.412	0.3411433
436.624	0.3402133
436.835	0.33885051
437.046	0.33767924
437.257	0.33637904
437.468	0.3357233
437.679	0.33456611
437.89	0.33325976
438.101	0.33217728
438.312	0.33101281
438.523	0.32963003
438.734	0.32835929
438.945	0.32663892
439.156	0.32493552
439.367	0.32383424
439.578	0.3225157
439.789	0.32078237
440	0.31943982
440.211	0.31788939
440.422	0.31679419
440.633	0.31566984
440.844	0.3140084
441.055	0.31206888
441.266	0.31096087
441.477	0.30913761
441.687	0.30778054
441.898	0.30620234
442.109	0.3044231
442.32	0.30302307
442.531	0.30134337
442.741	0.29928923
442.952	0.29774979
443.163	0.29621092
443.374	0.29466443
443.584	0.29326765
443.795	0.29169818
444.006	0.29062809
444.216	0.28943654
444.427	0.28790506
444.638	0.28631249
444.848	0.28488059
445.059	0.28362016
445.27	0.28219648
445.48	0.28064564
445.691	0.27916418
445.901	0.27814076
446.112	0.27691132
446.323	0.27538605
446.533	0.27367382
446.744	0.27224612
446.954	0.27075454
447.165	0.26944762
447.375	0.26819171
447.586	0.26696565
447.796	0.26572745
448.006	0.26461194
448.217	0.26339351
448.427	0.26219099
448.638	0.2606828
448.848	0.2591417
449.058	0.25756435
449.269	0.25626036
449.479	0.25485375
449.689	0.25338541
449.9	0.25192463
450.11	0.25049331
450.32	0.24937314
450.531	0.24801971
450.741	0.24654059
450.951	0.24515425
451.161	0.24385658
451.372	0.24254256
451.582	0.24167534
451.792	0.24006724
452.002	0.23870445
452.212	0.23720536
452.422	0.2358636
452.633	0.23456958
452.843	0.23343617
453.053	0.23163438
453.263	0.23036145
453.473	0.2290857
453.683	0.22811646
453.893	0.22677572
454.103	0.22563607
454.313	0.22431634
454.523	0.22333421
454.733	0.2222586
454.943	0.22116708
455.153	0.22004673
455.363	0.21883973
455.573	0.21765627
455.783	0.21659079
455.993	0.21532764
456.203	0.21438504
456.413	0.2132845
456.623	0.21198666
456.833	0.21123242
457.042	0.21000066
457.252	0.20890622
457.462	0.20779255
457.672	0.20647047
457.882	0.20539788
458.091	0.20434036
458.301	0.20295084
458.511	0.20190267
458.721	0.20066484
458.931	0.19975475
459.14	0.19879959
459.35	0.19788428
459.56	0.19712084
459.769	0.19640486
459.979	0.19549266
460.189	0.1947004
460.398	0.19353005
460.608	0.19279148
460.817	0.19182472
461.027	0.19088344
461.237	0.18996127
461.446	0.18902028
461.656	0.18809343
461.865	0.18721205
462.075	0.18615562
462.284	0.18532818
462.494	0.18428796
462.703	0.18327908
462.913	0.18255784
463.122	0.18182657
463.332	0.1811643
463.541	0.18043046
463.751	0.17957197
463.96	0.17877589
464.169	0.17816588
464.379	0.1774551
464.588	0.17661209
464.797	0.17595219
465.007	0.17527684
465.216	0.17466498
465.425	0.17420562
465.635	0.17360883
465.844	0.17300748
466.053	0.17244699
466.263	0.17185033
466.472	0.17121892
466.681	0.17058771
466.89	0.16983127
467.099	0.16913565
467.309	0.16840819
467.518	0.16789966
467.727	0.16733594
467.936	0.16668637
468.145	0.1661842
468.354	0.16577581
468.563	0.16523733
468.772	0.16463327
468.982	0.16399983
469.191	0.16352447
469.4	0.16299599
469.609	0.16242801
469.818	0.16181896
470.027	0.16130493
470.236	0.16084011
470.445	0.16042949
470.654	0.15978321
470.863	0.15931279
471.072	0.15887033
471.28	0.15836838
471.489	0.15803658
471.698	0.15775407
471.907	0.15729342
472.116	0.15694722
472.325	0.15665193
472.534	0.15635559
472.743	0.15611405
472.951	0.15572007
473.16	0.15534489
473.369	0.15512035
473.578	0.15485319
473.786	0.15453207
473.995	0.15425095
474.204	0.1540208
474.413	0.15366335
474.621	0.15347055
474.83	0.15327055
475.039	0.15306845
475.247	0.15283779
475.456	0.15264181
475.665	0.15233062
475.873	0.15215133
476.082	0.15173443
476.291	0.15151663
476.499	0.15146124
476.708	0.1512476
476.916	0.15103724
477.125	0.15098559
477.333	0.15087857
477.542	0.15091482
477.75	0.15068408
477.959	0.1505696
478.167	0.15060784
478.376	0.15051165
478.584	0.15038348
478.793	0.15036698
479.001	0.15037567
479.209	0.1503915
479.418	0.15026404
479.626	0.15019531
479.834	0.15016767
480.043	0.15015551
480.251	0.15011948
480.459	0.1500916
480.668	0.15018922
480.876	0.15023448
481.084	0.1502604
481.293	0.15031742
481.501	0.15032107
481.709	0.15051293
481.917	0.15058393
482.125	0.15068757
482.334	0.15082503
482.542	0.15092914
482.75	0.15106547
482.958	0.15127115
483.166	0.15134918
483.374	0.15143863
483.583	0.15152065
483.791	0.15162445
483.999	0.15175203
484.207	0.15188632
484.415	0.15203625
484.623	0.15215565
484.831	0.15234407
485.039	0.15248061
485.247	0.15268597
485.455	0.15280729
485.663	0.15299389
485.871	0.15324274
486.079	0.15341471
486.287	0.15361299
486.495	0.15385727
486.702	0.15396562
486.91	0.1542111
487.118	0.15445698
487.326	0.15460195
487.534	0.15491787
487.742	0.1553004
487.95	0.1555632
488.157	0.15588517
488.365	0.15625589
488.573	0.15667812
488.781	0.15722402
488.988	0.15760256
489.196	0.15789405
489.404	0.15827217
489.612	0.1587105
489.819	0.15913365
490.027	0.15949605
490.235	0.15975526
490.442	0.160093
490.65	0.16039869
490.857	0.16087721
491.065	0.16129898
491.273	0.16176084
491.48	0.16220101
491.688	0.16267911
491.895	0.16327017
492.103	0.16385058
492.31	0.16429404
492.518	0.16474839
492.725	0.16515919
492.933	0.16555
493.14	0.16590271
493.348	0.16628692
493.555	0.16673738
493.763	0.16712597
493.97	0.16763573
494.177	0.16819492
494.385	0.16874818
494.592	0.16935439
494.8	0.16981467
495.007	0.17036998
495.214	0.17089034
495.422	0.17144852
495.629	0.17189275
495.836	0.17241254
496.043	0.17298492
496.251	0.17360705
496.458	0.17409641
496.665	0.17471904
496.872	0.17530118
497.08	0.17588412
497.287	0.17645143
497.494	0.17704121
497.701	0.1776594
497.908	0.17837228
498.115	0.1789055
498.322	0.17944126
498.53	0.18006261
498.737	0.18066395
498.944	0.18121915
499.151	0.18181466
499.358	0.18240741
499.565	0.18312453
499.772	0.18389456
499.979	0.18464895
500.186	0.18544935
500.393	0.1861994
500.6	0.18684515
500.807	0.18758253
501.014	0.18829054
501.221	0.18890745
501.427	0.18952586
501.634	0.19022872
501.841	0.19097693
502.048	0.1917315
502.255	0.19228315
502.462	0.1929473
502.669	0.19366299
502.875	0.19441442
503.082	0.19504166
503.289	0.1956333
503.496	0.19640201
503.702	0.19725519
503.909	0.19809807
504.116	0.19893529
504.323	0.19970078
504.529	0.20049603
504.736	0.20131887
504.943	0.20204351
505.149	0.20287232
505.356	0.20369291
505.563	0.20447466
505.769	0.20533523
505.976	0.20615834
506.182	0.2070032
506.389	0.20784812
506.595	0.20863792
506.802	0.20943641
507.008	0.21027003
507.215	0.21108168
507.421	0.21196328
507.628	0.21278504
507.834	0.21359271
508.041	0.21440476
508.247	0.21523418
508.454	0.21603108
508.66	0.21682244
508.866	0.21759447
509.073	0.21848683
509.279	0.2193562
509.486	0.22014646
509.692	0.22087685
509.898	0.22170804
510.105	0.22261558
510.311	0.22349259
510.517	0.22435853
510.723	0.22521852
510.93	0.2260894
511.136	0.227022
511.342	0.22791009
511.548	0.2287312
511.754	0.22954324
511.961	0.23037149
512.167	0.23122228
512.373	0.23213054
512.579	0.23307097
512.785	0.23401336
512.991	0.23494542
513.197	0.23588309
513.404	0.23682169
513.61	0.23778348
513.816	0.23870622
514.022	0.23957528
514.228	0.24042114
514.434	0.2412945
514.64	0.242269
514.846	0.24322045
515.052	0.24411665
515.258	0.24503692
515.464	0.24598505
515.669	0.24700952
515.875	0.24801428
516.081	0.24900029
516.287	0.25001108
516.493	0.25109992
516.699	0.25204995
516.905	0.25298177
517.111	0.25387015
517.316	0.25477841
517.522	0.25563933
517.728	0.25659543
517.934	0.2575047
518.139	0.25849463
518.345	0.2594482
518.551	0.26041502
518.757	0.2612625
518.962	0.26213567
519.168	0.26304541
519.374	0.26391987
519.579	0.2648567
519.785	0.26595781
519.991	0.26698103
520.196	0.26810165
520.402	0.26919314
520.607	0.27018267
520.813	0.27122561
521.018	0.27215332
521.224	0.27293214
521.429	0.2738719
521.635	0.27479155
521.84	0.27564652
522.046	0.27654973
522.251	0.27748391
522.457	0.27847767
522.662	0.27955636
522.868	0.28055808
523.073	0.28152556
523.279	0.28266235
523.484	0.28367605
523.689	0.28461873
523.895	0.2856292
524.1	0.2866159
524.305	0.28760828
524.511	0.28860101
524.716	0.28956486
524.921	0.29054526
525.126	0.29157151
525.332	0.29261505
525.537	0.29354199
525.742	0.29452909
525.947	0.29554792
526.153	0.29644812
526.358	0.29739069
526.563	0.29830508
526.768	0.29919894
526.973	0.30020461
527.178	0.3012454
527.383	0.3022424
527.588	0.3032429
527.794	0.30418537
527.999	0.30525954
528.204	0.30622428
528.409	0.30718801
528.614	0.30816468
528.819	0.30906888
529.024	0.30992977
529.229	0.31091953
529.434	0.31186061
529.639	0.31283405
529.843	0.31377902
530.048	0.31460765
530.253	0.31551581
530.458	0.3166018
530.663	0.31754596
530.868	0.31844905
531.073	0.31929844
531.278	0.32014584
531.482	0.32105764
531.687	0.32205172
531.892	0.3228821
532.097	0.32370267
532.302	0.32469697
532.506	0.32566888
532.711	0.32666175
532.916	0.32764957
533.12	0.32861018
533.325	0.32957402
533.53	0.33062353
533.734	0.33156246
533.939	0.33260443
534.144	0.33365
534.348	0.33461934
534.553	0.33558027
534.757	0.33659866
534.962	0.33761783
535.167	0.338573
535.371	0.33940535
535.576	0.34033647
535.78	0.34127386
535.985	0.3422067
536.189	0.34306254
536.394	0.34391772
536.598	0.34482488
536.803	0.34585206
537.007	0.3467057
537.211	0.34764421
537.416	0.34850418
537.62	0.34940408
537.825	0.35029025
538.029	0.35121887
538.233	0.35210276
538.438	0.35307822
538.642	0.35392546
538.846	0.35484584
539.05	0.35578335
539.255	0.35666906
539.459	0.35758733
539.663	0.35839758
539.867	0.35926769
540.072	0.3601581
540.276	0.36108659
540.48	0.3620871
540.684	0.36302023
540.888	0.36402229
541.092	0.36497202
541.297	0.36585354
541.501	0.3667581
541.705	0.36766473
541.909	0.36842041
542.113	0.36922936
542.317	0.36996777
542.521	0.37083585
542.725	0.37172966
542.929	0.37258514
543.133	0.37333129
543.337	0.37422053
543.541	0.37503861
543.745	0.37572364
543.949	0.37645856
544.153	0.37710446
544.357	0.37789256
544.56	0.37878698
544.764	0.37968356
544.968	0.38056956
545.172	0.38148047
545.376	0.38241319
545.58	0.38336831
545.783	0.38430487
545.987	0.38509097
546.191	0.38575889
546.395	0.38657622
546.598	0.38750858
546.802	0.38837149
547.006	0.38916543
547.21	0.38975002
547.413	0.39055233
547.617	0.39143568
547.821	0.39226825
548.024	0.39309303
548.228	0.39384422
548.431	0.39471376
548.635	0.3955822
548.839	0.39630088
549.042	0.397087
549.246	0.39775036
549.449	0.39845615
549.653	0.3992311
549.856	0.39993287
550.06	0.40066599
550.263	0.40153735
550.467	0.40235019
550.67	0.40319901
550.874	0.40393175
551.077	0.40471625
551.28	0.40549603
551.484	0.40626431
551.687	0.40698532
551.891	0.4077174
552.094	0.40851438
552.297	0.40938973
552.501	0.41017526
552.704	0.41094251
552.907	0.4117152
553.11	0.41243149
553.314	0.41307731
553.517	0.41361274
553.72	0.4142126
553.923	0.41484584
554.127	0.41560197
554.33	0.41627463
554.533	0.41699205
554.736	0.41767895
554.939	0.41846191
555.142	0.41911736
555.345	0.41979131
555.549	0.42039749
555.752	0.42104146
555.955	0.42161784
556.158	0.42223607
556.361	0.4227754
556.564	0.42339312
556.767	0.42402062
556.97	0.42462765
557.173	0.42533417
557.376	0.4261182
557.579	0.42682289
557.782	0.42760744
557.984	0.42836872
558.187	0.42909893
558.39	0.4297721
558.593	0.43046402
558.796	0.43103577
558.999	0.43154759
559.202	0.43216049
559.404	0.43262985
559.607	0.43314471
559.81	0.43369279
560.013	0.43412883
560.216	0.43472728
560.418	0.43542404
560.621	0.43605158
560.824	0.43672605
561.026	0.43738095
561.229	0.43796286
561.432	0.43864096
561.634	0.43922202
561.837	0.4397905
562.04	0.44028411
562.242	0.44085666
562.445	0.44130872
562.647	0.44189337
562.85	0.4422841
563.053	0.44267913
563.255	0.44319409
563.458	0.44371396
563.66	0.44420904
563.863	0.44480484
564.065	0.44536367
564.268	0.44598984
564.47	0.44659633
564.672	0.44706184
564.875	0.44764794
565.077	0.44812254
565.28	0.44858707
565.482	0.44908194
565.684	0.44955177
565.887	0.45002078
566.089	0.45058448
566.291	0.45099983
566.494	0.45152072
566.696	0.45202649
566.898	0.45256988
567.1	0.45319761
567.303	0.45377951
567.505	0.45421179
567.707	0.45460424
567.909	0.45501091
568.111	0.4554615
568.314	0.45580705
568.516	0.45612948
568.718	0.45654751
568.92	0.45705958
569.122	0.45758056
569.324	0.45801336
569.526	0.45833688
569.728	0.45884102
569.93	0.45928303
570.132	0.4596177
570.334	0.45992954
570.536	0.46025019
570.738	0.46060145
570.94	0.46098157
571.142	0.46128787
571.344	0.46155565
571.546	0.46183896
571.748	0.46223426
571.95	0.46255105
572.152	0.46301248
572.354	0.46352315
572.555	0.46398495
572.757	0.46458812
572.959	0.46507915
573.161	0.46536815
573.363	0.46577795
573.564	0.46612756
573.766	0.46632397
573.968	0.46651848
574.17	0.46654551
574.371	0.46679497
574.573	0.467134
574.775	0.46734697
574.976	0.4675353
575.178	0.4678411
575.38	0.46809834
575.581	0.46835666
575.783	0.46864747
575.985	0.46884844
576.186	0.46924937
576.388	0.46953346
576.589	0.46974108
576.791	0.47007499
576.992	0.47034824
577.194	0.47051739
577.395	0.47075473
577.597	0.47096659
577.798	0.47118591
578	0.471446
578.201	0.47168992
578.402	0.47200084
578.604	0.47217005
578.805	0.47242557
579.007	0.47267582
579.208	0.47296634
579.409	0.473111
579.611	0.47311676
579.812	0.47324155
580.013	0.47353337
580.215	0.47360408
580.416	0.47368754
580.617	0.47382325
580.818	0.47413266
581.019	0.47441682
581.221	0.47465425
581.422	0.47488991
581.623	0.47521773
581.824	0.47532399
582.025	0.47543587
582.226	0.47551724
582.428	0.47564028
582.629	0.47562869
582.83	0.47558866
583.031	0.47552147
583.232	0.4757189
583.433	0.47582117
583.634	0.47582125
583.835	0.47593316
584.036	0.47600459
584.237	0.47602522
584.438	0.47612905
584.639	0.47602184
584.84	0.47603525
585.041	0.47603559
585.242	0.47597363
585.442	0.47602436
585.643	0.47620427
585.844	0.47625332
586.045	0.47637807
586.246	0.47636772
586.447	0.47644639
586.647	0.4764541
586.848	0.4764371
587.049	0.47631333
587.25	0.47622202
587.45	0.4761942
587.651	0.47625735
587.852	0.47626258
588.053	0.47642609
588.253	0.47643458
588.454	0.47653278
588.655	0.47654258
588.855	0.47645047
589.056	0.47636375
589.256	0.47627812
589.457	0.47614988
589.658	0.47613857
589.858	0.47591545
590.059	0.4759493
590.259	0.4759911
590.46	0.47591641
590.66	0.47585364
590.861	0.47574187
591.061	0.47560777
591.262	0.47565546
591.462	0.47546988
591.662	0.47525125
591.863	0.47504828
592.063	0.47496119
592.264	0.47481944
592.464	0.47474924
592.664	0.47460788
592.865	0.47464233
593.065	0.47446734
593.265	0.47450363
593.465	0.4743256
593.666	0.47425449
593.866	0.47407475
594.066	0.47396841
594.266	0.47368977
594.467	0.47345526
594.667	0.4731496
594.867	0.47295619
595.067	0.47261357
595.267	0.47237582
595.467	0.4720681
595.668	0.47176057
595.868	0.47165406
596.068	0.47145451
596.268	0.47113012
596.468	0.47100491
596.668	0.47085077
596.868	0.47067248
597.068	0.47064347
597.268	0.4705732
597.468	0.47041227
597.668	0.47028401
597.868	0.47003052
598.068	0.46974755
598.268	0.46948557
598.467	0.46918233
598.667	0.46876492
598.867	0.46838594
599.067	0.46814853
599.267	0.46789492
599.467	0.46759668
599.667	0.46725991
599.866	0.46694582
600.066	0.46670734
600.266	0.46640912
600.466	0.46603906
600.665	0.46574625
600.865	0.46537455
601.065	0.46509818
601.264	0.46469305
601.464	0.4643568
601.664	0.46405017
601.863	0.46364359
602.063	0.46325628
602.263	0.4628602
602.462	0.46249835
602.662	0.46216967
602.861	0.4617375
603.061	0.46140411
603.26	0.46113739
603.46	0.46086353
603.659	0.46062515
603.859	0.46037124
604.058	0.4600651
604.258	0.4598654
604.457	0.45967779
604.657	0.45933562
604.856	0.45881389
605.056	0.45845555
605.255	0.45796416
605.454	0.45758123
605.654	0.45708317
605.853	0.45661494
606.052	0.45620653
606.252	0.45591972
606.451	0.45556697
606.65	0.45526256
606.849	0.45467183
607.049	0.45419097
607.248	0.4536452
607.447	0.4531511
607.646	0.45278021
607.845	0.45230792
608.045	0.45167398
608.244	0.45135119
608.443	0.45089305
608.642	0.45047905
608.841	0.44998601
609.04	0.44940763
609.239	0.4489187
609.438	0.44856512
609.637	0.44822955
609.836	0.44788941
610.035	0.44745933
610.234	0.44708106
610.433	0.44655913
610.632	0.44605108
610.831	0.4455551
611.03	0.44491719
611.229	0.44442285
611.428	0.44395577
611.627	0.44344911
611.826	0.44302714
612.025	0.44265574
612.224	0.44206366
612.422	0.44156975
612.621	0.44092875
612.82	0.44036663
613.019	0.43985269
613.218	0.4394039
613.416	0.43869595
613.615	0.43825092
613.814	0.43771556
614.012	0.43726263
614.211	0.43666227
614.41	0.43615934
614.608	0.43556534
614.807	0.43504715
615.006	0.43456819
615.204	0.43404069
615.403	0.4336439
615.602	0.43317561
615.8	0.43262996
615.999	0.43194444
616.197	0.4314623
616.396	0.4308258
616.594	0.43023546
616.793	0.42952939
616.991	0.42890818
617.19	0.42820147
617.388	0.42776057
617.586	0.42711526
617.785	0.4264835
617.983	0.42583265
618.182	0.42521053
618.38	0.42458688
618.578	0.42411039
618.777	0.42355788
618.975	0.42308462
619.173	0.42252595
619.372	0.42202142
619.57	0.42137526
619.768	0.42084402
619.966	0.42010668
620.165	0.41931741
620.363	0.41864657
620.561	0.4179349
620.759	0.41721582
620.957	0.41665998
621.155	0.41593961
621.354	0.4153225
621.552	0.41487767
621.75	0.41417716
621.948	0.41368957
622.146	0.41314114
622.344	0.41241053
622.542	0.411839
622.74	0.411219
622.938	0.41039377
623.136	0.40976368
623.334	0.40918742
623.532	0.40848721
623.73	0.40797223
623.928	0.40742957
624.126	0.40681723
624.324	0.40632948
624.522	0.40565573
624.719	0.40479843
624.917	0.40419039
625.115	0.40339286
625.313	0.40277358
625.511	0.40218842
625.708	0.40142504
625.906	0.40071813
626.104	0.40017265
626.302	0.39953467
626.499	0.39896029
626.697	0.39811836
626.895	0.39725483
627.093	0.39648374
627.29	0.39576498
627.488	0.39488384
627.686	0.394118
627.883	0.39317914
628.081	0.39232773
628.278	0.39175509
628.476	0.39107329
628.673	0.39047084
628.871	0.389957
629.068	0.38925488
629.266	0.38870659
629.463	0.38807417
629.661	0.38735625
629.858	0.38657179
630.056	0.38579524
630.253	0.38503497
630.451	0.38431566
630.648	0.38349728
630.845	0.3827448
631.043	0.38196147
631.24	0.38136001
631.438	0.38065184
631.635	0.37988055
631.832	0.37892699
632.029	0.37824487
632.227	0.37745597
632.424	0.37662784
632.621	0.37573999
632.818	0.37489457
633.016	0.37408775
633.213	0.37343406
633.41	0.37269867
633.607	0.37196984
633.804	0.37125665
634.001	0.37050038
634.199	0.36973337
634.396	0.3690051
634.593	0.36817023
634.79	0.36746171
634.987	0.36667593
635.184	0.36591645
635.381	0.36527141
635.578	0.36457233
635.775	0.36371977
635.972	0.36301491
636.169	0.36212675
636.366	0.3613848
636.563	0.36064033
636.76	0.35968626
636.957	0.35894779
637.153	0.35818668
637.35	0.35752902
637.547	0.35682822
637.744	0.35599254
637.941	0.3552387
638.138	0.35459865
638.334	0.35377779
638.531	0.3531168
638.728	0.35241195
638.925	0.35177654
639.121	0.35118664
639.318	0.35042509
639.515	0.34955314
639.711	0.3488533
639.908	0.34792524
640.105	0.34700205
640.301	0.34604636
640.498	0.3451514
640.695	0.34440184
640.891	0.343718
641.088	0.34295582
641.284	0.34226333
641.481	0.34160791
641.677	0.34089495
641.874	0.34007213
642.07	0.33934242
642.267	0.33868178
642.463	0.33790064
642.66	0.3372736
642.856	0.33646065
643.053	0.33571405
643.249	0.33505825
643.445	0.33426955
643.642	0.33340918
643.838	0.33262901
644.034	0.33175775
644.231	0.33084372
644.427	0.33000411
644.623	0.32914155
644.82	0.32832173
645.016	0.32748263
645.212	0.32657499
645.408	0.32579545
645.604	0.32516781
645.801	0.32448787
645.997	0.32365471
646.193	0.32292234
646.389	0.32231079
646.585	0.32173216
646.781	0.3210908
646.977	0.32043544
647.173	0.31969516
647.37	0.31910282
647.566	0.31838155
647.762	0.31766942
647.958	0.31697004
648.154	0.31607794
648.35	0.31529529
648.546	0.31441713
648.742	0.31371761
648.937	0.31276607
649.133	0.31195645
649.329	0.31117186
649.525	0.31043108
649.721	0.30959183
649.917	0.30894744
650.113	0.30804459
650.309	0.30743136
650.504	0.30654573
650.7	0.30566262
650.896	0.30490982
651.092	0.30419789
651.287	0.30343265
651.483	0.30273213
651.679	0.3019561
651.875	0.3013729
652.07	0.30073245
652.266	0.30002891
652.462	0.29927398
652.657	0.29852886
652.853	0.29779983
653.048	0.2970912
653.244	0.29620447
653.44	0.2954062
653.635	0.29453048
653.831	0.29381219
654.026	0.29312078
654.222	0.2923133
654.417	0.29158592
654.613	0.29078171
654.808	0.28987843
655.004	0.28912388
655.199	0.28823963
655.394	0.2873488
655.59	0.28657661
655.785	0.28563278
655.98	0.28491801
656.176	0.2841792
656.371	0.28357671
656.566	0.28291467
656.762	0.28215951
656.957	0.28151744
657.152	0.28093873
657.348	0.28026656
657.543	0.27966751
657.738	0.2788469
657.933	0.27805673
658.128	0.27728121
658.324	0.27646773
658.519	0.2756872
658.714	0.27491961
658.909	0.27408138
659.104	0.27338525
659.299	0.27261575
659.494	0.27188588
659.689	0.27106353
659.884	0.27024111
660.079	0.26934215
660.274	0.26857666
660.469	0.26766164
660.664	0.26694832
660.859	0.26621476
661.054	0.26558163
661.249	0.26492575
661.444	0.2643209
661.639	0.26355757
661.834	0.26291728
662.029	0.26221327
662.224	0.261504
662.418	0.26072427
662.613	0.25995042
662.808	0.25912961
663.003	0.2584436
663.198	0.25760883
663.392	0.25683419
663.587	0.25619414
663.782	0.25539121
663.977	0.25460795
664.171	0.25395207
664.366	0.25318451
664.561	0.25254404
664.755	0.25178445
664.95	0.25098498
665.144	0.25028337
665.339	0.24975441
665.534	0.24915047
665.728	0.24860902
665.923	0.24790675
666.117	0.24723123
666.312	0.24649446
666.506	0.24585174
666.701	0.24500186
666.895	0.24418814
667.09	0.24328034
667.284	0.24263399
667.479	0.24191948
667.673	0.24126243
667.867	0.24059486
668.062	0.24000531
668.256	0.23941231
668.45	0.23898164
668.645	0.23831
668.839	0.2377083
669.033	0.23701109
669.228	0.2363722
669.422	0.235704
669.616	0.23502224
669.81	0.23428705
670.004	0.23371188
670.199	0.23319247
670.393	0.23269199
670.587	0.23211518
670.781	0.23145936
670.975	0.23078385
671.169	0.22999996
671.363	0.22912529
671.558	0.22827632
671.752	0.22752492
671.946	0.22683758
672.14	0.22624034
672.334	0.225529
672.528	0.22496752
672.722	0.22428282
672.916	0.22366491
673.11	0.22294239
673.304	0.22226871
673.497	0.22144744
673.691	0.22081722
673.885	0.22006915
674.079	0.21949857
674.273	0.21875585
674.467	0.21811504
674.661	0.2173974
674.854	0.21680541
675.048	0.21618979
675.242	0.21565962
675.436	0.21508537
675.629	0.21455473
675.823	0.21389513
676.017	0.21336765
676.211	0.21275303
676.404	0.21210268
676.598	0.21143814
676.792	0.21084144
676.985	0.21017415
677.179	0.20954503
677.372	0.20875215
677.566	0.20803839
677.76	0.20734428
677.953	0.20660178
678.147	0.20590987
678.34	0.20535547
678.534	0.20474928
678.727	0.204312
678.921	0.2038496
679.114	0.20336826
679.307	0.20295739
679.501	0.20243582
679.694	0.20187355
679.888	0.20134434
680.081	0.20079632
680.274	0.20018701
680.468	0.19966931
680.661	0.19906528
680.854	0.1985979
681.048	0.19803328
681.241	0.19743578
681.434	0.1967606
681.627	0.19607016
681.821	0.19528954
682.014	0.19466912
682.207	0.19388323
682.4	0.19317867
682.593	0.19258855
682.786	0.19195682
682.98	0.19139194
683.173	0.19091575
683.366	0.19032595
683.559	0.18983509
683.752	0.18935003
683.945	0.18883118
684.138	0.18836708
684.331	0.18780262
684.524	0.18732654
684.717	0.18678145
684.91	0.18629431
685.103	0.18575556
685.296	0.18514815
685.489	0.18451282
685.682	0.18399625
685.874	0.1833884
686.067	0.18280469
686.26	0.18221312
686.453	0.18163081
686.646	0.18106806
686.839	0.18062417
687.031	0.18019549
687.224	0.17971142
687.417	0.17943773
687.61	0.17896443
687.802	0.17852744
687.995	0.17814681
688.188	0.177744
688.38	0.17720339
688.573	0.17678383
688.766	0.17621605
688.958	0.17566954
689.151	0.1751061
689.343	0.17464562
689.536	0.17403573
689.729	0.17346607
689.921	0.1728548
690.114	0.17227698
690.306	0.17180955
690.499	0.17142738
690.691	0.17091476
690.884	0.17046708
691.076	0.17004988
691.268	0.16954505
691.461	0.16900546
691.653	0.16854079
691.846	0.16803638
692.038	0.16755797
692.23	0.16701912
692.423	0.16654922
692.615	0.16615134
692.807	0.16580465
692.999	0.16535822
693.192	0.16484971
693.384	0.16438308
693.576	0.16399518
693.768	0.16364526
693.961	0.1632007
694.153	0.16279327
694.345	0.16243204
694.537	0.16211665
694.729	0.16179826
694.921	0.16145721
695.113	0.16101592
695.305	0.16059359
695.498	0.16002948
695.69	0.1594833
695.882	0.15890854
696.074	0.15834337
696.266	0.15778335
696.458	0.15729988
696.65	0.15684275
696.842	0.15651759
697.033	0.15618488
697.225	0.15584779
697.417	0.15552019
697.609	0.15514302
697.801	0.154755
697.993	0.15434108
698.185	0.15382091
698.376	0.15327628
698.568	0.15279052
698.76	0.15236699
698.952	0.15196416
699.144	0.15156904
699.335	0.15128778
699.527	0.15098563
699.719	0.1507287
699.91	0.15038574
700.102	0.14994678
700.294	0.14963306
700.485	0.1492927
700.677	0.14886806
700.869	0.14864217
701.06	0.14838507
701.252	0.14813914
701.443	0.14797319
701.635	0.14767084
701.826	0.14737626
702.018	0.14710216
702.209	0.14679003
702.401	0.14646465
702.592	0.14622478
702.784	0.14592278
702.975	0.1456759
703.166	0.14542684
703.358	0.14509088
703.549	0.14473284
703.741	0.14433779
703.932	0.14387038
704.123	0.14346144
704.315	0.14301997
704.506	0.14266765
704.697	0.14231088
704.888	0.14199212
705.08	0.14168512
705.271	0.14147983
705.462	0.14109247
705.653	0.14071424
705.844	0.14022714
706.035	0.1398222
706.227	0.13934334
706.418	0.13893202
706.609	0.1384642
706.8	0.13815744
706.991	0.13787143
707.182	0.13771854
707.373	0.13752855
707.564	0.1374283
707.755	0.13723934
707.946	0.13707893
708.137	0.13686134
708.328	0.13663689
708.519	0.13628396
708.71	0.13588123
708.901	0.1354152
709.092	0.13512489
709.283	0.13477328
709.473	0.13450564
709.664	0.13428642
709.855	0.13411592
710.046	0.13405214
710.237	0.13389722
710.427	0.13361262
710.618	0.1333619
710.809	0.13301507
711	0.13263624
711.19	0.13222533
711.381	0.13178433
711.572	0.13136349
711.762	0.13100461
711.953	0.13064908
712.144	0.13037905
712.334	0.13013228
712.525	0.1299355
712.715	0.12976679
712.906	0.129514
713.097	0.12928535
713.287	0.12904644
713.478	0.12872197
713.668	0.12848992
713.859	0.1283057
714.049	0.1281406
714.239	0.12813267
714.43	0.12801794
714.62	0.127952
714.811	0.1278659
715.001	0.12768949
715.191	0.1275187
715.382	0.12730743
715.572	0.12718808
715.762	0.12711662
715.953	0.12701052
716.143	0.12698356
716.333	0.12689824
716.523	0.126765
716.714	0.12660592
716.904	0.12629592
717.094	0.12608413
717.284	0.12582933
717.474	0.12556496
717.664	0.1254143
717.855	0.12524398
718.045	0.12512494
718.235	0.12509297
718.425	0.12499939
718.615	0.12495811
718.805	0.12489842
718.995	0.12477311
719.185	0.12463469
719.375	0.12452895
719.565	0.12441237
719.755	0.12422366
719.945	0.12401233
720.135	0.1238335
720.325	0.12364039
720.515	0.12354427
720.704	0.12337512
720.894	0.12321288
721.084	0.12304946
721.274	0.12294951
721.464	0.12281911
721.654	0.12275395
721.843	0.12257215
722.033	0.12248641
722.223	0.12236694
722.413	0.12237333
722.602	0.12225501
722.792	0.12213535
722.982	0.12201604
723.171	0.12192209
723.361	0.12180732
723.55	0.12167371
723.74	0.12146132
723.93	0.12140929
724.119	0.12130919
724.309	0.12121935
724.498	0.12115965
724.688	0.12110032
724.877	0.12104908
725.067	0.12096832
725.256	0.12084559
725.446	0.12080867
725.635	0.12065066
725.825	0.12056092
726.014	0.12047845
726.203	0.12035032
726.393	0.12020473
726.582	0.12005958
726.771	0.11996491
726.961	0.11998328
727.15	0.11995131
727.339	0.11983597
727.529	0.11976787
727.718	0.11972553
727.907	0.11962576
728.096	0.11946272
728.286	0.11922706
728.475	0.11903805
728.664	0.11886644
728.853	0.1187463
729.042	0.11862947
729.231	0.11854451
729.42	0.11842804
729.609	0.11827828
729.799	0.11802952
729.988	0.11784207
730.177	0.11762004
730.366	0.11738074
730.555	0.11715624
730.744	0.11703676
730.933	0.11694161
731.122	0.11684173
731.31	0.11677694
731.499	0.11672704
731.688	0.11675349
731.877	0.11678317
732.066	0.11682714
732.255	0.11698118
732.444	0.11714928
732.632	0.11733402
732.821	0.11749054
733.01	0.11755222
733.199	0.11763593
733.388	0.11760144
733.576	0.1175224
733.765	0.11740435
733.954	0.11715035
734.142	0.11689402
734.331	0.116692
734.52	0.1164515
734.708	0.11625078
734.897	0.11613039
735.086	0.11606237
735.274	0.11606017
735.463	0.11611238
735.651	0.11620905
735.84	0.11637836
736.028	0.11650508
736.217	0.11653134
736.405	0.1165858
736.594	0.11666353
736.782	0.11669963
736.971	0.11670652
737.159	0.11659985
737.347	0.11658581
737.536	0.11656925
737.724	0.11648642
737.912	0.11642292
738.101	0.11645752
738.289	0.11644467
738.477	0.11653085
738.666	0.11647236
738.854	0.11643774
739.042	0.11650427
739.23	0.11651809
739.418	0.11646051
739.607	0.1164871
739.795	0.11644451
739.983	0.11650738
740.171	0.11657839
740.359	0.11660054
740.547	0.11674227
740.735	0.11681796
740.923	0.11682647
741.112	0.116906
741.3	0.11697237
741.488	0.11701482
741.676	0.11707876
741.864	0.11705592
742.052	0.11714713
742.239	0.1171827
742.427	0.1171285
742.615	0.11702722
742.803	0.11699248
742.991	0.1169899
743.179	0.11705757
743.367	0.11709543
743.555	0.11715274
743.742	0.11729963
743.93	0.11750619
744.118	0.11763094
744.306	0.11773929
744.494	0.11773516
744.681	0.11776148
744.869	0.11783873
745.057	0.11780077
745.244	0.11778684
745.432	0.11770607
745.62	0.11767146
745.807	0.11775083
745.995	0.1177996
746.182	0.11794673
746.37	0.11813064
746.558	0.11829247
746.745	0.11853173
746.933	0.11869945
747.12	0.11880702
747.308	0.11887847
747.495	0.11884065
747.683	0.1188855
747.87	0.11891665
748.057	0.11894292
748.245	0.11897457
748.432	0.11894692
748.62	0.1190001
748.807	0.11911691
748.994	0.1192314
749.182	0.11930721
749.369	0.11940827
749.556	0.11948074
749.743	0.11965556
749.931	0.11981498
750.118	0.11996597
750.305	0.1199916
750.492	0.12006009
750.68	0.12020533
750.867	0.12041876
751.054	0.1204922
751.241	0.12052869
751.428	0.12051633
751.615	0.12053427
751.802	0.12053996
751.989	0.12045329
752.176	0.12030576
752.363	0.12024947
752.55	0.12013736
752.737	0.12008503
752.924	0.12009504
753.111	0.12020343
753.298	0.1204053
753.485	0.12063452
753.672	0.12081509
753.859	0.12104402
754.046	0.12124005
754.233	0.12141004
754.42	0.12152844
754.606	0.1214568
754.793	0.12141203
754.98	0.12141742
755.167	0.1214308
755.353	0.12149422
755.54	0.12159392
755.727	0.12167545
755.914	0.12188464
756.1	0.1221282
756.287	0.12235579
756.474	0.12255211
756.66	0.12270858
756.847	0.12276146
757.033	0.12274216
757.22	0.12278988
757.407	0.12279999
757.593	0.12277382
757.78	0.12281118
757.966	0.1228231
758.153	0.12285913
758.339	0.12290749
758.526	0.12288238
758.712	0.12286047
758.898	0.12298915
759.085	0.12312575
759.271	0.12334432
759.458	0.12368355
759.644	0.1240377
759.83	0.12439553
760.017	0.12472303
760.203	0.12498198
760.389	0.12517461
760.576	0.12526429
760.762	0.1252918
760.948	0.12530951
761.134	0.12529264
761.32	0.12534933
761.507	0.12543832
761.693	0.12560352
761.879	0.12577579
762.065	0.12589502
762.251	0.1261322
762.437	0.12640788
762.623	0.1266432
762.809	0.12680632
762.995	0.1269401
763.181	0.12712279
763.367	0.1273538
763.553	0.1275393
763.739	0.12767404
763.925	0.12771398
764.111	0.1278117
764.297	0.12785285
764.483	0.12787528
764.669	0.12790335
764.855	0.12793306
765.041	0.12796534
765.227	0.12799006
765.412	0.12799943
765.598	0.12812569
765.784	0.12831801
765.97	0.12854584
766.156	0.12875482
766.341	0.12900527
766.527	0.12933442
766.713	0.12964883
766.898	0.1299138
767.084	0.13005368
767.27	0.13008319
767.455	0.13005695
767.641	0.13008318
767.827	0.13010281
768.012	0.13010116
768.198	0.13004763
768.383	0.13009603
768.569	0.13024522
768.754	0.13051402
768.94	0.13072865
769.125	0.130909
769.311	0.13110073
769.496	0.13143026
769.682	0.13171791
769.867	0.13196656
770.052	0.1321538
770.238	0.1323306
770.423	0.13265104
770.608	0.13293979
770.794	0.13315627
770.979	0.13332921
771.164	0.13359864
771.35	0.13372466
771.535	0.13390293
771.72	0.13396464
771.905	0.1341615
772.09	0.13423732
772.276	0.13433788
772.461	0.13436585
772.646	0.13458439
772.831	0.13477859
773.016	0.13500645
773.201	0.13511171
773.386	0.13531978
773.571	0.1355421
773.756	0.13576946
773.941	0.13594995
774.126	0.13616976
774.311	0.13641569
774.496	0.13665421
774.681	0.13693467
774.866	0.13725031
775.051	0.13751128
775.236	0.13780518
775.421	0.13795886
775.606	0.13804388
775.791	0.13809664
775.976	0.13813142
776.16	0.13811052
776.345	0.13814289
776.53	0.13817772
776.715	0.13829326
776.899	0.13840278
777.084	0.13846031
777.269	0.13856611
777.454	0.1386896
777.638	0.13893168
777.823	0.13911735
778.008	0.13932735
778.192	0.13961353
778.377	0.13989902
778.561	0.14010724
778.746	0.14028327
778.931	0.14027669
779.115	0.14028824
779.3	0.14026616
779.484	0.14024402
779.669	0.14032159
779.853	0.14037983
780.037	0.14043562
780.222	0.14056316
780.406	0.14067313
780.591	0.1407679
780.775	0.1408136
780.959	0.14085319
781.144	0.14090726
781.328	0.14103054
781.512	0.1411596
781.697	0.14135962
781.881	0.14168245
782.065	0.14197084
782.249	0.14212004
782.434	0.14229302
782.618	0.14242448
782.802	0.1425093
782.986	0.14248239
783.17	0.1422909
783.354	0.14219978
783.539	0.1422684
783.723	0.14227932
783.907	0.14234244
784.091	0.1424351
784.275	0.14253782
784.459	0.14269046
784.643	0.14278386
784.827	0.14287529
785.011	0.14298406
785.195	0.14306045
785.379	0.14314646
785.563	0.14325492
785.747	0.14337696
785.93	0.14346214
786.114	0.14338636
786.298	0.14328479
786.482	0.14313505
786.666	0.14301206
786.85	0.14299973
787.033	0.14302108
787.217	0.14304911
787.401	0.14318871
787.585	0.14336532
787.768	0.14369135
787.952	0.14396329
788.136	0.14416456
788.319	0.14442138
788.503	0.14465675
788.687	0.14491496
788.87	0.14509442
789.054	0.14513373
789.237	0.14520899
789.421	0.14529968
789.605	0.14527039
789.788	0.14531396
789.972	0.14534932
790.155	0.14546888
790.338	0.14563588
790.522	0.14576732
790.705	0.14586977
790.889	0.14602762
791.072	0.14628827
791.256	0.14651562
791.439	0.14680243
791.622	0.14710694
791.806	0.14747371
791.989	0.1477926
792.172	0.1480748
792.355	0.14812407
792.539	0.14815624
792.722	0.14812407
792.905	0.14805514
793.088	0.14808452
793.271	0.14815424
793.455	0.14827005
793.638	0.1484573
793.821	0.14861184
794.004	0.14878558
794.187	0.14910875
794.37	0.14933675
794.553	0.14953791
794.736	0.14962007
794.919	0.14981996
795.102	0.14999118
795.285	0.15023062
795.468	0.15038312
795.651	0.1505003
795.834	0.15073584
796.017	0.15101201
796.2	0.15121518
796.383	0.15152065
796.566	0.15174603
796.749	0.15188702
796.931	0.15200506
797.114	0.15206291
797.297	0.15223503
797.48	0.15235175
797.663	0.15253818
797.845	0.15272366
798.028	0.15304031
798.211	0.15329961
798.393	0.15360849
798.576	0.15379929
798.759	0.15410675
798.941	0.15431043
799.124	0.15463145
799.307	0.15485252
799.489	0.15511504
799.672	0.15526501
799.854	0.15536295
800.037	0.15537321
800.219	0.15548123
800.402	0.155439
800.584	0.15540413
800.767	0.15545621
800.949	0.15551438
801.132	0.15575916
801.314	0.15598261
801.496	0.15623484
801.679	0.15643641
801.861	0.15659785
802.043	0.15673415
802.226	0.15689142
802.408	0.15688173
802.59	0.1569437
802.772	0.15690279
802.955	0.15706522
803.137	0.15720925
803.319	0.15730696
803.501	0.15734544
803.684	0.15743744
803.866	0.15748547
804.048	0.15763294
804.23	0.1577183
804.412	0.15793031
804.594	0.15807581
804.776	0.15841966
804.958	0.15876386
805.14	0.15913013
805.322	0.15934555
805.504	0.15948203
805.686	0.15942439
805.868	0.15941229
806.05	0.15936054
806.232	0.15937514
806.414	0.1594037
806.596	0.15950868
806.778	0.15953574
806.96	0.15968292
807.141	0.15981205
807.323	0.15983083
807.505	0.15976849
807.687	0.15965741
807.869	0.1594538
808.05	0.15920443
808.232	0.15895347
808.414	0.15871785
808.595	0.15862691
808.777	0.15854432
808.959	0.15853034
809.14	0.15857161
809.322	0.15876197
809.504	0.15906261
809.685	0.15933469
809.867	0.15953173
810.048	0.15968342
810.23	0.15980492
810.411	0.15994037
810.593	0.16011241
810.774	0.1601385
810.956	0.16018327
811.137	0.16009322
811.319	0.16011173
811.5	0.16006021
811.681	0.16002849
811.863	0.15994741
812.044	0.15999234
812.225	0.16011008
812.407	0.16029782
812.588	0.16036737
812.769	0.1604157
812.951	0.16049126
813.132	0.16060071
813.313	0.16061412
813.494	0.16053789
813.675	0.16053519
813.857	0.16066419
814.038	0.16089681
814.219	0.1611138
814.4	0.16137655
814.581	0.16168835
814.762	0.16197955
814.943	0.16222095
815.124	0.16233003
815.305	0.16250539
815.486	0.16267368
815.667	0.16276832
815.848	0.16284813
816.029	0.16294006
816.21	0.16309146
816.391	0.16327771
816.572	0.16329951
816.753	0.16333579
816.934	0.16334131
817.115	0.16327603
817.295	0.16332568
817.476	0.16328243
817.657	0.1633213
817.838	0.16344056
818.019	0.1634506
818.199	0.16344029
818.38	0.16343745
818.561	0.16344183
818.741	0.16344468
818.922	0.16352305
819.103	0.16366251
819.283	0.16394806
819.464	0.16425296
819.645	0.16462416
819.825	0.16487289
820.006	0.16513873
820.186	0.16531866
820.367	0.16548321
820.547	0.16541306
820.728	0.16539304
820.908	0.16533506
821.089	0.16545665
821.269	0.16569848
821.45	0.16595901
821.63	0.1660891
821.81	0.16644618
821.991	0.16675703
822.171	0.16706616
822.351	0.16721537
822.532	0.16730086
822.712	0.16735917
822.892	0.16751302
823.072	0.16754038
823.253	0.16758719
823.433	0.16761998
823.613	0.16774396
823.793	0.16779532
823.973	0.16784037
824.154	0.16784574
824.334	0.16788094
824.514	0.16789638
824.694	0.16800351
824.874	0.16810191
825.054	0.16817863
825.234	0.16825372
825.414	0.16834921
825.594	0.16849381
825.774	0.16860161
825.954	0.16877765
826.134	0.16883453
826.314	0.16896921
826.494	0.1691576
826.674	0.16918114
826.854	0.1691989
827.033	0.16930062
827.213	0.16917779
827.393	0.16914306
827.573	0.16898822
827.753	0.1689588
827.932	0.1690662
828.112	0.16924745
828.292	0.16936297
828.472	0.16948384
828.651	0.16954295
828.831	0.1696695
829.011	0.16963321
829.19	0.1695954
829.37	0.16966979
829.549	0.16982327
829.729	0.17003846
829.909	0.17030561
830.088	0.17060228
830.268	0.17093728
830.447	0.17128334
830.627	0.17135572
830.806	0.17142598
830.986	0.17143238
831.165	0.17150478
831.344	0.17166715
831.524	0.17163182
831.703	0.17167026
831.883	0.17181655
832.062	0.17193082
832.241	0.17208769
832.421	0.17212991
832.6	0.17198736
832.779	0.17202897
832.958	0.17204339
833.138	0.17204883
833.317	0.17216402
833.496	0.17231102
833.675	0.17250647
833.854	0.17275167
834.034	0.17287275
834.213	0.17292287
834.392	0.17296403
834.571	0.17280996
834.75	0.17268424
834.929	0.17266172
835.108	0.17256108
835.287	0.17272137
835.466	0.17279111
835.645	0.17290009
835.824	0.17307856
836.003	0.17317139
836.182	0.17315104
836.361	0.17318597
836.54	0.17296832
836.719	0.17291759
836.897	0.17275052
837.076	0.17262041
837.255	0.17255864
837.434	0.17260757
837.613	0.17259432
837.791	0.1726935
837.97	0.17289688
838.149	0.17305423
838.328	0.17318129
838.506	0.17330084
838.685	0.17327752
838.864	0.17345031
839.042	0.17353808
839.221	0.17353382
839.4	0.17360494
839.578	0.17366235
839.757	0.1737211
839.935	0.17398706
840.114	0.1741845
840.292	0.17445295
840.471	0.17462204
840.649	0.17477366
840.828	0.17490979
841.006	0.17503664
841.185	0.17493032
841.363	0.17480809
841.541	0.17463432
841.72	0.17456007
841.898	0.1743988
842.076	0.17432882
842.255	0.17423532
842.433	0.17428272
842.611	0.17439251
842.789	0.17448516
842.968	0.17444373
843.146	0.1746328
843.324	0.17473075
843.502	0.17488632
843.68	0.17508355
843.859	0.17508941
844.037	0.17504096
844.215	0.17505967
844.393	0.17498817
844.571	0.17499618
844.749	0.17493695
844.927	0.17482
845.105	0.1747396
845.283	0.17482436
845.461	0.17492771
845.639	0.17496868
845.817	0.1750676
845.995	0.17520642
846.173	0.17531932
846.351	0.17539495
846.529	0.17537071
846.706	0.17528649
846.884	0.17532296
847.062	0.17515106
847.24	0.17504923
847.418	0.1748396
847.595	0.17478263
847.773	0.17476668
847.951	0.17472655
848.129	0.17472916
848.306	0.17478449
848.484	0.17482723
848.662	0.17495717
848.839	0.17504653
849.017	0.1752088
849.194	0.1754582
849.372	0.17560014
849.549	0.17573914
849.727	0.1758259
849.905	0.17583448
850.082	0.17585379
850.26	0.1758651
850.437	0.1758109
850.614	0.17577838
850.792	0.17577411
850.969	0.17576917
851.147	0.17590963
851.324	0.17591422
851.501	0.17588228
851.679	0.17585723
851.856	0.17579534
852.033	0.17573711
852.211	0.17558269
852.388	0.17545967
852.565	0.17558458
852.742	0.17561898
852.92	0.17570684
853.097	0.17585133
853.274	0.1760258
853.451	0.17610344
853.628	0.17611337
853.805	0.17598104
853.982	0.17586915
854.159	0.17575817
854.336	0.17554908
854.514	0.17530201
854.691	0.17522674
854.868	0.17515953
855.045	0.17507463
855.221	0.17496429
855.398	0.17478257
855.575	0.17472858
855.752	0.17463439
855.929	0.17470648
856.106	0.1746412
856.283	0.17469165
856.46	0.17479791
856.637	0.17505867
856.813	0.17517197
856.99	0.17537852
857.167	0.17545192
857.344	0.17564084
857.52	0.17577663
857.697	0.17571025
857.874	0.17562817
858.05	0.17558167
858.227	0.17559197
858.404	0.17554115
858.58	0.17547964
858.757	0.17523192
858.933	0.17515379
859.11	0.17485659
859.287	0.174534
859.463	0.17415211
859.64	0.17391264
859.816	0.17368748
859.993	0.17371914
860.169	0.17372405
860.345	0.1738338
860.522	0.17395447
860.698	0.17390129
860.875	0.17381504
861.051	0.1737399
861.227	0.17359884
861.404	0.17362308
861.58	0.17368935
861.756	0.17387266
861.932	0.17424551
862.109	0.17443435
862.285	0.17469692
862.461	0.17492711
862.637	0.17507637
862.813	0.17513353
862.99	0.17504268
863.166	0.17486403
863.342	0.17480417
863.518	0.17452745
863.694	0.17429782
863.87	0.173934
864.046	0.17368524
864.222	0.17365144
864.398	0.17350795
864.574	0.17334005
864.75	0.17337806
864.926	0.17338417
865.102	0.17358612
865.278	0.17366855
865.454	0.17367649
865.63	0.17376292
865.805	0.17381261
865.981	0.17377725
866.157	0.17374136
866.333	0.17362015
866.509	0.1736876
866.684	0.17363531
866.86	0.17370769
867.036	0.17374206
867.212	0.17363507
867.387	0.17351404
867.563	0.17345617
867.739	0.17322599
867.914	0.17313635
868.09	0.17288473
868.265	0.17275651
868.441	0.1726791
868.617	0.17266147
868.792	0.17241134
868.968	0.17231624
869.143	0.17229666
869.319	0.17228786
869.494	0.17230035
869.67	0.17237209
869.845	0.17239657
870.02	0.17261826
870.196	0.17284154
870.371	0.17281007
870.546	0.17279934
870.722	0.17283278
870.897	0.1729642
871.072	0.1729213
871.248	0.1728018
871.423	0.17246832
871.598	0.17217081
871.773	0.17188612
871.949	0.17147377
872.124	0.1710735
872.299	0.17082484
872.474	0.17059543
872.649	0.17039741
872.824	0.17027825
872.999	0.17021999
873.174	0.17022914
873.349	0.17015539
873.524	0.1700519
873.699	0.16994743
873.874	0.16996536
874.049	0.16996141
874.224	0.16994724
874.399	0.16985818
874.574	0.16970538
874.749	0.16952433
874.924	0.1693063
875.099	0.16907993
875.274	0.16884832
875.449	0.16870575
875.623	0.16851994
875.798	0.16830448
875.973	0.16816689
876.148	0.16803886
876.322	0.16790664
876.497	0.16782214
876.672	0.16763226
876.846	0.16740675
877.021	0.16723549
877.196	0.16707426
877.37	0.167083
877.545	0.16716152
877.72	0.16717915
877.894	0.16719854
878.069	0.16717578
878.243	0.16722122
878.418	0.16731135
878.592	0.16734303
878.767	0.16726608
878.941	0.16718778
879.116	0.16698949
879.29	0.16704033
879.464	0.16718322
879.639	0.16734686
879.813	0.16745581
879.987	0.16747344
880.162	0.16734771
880.336	0.16726888
880.51	0.16711022
880.685	0.16667881
880.859	0.16624188
881.033	0.16582828
881.207	0.16554966
881.381	0.16547977
881.556	0.1655374
881.73	0.16546148
881.904	0.16565403
882.078	0.1655794
882.252	0.16551619
882.426	0.16549314
882.6	0.16551085
882.774	0.16538632
882.948	0.16551131
883.122	0.16527357
883.296	0.16532547
883.47	0.16527878
883.644	0.16517227
883.818	0.16488524
883.992	0.16469968
884.166	0.16444782
884.34	0.16434686
884.514	0.16424426
884.687	0.16409766
884.861	0.16394441
885.035	0.16390379
885.209	0.16401274
885.382	0.16407212
885.556	0.16413425
885.73	0.16416221
885.904	0.16429404
886.077	0.16428313
886.251	0.16417391
886.425	0.16401829
886.598	0.16377442
886.772	0.16354818
886.945	0.1632652
887.119	0.16306403
887.292	0.1629139
887.466	0.16293826
887.64	0.1628071
887.813	0.16267337
887.986	0.16265795
888.16	0.16271067
888.333	0.16256334
888.507	0.16264452
888.68	0.16265623
888.854	0.16273252
889.027	0.16280647
889.2	0.16286315
889.374	0.16273409
889.547	0.16275524
889.72	0.16269866
889.893	0.16252086
890.067	0.16227253
890.24	0.16214264
890.413	0.16189091
890.586	0.16180799
890.759	0.16172212
890.933	0.16149613
891.106	0.1612538
891.279	0.16114269
891.452	0.16107906
891.625	0.16095998
891.798	0.16070472
891.971	0.16043068
892.144	0.16014761
892.317	0.15985114
892.49	0.1594137
892.663	0.15910741
892.836	0.1588723
893.009	0.15859963
893.182	0.15822285
893.355	0.15798811
893.527	0.15797518
893.7	0.15809065
893.873	0.15798946
894.046	0.15784124
894.219	0.15785807
894.391	0.15788788
894.564	0.15792308
894.737	0.15774599
894.91	0.15759774
895.082	0.15725506
895.255	0.15696884
895.428	0.15661985
895.6	0.15645703
895.773	0.15611039
895.945	0.15599339
896.118	0.15569003
896.291	0.1557382
896.463	0.15572106
896.636	0.15572853
896.808	0.15560916
896.981	0.15572816
897.153	0.155652
897.326	0.15574247
897.498	0.15554183
897.67	0.15548789
897.843	0.15547596
898.015	0.15539741
898.187	0.15512292
898.36	0.15478327
898.532	0.15440309
898.704	0.15418497
898.877	0.15396736
899.049	0.15369171
899.221	0.15342542
899.393	0.15331621
899.566	0.15339911
899.738	0.15342609
899.91	0.15337115
900.082	0.15344071
900.254	0.15339982
900.426	0.15348493
900.598	0.15356854
900.77	0.15355916
900.942	0.15361679
901.114	0.15357898
901.286	0.15320674
901.458	0.1530445
901.63	0.15281311
901.802	0.15253495
901.974	0.15229661
902.146	0.15205081
902.318	0.15190885
902.49	0.15186847
902.662	0.15174252
902.834	0.15153101
903.005	0.15129211
903.177	0.15101937
903.349	0.15074017
903.521	0.15046236
903.693	0.15027686
903.864	0.15010464
904.036	0.15002007
904.208	0.14990189
904.379	0.14983294
904.551	0.14978063
904.723	0.14957056
904.894	0.14934883
905.066	0.14916151
905.237	0.14882341
905.409	0.14851184
905.58	0.14815246
905.752	0.14789557
905.923	0.14783752
906.095	0.14769247
906.266	0.14753206
906.438	0.14763913
906.609	0.14768062
906.78	0.14765235
906.952	0.14751852
907.123	0.1472686
907.295	0.14709821
907.466	0.14682413
907.637	0.14641398
907.808	0.14602593
907.98	0.14562898
908.151	0.14521738
908.322	0.14485571
908.493	0.14450273
908.665	0.14425216
908.836	0.1440711
909.007	0.1439262
909.178	0.1437521
909.349	0.14365011
909.52	0.14370549
909.691	0.14375912
909.862	0.14375953
910.033	0.1437942
910.204	0.14394644
910.375	0.14410643
910.546	0.14415097
910.717	0.14404312
910.888	0.14407053
911.059	0.14411784
911.23	0.14399321
911.401	0.14374851
911.572	0.14368237
911.742	0.14370068
911.913	0.14378682
912.084	0.14370441
912.255	0.14351454
912.426	0.14346027
912.596	0.14332221
912.767	0.14317398
912.938	0.14299917
913.108	0.14279701
913.279	0.14260335
913.45	0.14245288
913.62	0.14231861
913.791	0.14226081
913.962	0.14218623
914.132	0.14203361
914.303	0.14183971
914.473	0.14170117
914.644	0.14144407
914.814	0.14118449
914.985	0.14091809
915.155	0.14060374
915.326	0.1402744
915.496	0.14008393
915.666	0.13986918
915.837	0.13968478
916.007	0.13938914
916.177	0.13908528
916.348	0.13884471
916.518	0.13865948
916.688	0.13833955
916.858	0.13806491
917.029	0.13788975
917.199	0.13785595
917.369	0.13783349
917.539	0.13780631
917.709	0.13782938
917.88	0.13760644
918.05	0.13745049
918.22	0.13734796
918.39	0.13724643
918.56	0.13707231
918.73	0.13693975
918.9	0.136765
919.07	0.13693661
919.24	0.13703698
919.41	0.1371001
919.58	0.13703539
919.75	0.13712028
919.92	0.13693207
920.09	0.13683311
920.26	0.13664822
920.429	0.13634146
920.599	0.13594853
920.769	0.13559744
920.939	0.13516346
921.109	0.13494867
921.278	0.1347064
921.448	0.134462
921.618	0.13428853
921.787	0.13413716
921.957	0.13405656
922.127	0.13381464
922.296	0.13379293
922.466	0.13355376
922.636	0.13333639
922.805	0.13296358
922.975	0.1326854
923.144	0.13229061
923.314	0.13199257
923.483	0.13142715
923.653	0.13097398
923.822	0.13048238
923.992	0.13021153
924.161	0.13005018
924.331	0.12969546
924.5	0.12947709
924.669	0.12920107
924.839	0.12904468
925.008	0.12894356
925.177	0.12875471
925.347	0.12864531
925.516	0.12869924
925.685	0.12861916
925.854	0.1287502
926.023	0.12888599
926.193	0.12892701
926.362	0.12897829
926.531	0.12881578
926.7	0.12870498
926.869	0.12870146
927.038	0.12837664
927.207	0.12807192
927.376	0.12787016
927.545	0.12770443
927.715	0.12757663
927.884	0.12745629
928.052	0.12735836
928.221	0.12730694
928.39	0.12704553
928.559	0.12674841
928.728	0.12645842
928.897	0.12608403
929.066	0.12575695
929.235	0.12534912
929.404	0.12515984
929.572	0.1250841
929.741	0.12490251
929.91	0.12474257
930.079	0.12449314
930.247	0.12432434
930.416	0.12417575
930.585	0.12387354
930.753	0.12353572
930.922	0.12345248
931.091	0.12337994
931.259	0.12349111
931.428	0.12346018
931.596	0.12346554
931.765	0.12377461
931.934	0.12394839
932.102	0.12389227
932.27	0.12389431
932.439	0.12374638
932.607	0.12370762
932.776	0.12372113
932.944	0.12338824
933.113	0.12332511
933.281	0.1233024
933.449	0.12316336
933.618	0.12312157
933.786	0.12302903
933.954	0.12286755
934.123	0.12285631
934.291	0.12270977
934.459	0.12263133
934.627	0.12238908
934.795	0.12223367
934.964	0.12203578
935.132	0.12192111
935.3	0.12161252
935.468	0.12133114
935.636	0.12110371
935.804	0.12099474
935.972	0.1209505
936.14	0.12083583
936.308	0.12059084
936.476	0.12069459
936.644	0.12075698
936.812	0.12070709
936.98	0.12074072
937.148	0.12055533
937.316	0.12036977
937.484	0.12058334
937.652	0.12058156
937.82	0.12071765
937.987	0.12086367
938.155	0.12082943
938.323	0.1210574
938.491	0.12108029
938.658	0.12107537
938.826	0.12049242
938.994	0.1204593
939.162	0.12036564
939.329	0.12019116
939.497	0.12032455
939.665	0.12055074
939.832	0.12077812
940	0.12105939
940.167	0.12092515
940.335	0.1205106
940.502	0.12028478
940.67	0.11984849
940.837	0.11997902
941.005	0.11912981
941.172	0.11973135
941.34	0.11980029
941.507	0.1201837
941.674	0.12066251
941.842	0.12066276
942.009	0.12082846
942.177	0.12061614
942.344	0.12072179
942.511	0.12064364
942.678	0.12127513
942.846	0.12093242
943.013	0.12133074
943.18	0.12125516
943.347	0.12218143
943.514	0.12143291
943.682	0.12187899
943.849	0.12118264
944.016	0.12050074
944.183	0.11980434
944.35	0.11932244
944.517	0.11905103
944.684	0.11956676
944.851	0.11783876
945.018	0.11747511
945.185	0.11718944
945.352	0.11674618
945.519	0.11594728
945.686	0.11531526
945.853	0.11489409
946.02	0.11507134
946.187	0.11358542
946.353	0.11398664
946.52	0.11377089
946.687	0.11341468
946.854	0.11330307
947.021	0.1129232
947.187	0.11305919
947.354	0.11348478
947.521	0.11351719
947.687	0.11382033
947.854	0.11375903
948.021	0.11247869
948.187	0.11194455
948.354	0.11157271
948.52	0.11154857
948.687	0.11158421
948.854	0.1108665
949.02	0.11054555
949.187	0.11113036
949.353	0.11105387
949.52	0.10985086
949.686	0.10889613
949.852	0.10860401
950.019	0.1083665
950.185	0.10835622
950.352	0.10805099
950.518	0.1072094
950.684	0.10722027
950.851	0.10696288
951.017	0.10555954
951.183	0.10534513
951.349	0.10470834
951.516	0.10391401
951.682	0.10407276
951.848	0.10367837
952.014	0.10299976
952.18	0.10306712
952.346	0.1025021
952.512	0.1018992
952.679	0.10213674
952.845	0.10152414
953.011	0.10132528
953.177	0.10154364
953.343	0.10110422
953.509	0.10072223
953.675	0.10094133
953.841	0.1006952
954.007	0.10083494
954.172	0.10077043
954.338	0.10014451
954.504	0.09979745
954.67	0.09981425
954.836	0.09950127
955.002	0.09895961
955.167	0.09803312
955.333	0.09753886
955.499	0.09771068
955.665	0.09740791
955.83	0.09668432
955.996	0.09580882
956.162	0.09527883
956.327	0.09501581
956.493	0.09453571
956.659	0.09420057
956.824	0.09403154
956.99	0.09370122
957.155	0.09381851
957.321	0.09333344
957.486	0.09291517
957.652	0.09282518
957.817	0.09253001
957.983	0.09191141
958.148	0.09190363
958.314	0.09175109
958.479	0.09152458
958.644	0.09140771
958.81	0.09143897
958.975	0.09124715
959.14	0.09149746
959.306	0.0910905
959.471	0.09090118
959.636	0.09097739
959.801	0.09133744
959.967	0.09113889
960.132	0.09104455
960.297	0.09077104
960.462	0.09102947
960.627	0.09075462
960.792	0.09053793
960.957	0.09015082
961.123	0.08987018
961.288	0.08978958
961.453	0.08954734
961.618	0.08929384
961.783	0.0893509
961.948	0.08933473
962.113	0.0889523
962.277	0.08873653
962.442	0.08853512
962.607	0.08874293
962.772	0.08872679
962.937	0.088067
963.102	0.0877423
963.267	0.08762599
963.431	0.08758669
963.596	0.08742662
963.761	0.0871554
963.926	0.0868287
964.09	0.08695953
964.255	0.08715117
964.42	0.0870708
964.584	0.08699078
964.749	0.08670318
964.914	0.08637832
965.078	0.08623863
965.243	0.08592961
965.407	0.08567689
965.572	0.08575019
965.736	0.08579763
965.901	0.08591053
966.065	0.0860769
966.23	0.08590479
966.394	0.08622194
966.559	0.08601874
966.723	0.08589141
966.887	0.0856668
967.052	0.08534949
967.216	0.08494009
967.38	0.08447743
967.545	0.08436129
967.709	0.08443514
967.873	0.08443994
968.037	0.08408515
968.202	0.08416022
968.366	0.08414879
968.53	0.08435755
968.694	0.08394523
968.858	0.08376019
969.022	0.08343634
969.187	0.08358521
969.351	0.0835436
969.515	0.08367222
969.679	0.08364603
969.843	0.0837461
970.007	0.08368089
970.171	0.08355643
970.335	0.08329866
970.499	0.08300374
970.662	0.08288337
970.826	0.08270507
970.99	0.08282739
971.154	0.08266545
971.318	0.08278212
971.482	0.08246795
971.645	0.08234574
971.809	0.08203303
971.973	0.08172874
972.137	0.08108829
972.3	0.08088286
972.464	0.08065562
972.628	0.08074603
972.791	0.08067995
972.955	0.08046613
973.119	0.08053069
973.282	0.08046135
973.446	0.07985474
973.609	0.07961937
973.773	0.07932082
973.936	0.07895623
974.1	0.07896127
974.263	0.07884221
974.427	0.07884213
974.59	0.07884076
974.754	0.07852175
974.917	0.07846808
975.08	0.0782626
975.244	0.07772479
975.407	0.07738551
975.57	0.07700314
975.734	0.07662611
975.897	0.07628867
976.06	0.07564264
976.223	0.07532641
976.387	0.07506935
976.55	0.07465922
976.713	0.07424289
976.876	0.07445376
977.039	0.0742208
977.202	0.0741252
977.365	0.07412303
977.528	0.07432327
977.692	0.07414142
977.855	0.07394838
978.018	0.07361877
978.181	0.07346863
978.344	0.07336981
978.506	0.07322204
978.669	0.07288889
978.832	0.07308212
978.995	0.07296512
979.158	0.07297203
979.321	0.0730896
979.484	0.07315674
979.646	0.07317666
979.809	0.07306895
979.972	0.07304805
980.135	0.07331205
980.297	0.07329439
980.46	0.07342513
980.623	0.07349304
980.786	0.07331432
980.948	0.07351441
981.111	0.07339322
981.273	0.07335458
981.436	0.07314036
981.599	0.07279954
981.761	0.07252568
981.924	0.07274308
982.086	0.07217672
982.249	0.07193303
982.411	0.07136237
982.573	0.07124887
982.736	0.07129907
982.898	0.07112962
983.061	0.07040375
983.223	0.07063339
983.385	0.0705884
983.548	0.07106795
983.71	0.07087443
983.872	0.07062128
984.034	0.07079804
984.197	0.07099061
984.359	0.07079793
984.521	0.0706027
984.683	0.07005553
984.845	0.07016186
985.008	0.0698428
985.17	0.0693405
985.332	0.06953947
985.494	0.06899711
985.656	0.06870623
985.818	0.06850628
985.98	0.06796054
986.142	0.06759628
986.304	0.06717343
986.466	0.06652973
986.628	0.06664695
986.79	0.06661047
986.952	0.06671538
987.113	0.06665868
987.275	0.06665704
987.437	0.06692752
987.599	0.06683259
987.761	0.0667961
987.922	0.06677616
988.084	0.06667952
988.246	0.0670491
988.408	0.06706955
988.569	0.06697874
988.731	0.06700548
988.893	0.06680958
989.054	0.06688848
989.216	0.06707749
989.377	0.06652937
989.539	0.06674281
989.701	0.06645871
989.862	0.06635878
990.024	0.06615074
990.185	0.06594928
990.347	0.06542183
990.508	0.06543638
990.669	0.06511344
990.831	0.06515346
990.992	0.06526557
991.154	0.06487402
991.315	0.06490811
991.476	0.06477141
991.638	0.06481679
991.799	0.06478147
991.96	0.06469038
992.121	0.06456846
992.283	0.0648077
992.444	0.06421279
992.605	0.06419977
992.766	0.06414307
992.927	0.06361212
993.088	0.06377408
993.249	0.06348202
993.41	0.0632445
993.572	0.0637157
993.733	0.06368531
993.894	0.06331388
994.055	0.06329422
994.216	0.06282632
994.376	0.06248951
994.537	0.06289312
994.698	0.06222324
994.859	0.06164211
995.02	0.0616792
995.181	0.06105836
995.342	0.06124263
995.503	0.06084473
995.663	0.05986083
995.824	0.05965737
995.985	0.06027596
996.146	0.06016159
996.306	0.06033762
996.467	0.05976646
996.628	0.05999597
996.788	0.0607924
996.949	0.06118067
997.11	0.06072262
997.27	0.06007536
997.431	0.06010745
997.591	0.05996164
997.752	0.05973471
997.912	0.05920546
998.073	0.05843333
998.233	0.05849496
998.394	0.05854248
998.554	0.05916098
998.714	0.05924026
998.875	0.05924611
999.035	0.05868942
999.196	0.05884708
999.356	0.05866063
999.516	0.05870326
999.676	0.05810714
999.837	0.05761203
999.997	0.05740256
1000.157	0.05780551
1000.317	0.05701672
1000.477	0.05699763
1000.638	0.05638911
1000.798	0.0563212
1000.958	0.05677469
1001.118	0.05685569
1001.278	0.05661124
1001.438	0.05687986
1001.598	0.05655613
1001.758	0.05706138
1001.918	0.05674952
1002.078	0.05584064
1002.238	0.05594807
1002.398	0.05603464
1002.558	0.05637301
1002.718	0.05597071
1002.878	0.05576567
1003.037	0.05538423
1003.197	0.05631271
1003.357	0.05580251
1003.517	0.05585391
1003.677	0.05554668
1003.836	0.05591113
1003.996	0.05621326
1004.156	0.05671396
1004.315	0.05601037
1004.475	0.05572557
1004.635	0.05586477
1004.794	0.05561966
1004.954	0.05528191
1005.114	0.05440747
1005.273	0.0543075
1005.433	0.05422167
1005.592	0.05409993
1005.752	0.0537335
1005.911	0.05369832
1006.071	0.05352118
1006.23	0.05381872
1006.389	0.05343206
1006.549	0.05353203
1006.708	0.05338635
1006.868	0.05284499
1007.027	0.05354046
1007.186	0.05337868
1007.345	0.05357698
1007.505	0.05347287
1007.664	0.05348169
1007.823	0.05400905
1007.982	0.05411128
1008.142	0.05377849
1008.301	0.053944
1008.46	0.0539698
1008.619	0.05374669
1008.778	0.05425877
1008.937	0.0541932
1009.096	0.05411559
1009.255	0.0537922
1009.414	0.05348147
1009.573	0.05297941
1009.732	0.05387319
1009.891	0.05308563
1010.05	0.05324634
1010.209	0.05349794
1010.368	0.05324833
1010.527	0.05347293
1010.686	0.05375213
1010.845	0.0537075
1011.003	0.05364446
1011.162	0.05293442
1011.321	0.05216407
1011.48	0.05256018
1011.638	0.05282428
1011.797	0.05376025
1011.956	0.0530047
1012.115	0.05325055
1012.273	0.05323031
1012.432	0.05374615
1012.59	0.05331233
1012.749	0.05232404
1012.908	0.05076189
1013.066	0.05108063
1013.225	0.05136381
1013.383	0.05142979
1013.542	0.05179796
1013.7	0.05182394
1013.859	0.0528398
1014.017	0.0536119
1014.175	0.05312177
1014.334	0.05223528
1014.492	0.0524714
1014.65	0.05216562
1014.809	0.05224063
1014.967	0.0511812
1015.125	0.05124909
1015.284	0.05135459
1015.442	0.05143387
1015.6	0.05159231
1015.758	0.05089784
1015.916	0.05142725
1016.075	0.05125013
1016.233	0.05069285
1016.391	0.05011664
1016.549	0.05058195
1016.707	0.05058684
1016.865	0.05124618
1017.023	0.05025126
1017.181	0.05060662
1017.339	0.05049585
1017.497	0.05113128
1017.655	0.05085401
1017.813	0.05141689
1017.971	0.05120523
1018.129	0.051064
1018.286	0.05130704
1018.444	0.05118372
1018.602	0.05136709
1018.76	0.05211665
1018.918	0.05189931
1019.075	0.05188314
1019.233	0.05200259
1019.391	0.0516278
1019.549	0.05176106
1019.706	0.05213131
1019.864	0.05143943
1020.022	0.05138567
1020.179	0.05281952
1020.337	0.05409767
1020.494	0.05449568
1020.652	0.05373034
1020.809	0.05360795
1020.967	0.0542219
1021.124	0.05372103
1021.282	0.05117459
1021.439	0.05046561
1021.597	0.05136214
1021.754	0.05272846
1021.911	0.05325435
1022.069	0.05256145
1022.226	0.05224598
1022.384	0.05395153
1022.541	0.05291337
1022.698	0.05332773
1022.855	0.05314295
1023.013	0.05145474
1023.17	0.05171773
1023.327	0.05333219
1023.484	0.05267642
1023.641	0.0535445
1023.798	0.05361799
1023.956	0.05439556
1024.113	0.05528001
1024.27	0.05514077
1024.427	0.05375867
1024.584	0.05481874
1024.741	0.05565781
1024.898	0.05340844
1025.055	0.0517345
1025.212	0.05132339
1025.369	0.05090914
1025.525	0.05056124
1025.682	0.05067488
1025.839	0.05056173
1025.996	0.05343937
1026.153	0.05441262
1026.31	0.05613817
1026.466	0.05608454
1026.623	0.05842824
1026.78	0.05921447
1026.937	0.05952771
1027.093	0.05723637
1027.25	0.0570484
1027.407	0.05652024
1027.563	0.05832191
1027.72	0.05824524
1027.876	0.05678548
1028.033	0.05748034
1028.19	0.05699805
1028.346	0.05622672
1028.503	0.055627
1028.659	0.0545016
1028.816	0.05115667
1028.972	0.0516516
1029.128	0.05079632
1029.285	0.05027879
1029.441	0.05220848
1029.598	0.05231485
1029.754	0.05353734
1029.91	0.05433352
1030.067	0.05460954
1030.223	0.05639486
1030.379	0.05582775
1030.535	0.05597576
1030.691	0.05605624
1030.848	0.05591074
1031.004	0.05738959
1031.16	0.05868176
1031.316	0.05795026
1031.472	0.06161227
1031.628	0.06069733
1031.784	0.06315735
1031.94	0.06515994
1032.096	0.06553131
1032.252	0.06493495
1032.408	0.0618825
1032.564	0.06022558
1032.72	0.06391649
1032.876	0.06144107
1033.032	0.05792441
1033.188	0.05709706
1033.344	0.0557671
1033.5	0.05827996
1033.655	0.05980158
1033.811	0.05544547
1033.967	0.05567523
