Data from 1_mm_pl_90pc_Absorbance__0__17-24-54-888.txt Node

Date: Wed Mar 08 17:24:54 CET 2023
User: Ange
Spectrometer: FLMT08341
Trigger mode: 0
Integration Time (sec): 1.000000E-2
Scans to average: 400
Electric dark correction enabled: true
Nonlinearity correction enabled: false
Boxcar width: 3
XAxis mode: Wavelengths
Number of Pixels in Spectrum: 3648
>>>>>Begin Spectral Data<<<<<
345.271	0.02830955
345.487	0.00722688
345.704	-0.00019083
345.921	-0.00061076
346.137	0.00581631
346.354	-0.01620217
346.571	-0.05054859
346.787	-0.14608471
347.004	0.03140677
347.22	0.01598073
347.437	0.10109669
347.653	0.1951729
347.87	0.00974214
348.086	0.3971019
348.303	0.08057836
348.519	0.17625726
348.736	0.17108907
348.952	0.17189497
349.169	0.1686803
349.385	0.1745751
349.601	0.17491455
349.818	0.17474664
350.034	0.17038599
350.251	0.16944886
350.467	0.169091
350.683	0.16562779
350.9	0.16484504
351.116	0.16248191
351.332	0.1600493
351.549	0.1672939
351.765	0.16838769
351.981	0.17219319
352.197	0.17878008
352.414	0.18131803
352.63	0.18389781
352.846	0.18932062
353.062	0.18554739
353.278	0.18380193
353.495	0.18467173
353.711	0.18277733
353.927	0.18291654
354.143	0.18339495
354.359	0.18157736
354.575	0.18129683
354.792	0.18485855
355.008	0.18370764
355.224	0.18338197
355.44	0.18317199
355.656	0.18257909
355.872	0.18383332
356.088	0.19027998
356.304	0.19091051
356.52	0.19084562
356.736	0.19227706
356.952	0.19374208
357.168	0.19468043
357.384	0.19772239
357.6	0.19306386
357.816	0.19660594
358.032	0.19935692
358.248	0.20169694
358.464	0.20342699
358.679	0.20624718
358.895	0.20469736
359.111	0.2076462
359.327	0.20251697
359.543	0.20312364
359.759	0.20771139
359.974	0.204967
360.19	0.20317331
360.406	0.20385468
360.622	0.20135861
360.838	0.20254394
361.053	0.20302465
361.269	0.20083574
361.485	0.2026824
361.701	0.2044847
361.916	0.20300581
362.132	0.20491032
362.348	0.20644079
362.563	0.20672389
362.779	0.20542495
362.995	0.20627648
363.21	0.20647447
363.426	0.20730765
363.641	0.2067639
363.857	0.20827412
364.073	0.20780991
364.288	0.20645836
364.504	0.20930613
364.719	0.21055134
364.935	0.21118369
365.15	0.21268615
365.366	0.21250272
365.581	0.21466028
365.797	0.21702361
366.012	0.21542592
366.228	0.21364574
366.443	0.21521671
366.658	0.21491025
366.874	0.21271183
367.089	0.21315439
367.305	0.21306049
367.52	0.21361869
367.735	0.21446922
367.951	0.21311392
368.166	0.21456082
368.381	0.21909596
368.597	0.21843841
368.812	0.22033421
369.027	0.22086568
369.243	0.22201486
369.458	0.22600814
369.673	0.22679221
369.888	0.22603669
370.104	0.22557705
370.319	0.22731458
370.534	0.22622735
370.749	0.22581419
370.964	0.22583335
371.179	0.22489653
371.395	0.22369423
371.61	0.22552127
371.825	0.22315175
372.04	0.22352225
372.255	0.22333952
372.47	0.22214111
372.685	0.22113598
372.9	0.22159435
373.115	0.22019467
373.33	0.22057133
373.545	0.22187632
373.76	0.2226679
373.975	0.22109679
374.19	0.22066048
374.405	0.22092887
374.62	0.22275913
374.835	0.22365944
375.05	0.22373705
375.265	0.22396699
375.48	0.22481164
375.695	0.22796026
375.91	0.22674918
376.125	0.22448555
376.339	0.22306796
376.554	0.22215362
376.769	0.22260887
376.984	0.22206865
377.199	0.22193673
377.414	0.22277362
377.628	0.22436626
377.843	0.22602025
378.058	0.22677855
378.273	0.22652472
378.487	0.22741428
378.702	0.22643359
378.917	0.22659944
379.131	0.22551648
379.346	0.22305407
379.561	0.22219173
379.775	0.2219925
379.99	0.22109308
380.205	0.2197165
380.419	0.21825565
380.634	0.21736664
380.848	0.21825519
381.063	0.21792621
381.278	0.21864934
381.492	0.21765656
381.707	0.21872622
381.921	0.21858326
382.136	0.21984496
382.35	0.21932577
382.565	0.21829782
382.779	0.21733941
382.994	0.21788677
383.208	0.21684896
383.422	0.21765182
383.637	0.21663797
383.851	0.21716285
384.066	0.21802129
384.28	0.21807784
384.494	0.2177565
384.709	0.218693
384.923	0.21866953
385.137	0.21794785
385.352	0.21759955
385.566	0.21677343
385.78	0.21632734
385.995	0.21571852
386.209	0.2144831
386.423	0.21501647
386.637	0.21507868
386.852	0.21379252
387.066	0.2139443
387.28	0.21290621
387.494	0.21331203
387.708	0.21344032
387.923	0.21180254
388.137	0.2116584
388.351	0.21183135
388.565	0.2119357
388.779	0.21167112
388.993	0.21201752
389.207	0.2112416
389.421	0.21127124
389.635	0.21035091
389.85	0.2094123
390.064	0.20894628
390.278	0.20940835
390.492	0.20888331
390.706	0.20897793
390.92	0.20853253
391.134	0.20910809
391.348	0.21016862
391.561	0.20951777
391.775	0.20834036
391.989	0.20698361
392.203	0.20628878
392.417	0.20626713
392.631	0.20662339
392.845	0.20576616
393.059	0.20565162
393.273	0.20525644
393.486	0.20457837
393.7	0.20416873
393.914	0.20379666
394.128	0.20263947
394.342	0.20175554
394.555	0.20036038
394.769	0.19980826
394.983	0.20006422
395.197	0.19958875
395.41	0.1991455
395.624	0.19882494
395.838	0.19842482
396.051	0.19936771
396.265	0.19835349
396.479	0.19790756
396.692	0.19771093
396.906	0.19651661
397.12	0.19588117
397.333	0.19597408
397.547	0.19465651
397.76	0.19498944
397.974	0.19464463
398.187	0.19449922
398.401	0.19452539
398.614	0.19407933
398.828	0.19341351
399.041	0.19302465
399.255	0.1922408
399.468	0.19135619
399.682	0.19038663
399.895	0.19036652
400.109	0.18979994
400.322	0.18905431
400.536	0.1884495
400.749	0.18843152
400.962	0.18809432
401.176	0.1878346
401.389	0.1872825
401.602	0.1862891
401.816	0.18586076
402.029	0.18566702
402.242	0.1850709
402.456	0.18474527
402.669	0.18401728
402.882	0.18271298
403.095	0.18319517
403.309	0.18276031
403.522	0.18240944
403.735	0.18157352
403.948	0.1810801
404.161	0.18119938
404.375	0.18080722
404.588	0.17982733
404.801	0.17914094
405.014	0.17827823
405.227	0.17837011
405.44	0.17805541
405.653	0.17731251
405.866	0.17710689
406.079	0.17661703
406.293	0.17600346
406.506	0.17580542
406.719	0.17509812
406.932	0.17391855
407.145	0.17312716
407.358	0.17310055
407.571	0.17228588
407.784	0.1722927
407.996	0.17181997
408.209	0.17102837
408.422	0.1708603
408.635	0.17073754
408.848	0.16991332
409.061	0.16932745
409.274	0.16868092
409.487	0.16816187
409.7	0.16788678
409.912	0.16753066
410.125	0.16684454
410.338	0.16626731
410.551	0.16604627
410.764	0.16533263
410.976	0.16472099
411.189	0.16434595
411.402	0.16368224
411.615	0.16345531
411.827	0.16323674
412.04	0.16275485
412.253	0.16245045
412.465	0.16214316
412.678	0.16162105
412.891	0.16178346
413.103	0.16088839
413.316	0.16037077
413.529	0.16031163
413.741	0.16025032
413.954	0.15996713
414.166	0.15971763
414.379	0.15896173
414.591	0.15895201
414.804	0.15840369
415.016	0.1576647
415.229	0.15699838
415.441	0.15655065
415.654	0.15606564
415.866	0.15567048
416.079	0.15529031
416.291	0.15505127
416.504	0.15491147
416.716	0.15465502
416.928	0.15407316
417.141	0.15361348
417.353	0.15340728
417.566	0.15267597
417.778	0.15226663
417.99	0.15167988
418.203	0.15124029
418.415	0.15094467
418.627	0.15059975
418.839	0.15016937
419.052	0.15018343
419.264	0.14965684
419.476	0.14932571
419.688	0.14879968
419.901	0.14827513
420.113	0.14784917
420.325	0.1474444
420.537	0.14676077
420.749	0.14661491
420.961	0.14658596
421.174	0.14603337
421.386	0.14570396
421.598	0.14541637
421.81	0.14494694
422.022	0.14448121
422.234	0.1439923
422.446	0.14327818
422.658	0.14290785
422.87	0.14249126
423.082	0.14185763
423.294	0.1413804
423.506	0.14115942
423.718	0.14070935
423.93	0.14020182
424.142	0.13982635
424.354	0.13941671
424.566	0.13920811
424.778	0.13897169
424.99	0.13862873
425.202	0.13827853
425.414	0.13800977
425.625	0.13786727
425.837	0.13748112
426.049	0.137279
426.261	0.13683468
426.473	0.13625536
426.684	0.13604855
426.896	0.13570862
427.108	0.13525747
427.32	0.1350242
427.531	0.13467269
427.743	0.13446766
427.955	0.1344796
428.167	0.13381629
428.378	0.13343679
428.59	0.13320853
428.802	0.13292609
429.013	0.13252532
429.225	0.13214561
429.436	0.13179535
429.648	0.13185883
429.86	0.13180024
430.071	0.13156273
430.283	0.13132978
430.494	0.13126973
430.706	0.1310851
430.917	0.13073968
431.129	0.13050127
431.34	0.12999074
431.552	0.12961312
431.763	0.12923161
431.975	0.12879466
432.186	0.12832933
432.398	0.12811581
432.609	0.12732714
432.821	0.12710122
433.032	0.12690265
433.243	0.12656116
433.455	0.12620369
433.666	0.12593644
433.877	0.12567294
434.089	0.12562966
434.3	0.12540765
434.511	0.12478984
434.723	0.12447455
434.934	0.12415273
435.145	0.12395064
435.356	0.12359194
435.568	0.12344004
435.779	0.1231149
435.99	0.12283139
436.201	0.12277651
436.412	0.12236419
436.624	0.12205047
436.835	0.12165355
437.046	0.12113928
437.257	0.12075224
437.468	0.12065654
437.679	0.11997079
437.89	0.11965137
438.101	0.11952607
438.312	0.11936244
438.523	0.11906151
438.734	0.11890581
438.945	0.1186474
439.156	0.11844143
439.367	0.11840152
439.578	0.11798363
439.789	0.11747669
440	0.11729561
440.211	0.11697354
440.422	0.11676643
440.633	0.11661304
440.844	0.11617785
441.055	0.11578504
441.266	0.11575579
441.477	0.11538362
441.687	0.11502942
441.898	0.11464963
442.109	0.1142422
442.32	0.11396548
442.531	0.1136807
442.741	0.11318889
442.952	0.11304051
443.163	0.11278295
443.374	0.11264218
443.584	0.11250745
443.795	0.11235478
444.006	0.11224577
444.216	0.11209901
444.427	0.11164012
444.638	0.11145543
444.848	0.11108973
445.059	0.11085826
445.27	0.11052759
445.48	0.11001381
445.691	0.10976244
445.901	0.10978555
446.112	0.10954983
446.323	0.10931472
446.533	0.109113
446.744	0.1088788
446.954	0.10881827
447.165	0.10864265
447.375	0.10844114
447.586	0.10824464
447.796	0.10803203
448.006	0.10782467
448.217	0.10773882
448.427	0.10762515
448.638	0.10734853
448.848	0.10715842
449.058	0.10690523
449.269	0.10680744
449.479	0.10657426
449.689	0.10638215
449.9	0.10618768
450.11	0.10597586
450.32	0.10581249
450.531	0.1057658
450.741	0.10552822
450.951	0.10548701
451.161	0.10525966
451.372	0.10500116
451.582	0.10509085
451.792	0.10482426
452.002	0.1044957
452.212	0.10433887
452.422	0.1042443
452.633	0.10410812
452.843	0.10418976
453.053	0.10385547
453.263	0.1037337
453.473	0.10363792
453.683	0.10355959
453.893	0.10335958
454.103	0.10334531
454.313	0.10320495
454.523	0.1032743
454.733	0.10321426
454.943	0.1032909
455.153	0.10310215
455.363	0.10294344
455.573	0.10287181
455.783	0.10271224
455.993	0.10244409
456.203	0.10239865
456.413	0.10229217
456.623	0.10229496
456.833	0.10245086
457.042	0.1022513
457.252	0.10215567
457.462	0.10208205
457.672	0.10194389
457.882	0.10173496
458.091	0.10160391
458.301	0.1011678
458.511	0.10111925
458.721	0.10101299
458.931	0.10111251
459.14	0.10115007
459.35	0.10117904
459.56	0.10127617
459.769	0.10151467
459.979	0.10156919
460.189	0.1015897
460.398	0.10153197
460.608	0.10160588
460.817	0.10157036
461.027	0.10153438
461.237	0.10140509
461.446	0.10124016
461.656	0.10124519
461.865	0.10116748
462.075	0.10101669
462.284	0.10103475
462.494	0.10100436
462.703	0.10090595
462.913	0.10111302
463.122	0.10113264
463.332	0.10116347
463.541	0.10130271
463.751	0.10137278
463.96	0.10136204
464.169	0.10152108
464.379	0.10151285
464.588	0.10160125
464.797	0.10171183
465.007	0.10175803
465.216	0.10182983
465.425	0.10201912
465.635	0.10224222
465.844	0.10239518
466.053	0.10253143
466.263	0.10257306
466.472	0.10261817
466.681	0.10264726
466.89	0.10263894
467.099	0.10266952
467.309	0.10270438
467.518	0.10291369
467.727	0.1031171
467.936	0.10319111
468.145	0.10341449
468.354	0.10359275
468.563	0.10375564
468.772	0.10378072
468.982	0.10382892
469.191	0.10403326
469.4	0.10417765
469.609	0.10429752
469.818	0.10442454
470.027	0.10462999
470.236	0.1048614
470.445	0.10487709
470.654	0.10490534
470.863	0.10505018
471.072	0.10525873
471.28	0.10534296
471.489	0.10548668
471.698	0.10576789
471.907	0.1060629
472.116	0.10630933
472.325	0.10659939
472.534	0.10681375
472.743	0.10721917
472.951	0.10751196
473.16	0.10775681
473.369	0.10801371
473.578	0.10827377
473.786	0.10861418
473.995	0.10890465
474.204	0.10918112
474.413	0.10936485
474.621	0.10972683
474.83	0.11014922
475.039	0.11041818
475.247	0.11065916
475.456	0.11099071
475.665	0.11128362
475.873	0.11158261
476.082	0.11170784
476.291	0.11195452
476.499	0.11236079
476.708	0.11264112
476.916	0.1129952
477.125	0.11337874
477.333	0.113781
477.542	0.11426058
477.75	0.11453492
477.959	0.11482825
478.167	0.11528601
478.376	0.11555551
478.584	0.11589203
478.793	0.11631364
479.001	0.11671413
479.209	0.11713543
479.418	0.11757401
479.626	0.11796274
479.834	0.11843311
480.043	0.11887602
480.251	0.11932731
480.459	0.11973693
480.668	0.12025528
480.876	0.12068348
481.084	0.12109299
481.293	0.1215246
481.501	0.12203008
481.709	0.12251807
481.917	0.12292616
482.125	0.12335861
482.334	0.12386345
482.542	0.12439764
482.75	0.12494705
482.958	0.12536502
483.166	0.12583272
483.374	0.12644962
483.583	0.12697253
483.791	0.12746867
483.999	0.12799934
484.207	0.12852949
484.415	0.1291413
484.623	0.12964939
484.831	0.13012166
485.039	0.13063495
485.247	0.13125796
485.455	0.13179832
485.663	0.13235801
485.871	0.13285505
486.079	0.13337039
486.287	0.13394462
486.495	0.13446887
486.702	0.13489867
486.91	0.13541211
487.118	0.13592987
487.326	0.13653348
487.534	0.13716409
487.742	0.13785869
487.95	0.13845362
488.157	0.13913732
488.365	0.13977585
488.573	0.14048733
488.781	0.1411652
488.988	0.14185346
489.196	0.14247088
489.404	0.14310067
489.612	0.14380341
489.819	0.14453192
490.027	0.14513312
490.235	0.14574275
490.442	0.14641391
490.65	0.14701926
490.857	0.14786968
491.065	0.14863379
491.273	0.14937494
491.48	0.15022357
491.688	0.15102317
491.895	0.15183272
492.103	0.15261644
492.31	0.15328629
492.518	0.15388734
492.725	0.15454873
492.933	0.1551494
493.14	0.15579651
493.348	0.1564259
493.555	0.15706703
493.763	0.15771431
493.97	0.15854872
494.177	0.15936514
494.385	0.16015613
494.592	0.1610127
494.8	0.16180419
495.007	0.16269205
495.214	0.16353303
495.422	0.16435387
495.629	0.16517861
495.836	0.16603107
496.043	0.16688893
496.251	0.16775466
496.458	0.16858615
496.665	0.16940143
496.872	0.17020747
497.08	0.17106233
497.287	0.17182665
497.494	0.172579
497.701	0.1733605
497.908	0.17423121
498.115	0.17502417
498.322	0.17585587
498.53	0.17661237
498.737	0.17749718
498.944	0.178358
499.151	0.17924031
499.358	0.18011237
499.565	0.18102623
499.772	0.1819124
499.979	0.18285409
500.186	0.18383488
500.393	0.18472011
500.6	0.18557787
500.807	0.18642083
501.014	0.18732566
501.221	0.18825518
501.427	0.18914919
501.634	0.19005707
501.841	0.1909765
502.048	0.19190956
502.255	0.19281842
502.462	0.19375998
502.669	0.19464676
502.875	0.19557719
503.082	0.19644486
503.289	0.19734503
503.496	0.198313
503.702	0.19931054
503.909	0.20031353
504.116	0.20138378
504.323	0.20236348
504.529	0.20334536
504.736	0.20441831
504.943	0.20539951
505.149	0.20641173
505.356	0.20738709
505.563	0.20828754
505.769	0.20929309
505.976	0.21026137
506.182	0.21125072
506.389	0.21225069
506.595	0.21326145
506.802	0.21425414
507.008	0.21525103
507.215	0.21618347
507.421	0.21717464
507.628	0.21813575
507.834	0.21911129
508.041	0.22005191
508.247	0.22099996
508.454	0.22205933
508.66	0.22313487
508.866	0.22409611
509.073	0.22510089
509.279	0.22612215
509.486	0.22708097
509.692	0.22808824
509.898	0.22902459
510.105	0.2300434
510.311	0.23113135
510.517	0.23218304
510.723	0.2332189
510.93	0.23425264
511.136	0.23530224
511.342	0.23636749
511.548	0.23731274
511.754	0.23827058
511.961	0.23928067
512.167	0.24028318
512.373	0.24134185
512.579	0.24234153
512.785	0.24341393
512.991	0.2445085
513.197	0.2457014
513.404	0.2468438
513.61	0.24796613
513.816	0.24897251
514.022	0.25005694
514.228	0.25106609
514.434	0.25208611
514.64	0.25305589
514.846	0.25404594
515.052	0.2550435
515.258	0.25609313
515.464	0.25720051
515.669	0.25828979
515.875	0.25942494
516.081	0.26051424
516.287	0.26160768
516.493	0.26280453
516.699	0.26392811
516.905	0.26497028
517.111	0.26603924
517.316	0.26702399
517.522	0.26798358
517.728	0.26903127
517.934	0.26999294
518.139	0.2709743
518.345	0.27191415
518.551	0.27292073
518.757	0.27388508
518.962	0.27488292
519.168	0.27589932
519.374	0.27686568
519.579	0.27792255
519.785	0.27909262
519.991	0.28020069
520.196	0.28138706
520.402	0.28250337
520.607	0.28359004
520.813	0.28477061
521.018	0.28580112
521.224	0.28672504
521.429	0.28773001
521.635	0.28871469
521.84	0.28968639
522.046	0.29063078
522.251	0.29155542
522.457	0.29256713
522.662	0.29365061
522.868	0.29463216
523.073	0.29557057
523.279	0.29665437
523.484	0.29770128
523.689	0.29877309
523.895	0.29977273
524.1	0.30081062
524.305	0.30188724
524.511	0.30297982
524.716	0.3040857
524.921	0.30515262
525.126	0.30614223
525.332	0.30714985
525.537	0.30807682
525.742	0.30903607
525.947	0.30999154
526.153	0.31088181
526.358	0.31180864
526.563	0.31273192
526.768	0.31376168
526.973	0.31481181
527.178	0.31584671
527.383	0.31681653
527.588	0.3177108
527.794	0.31857555
527.999	0.319584
528.204	0.32045985
528.409	0.32131134
528.614	0.32222776
528.819	0.32311994
529.024	0.32399139
529.229	0.32490171
529.434	0.32580539
529.639	0.32674413
529.843	0.3276468
530.048	0.32852443
530.253	0.32946592
530.458	0.33050567
530.663	0.33147881
530.868	0.33240899
531.073	0.33326935
531.278	0.33406738
531.482	0.33489036
531.687	0.33574817
531.892	0.33654428
532.097	0.33736664
532.302	0.33817217
532.506	0.33903875
532.711	0.33992704
532.916	0.34085207
533.12	0.3417889
533.325	0.34265854
533.53	0.34351605
533.734	0.34435548
533.939	0.34521519
534.144	0.34614901
534.348	0.34695331
534.553	0.34772868
534.757	0.34856947
534.962	0.34940009
535.167	0.35028791
535.371	0.35106832
535.576	0.35191979
535.78	0.35274048
535.985	0.35354697
536.189	0.35428801
536.394	0.35506857
536.598	0.35584546
536.803	0.35670804
537.007	0.35739565
537.211	0.35818827
537.416	0.35887054
537.62	0.35958217
537.825	0.36033208
538.029	0.3611678
538.233	0.3619025
538.438	0.36279505
538.642	0.36350194
538.846	0.36435403
539.05	0.36516474
539.255	0.36586947
539.459	0.36644554
539.663	0.36703656
539.867	0.36761844
540.072	0.3682871
540.276	0.36891666
540.48	0.36966937
540.684	0.3703869
540.888	0.37127772
541.092	0.37205088
541.297	0.37280404
541.501	0.37348587
541.705	0.37416139
541.909	0.37468951
542.113	0.37524288
542.317	0.37575145
542.521	0.3764238
542.725	0.37706824
542.929	0.37772142
543.133	0.37833077
543.337	0.37906774
543.541	0.37977447
543.745	0.38028486
543.949	0.38082245
544.153	0.38131646
544.357	0.38186255
544.56	0.38251257
544.764	0.38304443
544.968	0.38362493
545.172	0.38428209
545.376	0.38489455
545.58	0.38550276
545.783	0.38611298
545.987	0.38650527
546.191	0.38700852
546.395	0.38752982
546.598	0.38810402
546.802	0.38865146
547.006	0.38914498
547.21	0.38949357
547.413	0.39008206
547.617	0.39060878
547.821	0.39111803
548.024	0.39161791
548.228	0.39198918
548.431	0.39245212
548.635	0.3931119
548.839	0.39359213
549.042	0.39410865
549.246	0.39449779
549.449	0.3948871
549.653	0.39542174
549.856	0.39590192
550.06	0.39622525
550.263	0.3967329
550.467	0.39718708
550.67	0.39776023
550.874	0.39821677
551.077	0.3986798
551.28	0.39915115
551.484	0.39966933
551.687	0.40005404
551.891	0.40052736
552.094	0.40088059
552.297	0.40132696
552.501	0.40177347
552.704	0.40218136
552.907	0.40252592
553.11	0.40288793
553.314	0.40315854
553.517	0.4033973
553.72	0.40370527
553.923	0.40406741
554.127	0.40448531
554.33	0.40479247
554.533	0.40512273
554.736	0.40536767
554.939	0.40574811
555.142	0.40596231
555.345	0.40616045
555.549	0.40630779
555.752	0.40653169
555.955	0.40672447
556.158	0.4070946
556.361	0.40736406
556.564	0.40771894
556.767	0.40804128
556.97	0.40836313
557.173	0.40870683
557.376	0.4090738
557.579	0.40929034
557.782	0.40959433
557.984	0.40986783
558.187	0.41009129
558.39	0.41024825
558.593	0.41049226
558.796	0.41068407
558.999	0.41087444
559.202	0.41100512
559.404	0.41108858
559.607	0.41124104
559.81	0.41149587
560.013	0.41165124
560.216	0.41188537
560.418	0.41212948
560.621	0.41243411
560.824	0.41267019
561.026	0.41287695
561.229	0.41299646
561.432	0.41316964
561.634	0.41323984
561.837	0.41332371
562.04	0.41336516
562.242	0.41352224
562.445	0.41358628
562.647	0.41370638
562.85	0.41373523
563.053	0.41380309
563.255	0.41390171
563.458	0.4139866
563.66	0.41403673
563.863	0.41413901
564.065	0.41417734
564.268	0.41425013
564.47	0.41433482
564.672	0.41432069
564.875	0.41440591
565.077	0.41444397
565.28	0.41448264
565.482	0.41456876
565.684	0.41467885
565.887	0.41475163
566.089	0.41488523
566.291	0.41492213
566.494	0.41497894
566.696	0.41506101
566.898	0.41514843
567.1	0.41517189
567.303	0.41517605
567.505	0.41509062
567.707	0.41499574
567.909	0.41490469
568.111	0.41486879
568.314	0.41470364
568.516	0.41464219
568.718	0.41456384
568.92	0.41454979
569.122	0.41451599
569.324	0.41449585
569.526	0.41431602
569.728	0.41431096
569.93	0.41429151
570.132	0.41431886
570.334	0.41432264
570.536	0.41416998
570.738	0.41401091
570.94	0.41394709
571.142	0.41388172
571.344	0.41365037
571.546	0.41341306
571.748	0.41327085
571.95	0.4131816
572.152	0.41309221
572.354	0.41305969
572.555	0.4129338
572.757	0.41294803
572.959	0.41285873
573.161	0.41265498
573.363	0.41250066
573.564	0.41238301
573.766	0.41210766
573.968	0.41190669
574.17	0.41155801
574.371	0.41136805
574.573	0.41112905
574.775	0.41087909
574.976	0.41060954
575.178	0.41038868
575.38	0.41007011
575.581	0.40972771
575.783	0.40938957
575.985	0.40915038
576.186	0.40892215
576.388	0.40869931
576.589	0.40841202
576.791	0.4082799
576.992	0.4081514
577.194	0.40798371
577.395	0.40774238
577.597	0.40753339
577.798	0.40728494
578	0.40701917
578.201	0.40680987
578.402	0.40658866
578.604	0.40616875
578.805	0.40586058
579.007	0.40561294
579.208	0.40533432
579.409	0.40510661
579.611	0.40468783
579.812	0.40440496
580.013	0.40421536
580.215	0.40379878
580.416	0.40344819
580.617	0.40311839
580.818	0.40285528
581.019	0.40258812
581.221	0.40222936
581.422	0.40190777
581.623	0.40170894
581.824	0.40129827
582.025	0.40093572
582.226	0.4005582
582.428	0.40012719
582.629	0.39962732
582.83	0.39919485
583.031	0.39872526
583.232	0.39832522
583.433	0.39790889
583.634	0.39734663
583.835	0.39696915
584.036	0.3965902
584.237	0.39608539
584.438	0.39562221
584.639	0.39513471
584.84	0.39469336
585.041	0.39428141
585.242	0.3936715
585.442	0.39324495
585.643	0.39295261
585.844	0.39257131
586.045	0.39220711
586.246	0.39168944
586.447	0.39122176
586.647	0.39081186
586.848	0.39027277
587.049	0.38959468
587.25	0.3890033
587.45	0.38841794
587.651	0.38795865
587.852	0.38740729
588.053	0.38700335
588.253	0.38652846
588.454	0.38616819
588.655	0.38577594
588.855	0.38531012
589.056	0.38480743
589.256	0.38441468
589.457	0.38385174
589.658	0.38335756
589.858	0.38274517
590.059	0.38229188
590.259	0.38191963
590.46	0.38145266
590.66	0.38083615
590.861	0.38028952
591.061	0.37965289
591.262	0.37916585
591.462	0.37851877
591.662	0.37775538
591.863	0.37702809
592.063	0.37647054
592.264	0.37593311
592.464	0.37545796
592.664	0.3749381
592.865	0.37451536
593.065	0.37396679
593.265	0.37351782
593.465	0.37293795
593.666	0.37233045
593.866	0.37168867
594.066	0.37110083
594.266	0.37035696
594.467	0.36973786
594.667	0.36904668
594.867	0.36844294
595.067	0.36780016
595.267	0.36715202
595.467	0.36648768
595.668	0.36584589
595.868	0.36527151
596.068	0.36469261
596.268	0.36406535
596.468	0.36356171
596.668	0.36306383
596.868	0.36244091
597.068	0.36191031
597.268	0.36137964
597.468	0.36079833
597.668	0.3601576
597.868	0.3594996
598.068	0.35890099
598.268	0.35831838
598.467	0.35777156
598.667	0.35706017
598.867	0.35632802
599.067	0.35578187
599.267	0.35515325
599.467	0.35438907
599.667	0.35366085
599.866	0.35287175
600.066	0.35218569
600.266	0.35148244
600.466	0.35069953
600.665	0.35005355
600.865	0.34935511
601.065	0.34867916
601.264	0.34794255
601.464	0.34723573
601.664	0.34657178
601.863	0.34582821
602.063	0.34505814
602.263	0.3442376
602.462	0.34354473
602.662	0.34282237
602.861	0.34211833
603.061	0.34149101
603.26	0.34085513
603.46	0.34021648
603.659	0.33968446
603.859	0.3390775
604.058	0.33845389
604.258	0.33790682
604.457	0.33733435
604.657	0.33661566
604.856	0.33572119
605.056	0.33498745
605.255	0.33413118
605.454	0.3334051
605.654	0.33253183
605.853	0.33172524
606.052	0.33102421
606.252	0.33044368
606.451	0.3297849
606.65	0.32920171
606.849	0.32837472
607.049	0.32767028
607.248	0.3268779
607.447	0.32607803
607.646	0.3254071
607.845	0.32468776
608.045	0.32377678
608.244	0.3231744
608.443	0.32246065
608.642	0.32177106
608.841	0.32099178
609.04	0.32014538
609.239	0.31929745
609.438	0.3185542
609.637	0.31777495
609.836	0.31692055
610.035	0.31613842
610.234	0.31538875
610.433	0.31464547
610.632	0.31387373
610.831	0.31322157
611.03	0.31241952
611.229	0.31184043
611.428	0.3111439
611.627	0.31051815
611.826	0.30989351
612.025	0.30936917
612.224	0.30855738
612.422	0.30786472
612.621	0.30708445
612.82	0.30635095
613.019	0.30558701
613.218	0.30483707
613.416	0.30393292
613.615	0.303272
613.814	0.3025712
614.012	0.30181378
614.211	0.3010124
614.41	0.30031797
614.608	0.29954064
614.807	0.29872911
615.006	0.29802901
615.204	0.29728165
615.403	0.29667587
615.602	0.2960336
615.8	0.29536772
615.999	0.29453508
616.197	0.29391495
616.396	0.29316609
616.594	0.29240123
616.793	0.29155734
616.991	0.29073757
617.19	0.28981191
617.388	0.2891915
617.586	0.28841598
617.785	0.2875758
617.983	0.28675945
618.182	0.28596801
618.38	0.28513225
618.578	0.28446931
618.777	0.2837455
618.975	0.28313789
619.173	0.2825352
619.372	0.28188635
619.57	0.28109511
619.768	0.2805105
619.966	0.27977637
620.165	0.2789641
620.363	0.27816168
620.561	0.27724196
620.759	0.27647038
620.957	0.27581874
621.155	0.27506533
621.354	0.2742651
621.552	0.27365025
621.75	0.27290729
621.948	0.27240377
622.146	0.27170056
622.344	0.27094499
622.542	0.27019034
622.74	0.26944656
622.938	0.2685074
623.136	0.26771848
623.334	0.2669339
623.532	0.26616576
623.73	0.26552151
623.928	0.26491504
624.126	0.26432262
624.324	0.26382336
624.522	0.26314677
624.719	0.26237889
624.917	0.26177536
625.115	0.26101326
625.313	0.26041516
625.511	0.25978684
625.708	0.25893928
625.906	0.25816041
626.104	0.25748297
626.302	0.25670949
626.499	0.25597258
626.697	0.25497641
626.895	0.253888
627.093	0.25305324
627.29	0.25227
627.488	0.25143222
627.686	0.25068782
627.883	0.24974524
628.081	0.24886178
628.278	0.24838594
628.476	0.24769414
628.673	0.2470377
628.871	0.24637261
629.068	0.24559373
629.266	0.24506206
629.463	0.24449962
629.661	0.24376422
629.858	0.24304176
630.056	0.242304
630.253	0.24152093
630.451	0.24080382
630.648	0.23992272
630.845	0.23916645
631.043	0.23839018
631.24	0.23773646
631.438	0.23703294
631.635	0.23635263
631.832	0.23553673
632.029	0.23495323
632.227	0.23420608
632.424	0.23343409
632.621	0.23265709
632.818	0.23185648
633.016	0.23112533
633.213	0.23049121
633.41	0.22982468
633.607	0.22915831
633.804	0.22846691
634.001	0.22764662
634.199	0.22693993
634.396	0.22623605
634.593	0.22537048
634.79	0.2246631
634.987	0.22387647
635.184	0.22317723
635.381	0.22266501
635.578	0.22207812
635.775	0.22135468
635.972	0.22080919
636.169	0.22003072
636.366	0.21939845
636.563	0.21872879
636.76	0.21787603
636.957	0.21711691
637.153	0.21636669
637.35	0.21574663
637.547	0.21513233
637.744	0.21444063
637.941	0.21386394
638.138	0.21338271
638.334	0.21273517
638.531	0.21221051
638.728	0.21164596
638.925	0.21109629
639.121	0.21050671
639.318	0.20978482
639.515	0.20898183
639.711	0.20832432
639.908	0.20751004
640.105	0.206714
640.301	0.20595947
640.498	0.2053149
640.695	0.2047148
640.891	0.20417255
641.088	0.20358567
641.284	0.20302003
641.481	0.20246828
641.677	0.20182891
641.874	0.20109987
642.07	0.20047891
642.267	0.19981541
642.463	0.19913325
642.66	0.19859247
642.856	0.19789072
643.053	0.19725067
643.249	0.19675337
643.445	0.19619682
643.642	0.19557908
643.838	0.1950304
644.034	0.19442
644.231	0.19377688
644.427	0.19322496
644.623	0.19261338
644.82	0.19202257
645.016	0.19142396
645.212	0.19077198
645.408	0.19015347
645.604	0.18973328
645.801	0.18912474
645.997	0.18840872
646.193	0.1877485
646.389	0.18727002
646.585	0.18677732
646.781	0.18627228
646.977	0.18573165
647.173	0.18517643
647.37	0.18470799
647.566	0.18416925
647.762	0.18362348
647.958	0.18311043
648.154	0.18246955
648.35	0.18181843
648.546	0.1812048
648.742	0.18075989
648.937	0.18008576
649.133	0.17950515
649.329	0.1789563
649.525	0.17842406
649.721	0.17789453
649.917	0.17741997
650.113	0.1767126
650.309	0.17631546
650.504	0.17571939
650.7	0.1751377
650.896	0.17470233
651.092	0.17427354
651.287	0.17386062
651.483	0.17349207
651.679	0.17292545
651.875	0.17253418
652.07	0.17201973
652.266	0.17144302
652.462	0.17083918
652.657	0.17022566
652.853	0.16967702
653.048	0.16921639
653.244	0.16863251
653.44	0.16819877
653.635	0.16763891
653.831	0.16724462
654.026	0.16689826
654.222	0.16642565
654.417	0.16600155
654.613	0.16546715
654.808	0.16486774
655.004	0.16438506
655.199	0.16371409
655.394	0.1630498
655.59	0.16252452
655.785	0.16187127
655.98	0.16140894
656.176	0.16091875
656.371	0.1606297
656.566	0.16025124
656.762	0.1597722
656.957	0.15934821
657.152	0.15903372
657.348	0.15869531
657.543	0.1584255
657.738	0.15791975
657.933	0.15752916
658.128	0.15716514
658.324	0.15675296
658.519	0.15634685
658.714	0.15588887
658.909	0.15530976
659.104	0.15481697
659.299	0.15431108
659.494	0.15380091
659.689	0.15325018
659.884	0.15265714
660.079	0.15202305
660.274	0.15151398
660.469	0.15100237
660.664	0.15053495
660.859	0.15012657
661.054	0.14976528
661.249	0.1493893
661.444	0.14903133
661.639	0.14855489
661.834	0.14809417
662.029	0.14772289
662.224	0.14733551
662.418	0.14685468
662.613	0.14645013
662.808	0.14598397
663.003	0.14564294
663.198	0.14520871
663.392	0.14467705
663.587	0.14426839
663.782	0.14376132
663.977	0.14319612
664.171	0.14285407
664.366	0.1424236
664.561	0.14211288
664.755	0.14181835
664.95	0.14146453
665.144	0.14120204
665.339	0.14105212
665.534	0.14078072
665.728	0.14056508
665.923	0.14018752
666.117	0.13978743
666.312	0.13931264
666.506	0.13898957
666.701	0.1385276
666.895	0.1381075
667.09	0.13756957
667.284	0.13727375
667.479	0.1369031
667.673	0.13657571
667.867	0.13621436
668.062	0.13590062
668.256	0.13555497
668.45	0.13537042
668.645	0.13500652
668.839	0.13469853
669.033	0.13432782
669.228	0.13393116
669.422	0.13362265
669.616	0.13331395
669.81	0.13298539
670.004	0.13267273
670.199	0.13241929
670.393	0.13226355
670.587	0.13201686
670.781	0.13164412
670.975	0.13129617
671.169	0.13087394
671.363	0.13048032
671.558	0.13011269
671.752	0.12978975
671.946	0.12955507
672.14	0.12929107
672.334	0.12890782
672.528	0.12866834
672.722	0.12835131
672.916	0.12809831
673.11	0.1276813
673.304	0.12739229
673.497	0.12705597
673.691	0.12684307
673.885	0.12645248
674.079	0.12615975
674.273	0.12570607
674.467	0.12535034
674.661	0.12493264
674.854	0.12466293
675.048	0.1244381
675.242	0.12427668
675.436	0.12410884
675.629	0.12400492
675.823	0.12378598
676.017	0.12360409
676.211	0.12337924
676.404	0.12304355
676.598	0.12280158
676.792	0.1225815
676.985	0.12230636
677.179	0.12209564
677.372	0.12178942
677.566	0.12150436
677.76	0.12124872
677.953	0.12089098
678.147	0.12059556
678.34	0.12044289
678.534	0.12027965
678.727	0.1200858
678.921	0.11993774
679.114	0.11978253
679.307	0.11966927
679.501	0.11948495
679.694	0.11921979
679.888	0.11895411
680.081	0.11877441
680.274	0.11842078
680.468	0.11820512
680.661	0.11795021
680.854	0.11770962
681.048	0.11739204
681.241	0.11705736
681.434	0.11672486
681.627	0.1164679
681.821	0.11613836
682.014	0.11588697
682.207	0.1155858
682.4	0.11535279
682.593	0.11519774
682.786	0.11501075
682.98	0.11483645
683.173	0.11470388
683.366	0.11451872
683.559	0.11435995
683.752	0.11421077
683.945	0.11406363
684.138	0.11393335
684.331	0.11375197
684.524	0.11356759
684.717	0.11332351
684.91	0.11317371
685.103	0.11299164
685.296	0.11273795
685.489	0.1124301
685.682	0.11222402
685.874	0.11195657
686.067	0.11174778
686.26	0.11155019
686.453	0.11134968
686.646	0.11118064
686.839	0.11110702
687.031	0.11100732
687.224	0.11092826
687.417	0.11094663
687.61	0.11082852
687.802	0.11075462
687.995	0.11069628
688.188	0.11060563
688.38	0.11048874
688.573	0.11042558
688.766	0.11025953
688.958	0.11007847
689.151	0.10986376
689.343	0.10978651
689.536	0.10970017
689.729	0.10962776
689.921	0.10953891
690.114	0.10948497
690.306	0.10949172
690.499	0.10958209
690.691	0.10951861
690.884	0.1093879
691.076	0.10929591
691.268	0.1091201
691.461	0.10889325
691.653	0.10870432
691.846	0.10847171
692.038	0.10829074
692.23	0.10812942
692.423	0.10798366
692.615	0.10790908
692.807	0.10787033
692.999	0.10780171
693.192	0.10771102
693.384	0.10758758
693.576	0.10751321
693.768	0.10749037
693.961	0.10740039
694.153	0.10734615
694.345	0.10734897
694.537	0.1074029
694.729	0.10751084
694.921	0.10758382
695.113	0.10747618
695.305	0.10738038
695.498	0.10726294
695.69	0.10711911
695.882	0.1068783
696.074	0.10662256
696.266	0.10637864
696.458	0.10621487
696.65	0.10618038
696.842	0.10622075
697.033	0.106316
697.225	0.10641556
697.417	0.10651345
697.609	0.10657199
697.801	0.10656858
697.993	0.10648622
698.185	0.1062923
698.376	0.10606026
698.568	0.10591335
698.76	0.10581053
698.952	0.10578506
699.144	0.10586302
699.335	0.10595248
699.527	0.10607382
699.719	0.10614537
699.91	0.10620794
700.102	0.10616292
700.294	0.10616106
700.485	0.10616323
700.677	0.10611125
700.869	0.10613819
701.06	0.10618345
701.252	0.10615911
701.443	0.10621521
701.635	0.10621365
701.826	0.10619487
702.018	0.10624184
702.209	0.10627897
702.401	0.10631445
702.592	0.10643634
702.784	0.10656763
702.975	0.10671618
703.166	0.10691595
703.358	0.10698766
703.549	0.10693049
703.741	0.10686507
703.932	0.10674489
704.123	0.1066373
704.315	0.10655127
704.506	0.10641621
704.697	0.1063292
704.888	0.10642075
705.08	0.10653273
705.271	0.10663592
705.462	0.10664146
705.653	0.10659598
705.844	0.10657959
706.035	0.10663995
706.227	0.1066159
706.418	0.10663283
706.609	0.10662779
706.8	0.10670767
706.991	0.10681337
707.182	0.1069804
707.373	0.10705721
707.564	0.10714151
707.755	0.10717873
707.946	0.1073278
708.137	0.10738642
708.328	0.10738769
708.519	0.10734991
708.71	0.10733079
708.901	0.10729335
709.092	0.1073896
709.283	0.10738169
709.473	0.10745284
709.664	0.10760962
709.855	0.10765889
710.046	0.10780612
710.237	0.10790341
710.427	0.10784575
710.618	0.1078324
710.809	0.10785326
711	0.10783707
711.19	0.10789072
711.381	0.10790385
711.572	0.10793135
711.762	0.10806242
711.953	0.10821262
712.144	0.10832415
712.334	0.10842049
712.525	0.1085282
712.715	0.10859265
712.906	0.10863224
713.097	0.1086636
713.287	0.10867666
713.478	0.10878337
713.668	0.1089686
713.859	0.10918159
714.049	0.10944681
714.239	0.10977695
714.43	0.1099314
714.62	0.11013078
714.811	0.11025893
715.001	0.11033954
715.191	0.11035004
715.382	0.11033484
715.572	0.11043881
715.762	0.11069742
715.953	0.11093323
716.143	0.11105839
716.333	0.11123173
716.523	0.11147039
716.714	0.11173037
716.904	0.11189326
717.094	0.11209527
717.284	0.11220755
717.474	0.11241772
717.664	0.11260787
717.855	0.11279778
718.045	0.11294764
718.235	0.11312838
718.425	0.11332738
718.615	0.11354292
718.805	0.11371875
718.995	0.11385809
719.185	0.1140021
719.375	0.11412779
719.565	0.11423718
719.755	0.11423326
719.945	0.11431448
720.135	0.11449114
720.325	0.1146696
720.515	0.11488861
720.704	0.11509954
720.894	0.11528433
721.084	0.11553065
721.274	0.1158084
721.464	0.11599647
721.654	0.11626686
721.843	0.11640204
722.033	0.11667628
722.223	0.116899
722.413	0.11712745
722.602	0.11725705
722.792	0.11742764
722.982	0.11757344
723.171	0.1177675
723.361	0.11788504
723.55	0.11809421
723.74	0.11822978
723.93	0.11841804
724.119	0.1186521
724.309	0.11885463
724.498	0.1190952
724.688	0.11933648
724.877	0.11956914
725.067	0.11978663
725.256	0.11997237
725.446	0.12022959
725.635	0.1203445
725.825	0.12055397
726.014	0.12076084
726.203	0.12091906
726.393	0.12108929
726.582	0.12127376
726.771	0.12142533
726.961	0.12166814
727.15	0.121875
727.339	0.12204424
727.529	0.12226074
727.718	0.12245917
727.907	0.1227055
728.096	0.12292846
728.286	0.1231148
728.475	0.12325899
728.664	0.12343045
728.853	0.12359696
729.042	0.12384161
729.231	0.12402883
729.42	0.12416899
729.609	0.12429995
729.799	0.12441316
729.988	0.12459211
730.177	0.1247096
730.366	0.1247981
730.555	0.12491136
730.744	0.12497415
730.933	0.12509918
731.122	0.12517878
731.31	0.1252518
731.499	0.12536529
731.688	0.12554003
731.877	0.12582321
732.066	0.12621279
732.255	0.12662758
732.444	0.12708676
732.632	0.12748457
732.821	0.12788788
733.01	0.12823008
733.199	0.12845796
733.388	0.12858737
733.576	0.12878394
733.765	0.12901424
733.954	0.12927457
734.142	0.12956652
734.331	0.1298898
734.52	0.13017849
734.708	0.13050317
734.897	0.13079867
735.086	0.13109518
735.274	0.13135154
735.463	0.13157796
735.651	0.13180461
735.84	0.13211284
736.028	0.13240135
736.217	0.13261296
736.405	0.13277643
736.594	0.13298269
736.782	0.13320615
736.971	0.1333908
737.159	0.13354021
737.347	0.13376082
737.536	0.13389184
737.724	0.13401514
737.912	0.13410485
738.101	0.13419584
738.289	0.13433519
738.477	0.13451531
738.666	0.13455087
738.854	0.13477068
739.042	0.13505517
739.23	0.13536325
739.418	0.13573817
739.607	0.13610937
739.795	0.13638259
739.983	0.1368146
740.171	0.13715989
740.359	0.13750816
740.547	0.13789517
740.735	0.13823327
740.923	0.1385656
741.112	0.13905132
741.3	0.13942968
741.488	0.13983094
741.676	0.14018271
741.864	0.14046927
742.052	0.14075233
742.239	0.14096634
742.427	0.14106281
742.615	0.14119498
742.803	0.14140808
742.991	0.1416606
743.179	0.14193019
743.367	0.1421544
743.555	0.14239781
743.742	0.14268335
743.93	0.14301367
744.118	0.1432417
744.306	0.14352015
744.494	0.14388439
744.681	0.14430191
744.869	0.14472933
745.057	0.14505529
745.244	0.14537164
745.432	0.14564831
745.62	0.14589325
745.807	0.14613797
745.995	0.14637436
746.182	0.14667956
746.37	0.14708277
746.558	0.14741441
746.745	0.14782573
746.933	0.14822699
747.12	0.1485616
747.308	0.14883279
747.495	0.14904648
747.683	0.14926439
747.87	0.14955206
748.057	0.14985469
748.245	0.15018289
748.432	0.15038451
748.62	0.15067815
748.807	0.1510281
748.994	0.1513678
749.182	0.15171724
749.369	0.15199417
749.556	0.15223189
749.743	0.15260004
749.931	0.1529644
750.118	0.15333248
750.305	0.15361059
750.492	0.15382316
750.68	0.15420897
750.867	0.15463805
751.054	0.15498951
751.241	0.15531653
751.428	0.15553308
751.615	0.15581068
751.802	0.15616082
751.989	0.15634821
752.176	0.1564967
752.363	0.15661602
752.55	0.15676342
752.737	0.15702434
752.924	0.15733601
753.111	0.15763772
753.298	0.1580011
753.485	0.1584221
753.672	0.15887087
753.859	0.15929098
754.046	0.15966484
754.233	0.1599623
754.42	0.16034583
754.606	0.16063826
754.793	0.16078742
754.98	0.16103479
755.167	0.16123095
755.353	0.16155605
755.54	0.16191658
755.727	0.16222617
755.914	0.16258657
756.1	0.16298
756.287	0.16337204
756.474	0.16375449
756.66	0.16395736
756.847	0.16408475
757.033	0.16415391
757.22	0.16418881
757.407	0.16431172
757.593	0.16440612
757.78	0.16460079
757.966	0.16484819
758.153	0.16513172
758.339	0.16538477
758.526	0.1657393
758.712	0.16603437
758.898	0.16641631
759.085	0.16674976
759.271	0.16721501
759.458	0.16770164
759.644	0.16822625
759.83	0.1687021
760.017	0.1691686
760.203	0.16965451
760.389	0.17006488
760.576	0.17041233
760.762	0.17071888
760.948	0.17101491
761.134	0.17129241
761.32	0.17160107
761.507	0.17183955
761.693	0.17220846
761.879	0.17257497
762.065	0.17301469
762.251	0.17349693
762.437	0.17402786
762.623	0.17453613
762.809	0.17496258
762.995	0.17528301
763.181	0.17554738
763.367	0.17580347
763.553	0.17599604
763.739	0.17609057
763.925	0.17623913
764.111	0.1764645
764.297	0.17675744
764.483	0.17699688
764.669	0.17726297
764.855	0.17761148
765.041	0.17797186
765.227	0.17829824
765.412	0.17863906
765.598	0.17904428
765.784	0.17956558
765.97	0.18006636
766.156	0.18049267
766.341	0.18101096
766.527	0.18153719
766.713	0.18205439
766.898	0.18249708
767.084	0.18277614
767.27	0.18296507
767.455	0.18319865
767.641	0.18341194
767.827	0.18355502
768.012	0.18366674
768.198	0.18381175
768.383	0.18412069
768.569	0.18452752
768.754	0.18498404
768.94	0.18540899
769.125	0.18586876
769.311	0.1863386
769.496	0.18680308
769.682	0.18722392
769.867	0.18763339
770.052	0.18791253
770.238	0.18814976
770.423	0.18853321
770.608	0.18892425
770.794	0.18928721
770.979	0.18958978
771.164	0.18996346
771.35	0.19030845
771.535	0.19070269
771.72	0.19097827
771.905	0.19128273
772.09	0.19143772
772.276	0.19173783
772.461	0.19196519
772.646	0.19232342
772.831	0.19274183
773.016	0.19318795
773.201	0.1936201
773.386	0.19424429
773.571	0.19473748
773.756	0.19520701
773.941	0.19562156
774.126	0.19606602
774.311	0.19648042
774.496	0.19688359
774.681	0.19728178
774.866	0.19769811
775.051	0.19809405
775.236	0.19854535
775.421	0.19885006
775.606	0.19914033
775.791	0.1993964
775.976	0.19953176
776.16	0.19964283
776.345	0.19982924
776.53	0.20000081
776.715	0.20023308
776.899	0.2004145
777.084	0.20057376
777.269	0.20088073
777.454	0.20109956
777.638	0.20141059
777.823	0.20175132
778.008	0.20213295
778.192	0.20261998
778.377	0.20304041
778.561	0.20337076
778.746	0.20376579
778.931	0.20405481
779.115	0.20429212
779.3	0.20445982
779.484	0.20461848
779.669	0.20480735
779.853	0.20500546
780.037	0.20518838
780.222	0.20529635
780.406	0.20540026
780.591	0.2055055
780.775	0.20563148
780.959	0.20581893
781.144	0.20599958
781.328	0.20622848
781.512	0.2065381
781.697	0.20682073
781.881	0.20713437
782.065	0.20738945
782.249	0.20752048
782.434	0.20769834
782.618	0.20780638
782.802	0.20793172
782.986	0.20806638
783.17	0.20822356
783.354	0.20831677
783.539	0.20862932
783.723	0.20883509
783.907	0.20911265
784.091	0.20942751
784.275	0.20966363
784.459	0.20981257
784.643	0.21004788
784.827	0.21018177
785.011	0.21033355
785.195	0.21052421
785.379	0.21062181
785.563	0.21082659
785.747	0.21104228
785.93	0.21124557
786.114	0.21132761
786.298	0.21131237
786.482	0.21129083
786.666	0.2113378
786.85	0.21142007
787.033	0.21161561
787.217	0.21177627
787.401	0.21210836
787.585	0.2126148
787.768	0.21308242
787.952	0.21342463
788.136	0.21382809
788.319	0.21408379
788.503	0.21444054
788.687	0.21475578
788.87	0.21497298
789.054	0.21522426
789.237	0.21558098
789.421	0.21581024
789.605	0.21606224
789.788	0.21624948
789.972	0.21645731
790.155	0.21674849
790.338	0.21705786
790.522	0.21728396
790.705	0.2175344
790.889	0.21795425
791.072	0.21841139
791.256	0.2188158
791.439	0.21926168
791.622	0.21972335
791.806	0.2202248
791.989	0.22065565
792.172	0.22090404
792.355	0.22107921
792.539	0.22122291
792.722	0.22134908
792.905	0.22135058
793.088	0.22142029
793.271	0.22157024
793.455	0.22183779
793.638	0.22218866
793.821	0.22250401
794.004	0.22282531
794.187	0.22332069
794.37	0.22380953
794.553	0.22421425
794.736	0.22446863
794.919	0.22468997
795.102	0.2248775
795.285	0.22510388
795.468	0.22518548
795.651	0.2253158
795.834	0.22553702
796.017	0.22590821
796.2	0.22627633
796.383	0.22671853
796.566	0.22713512
796.749	0.2274639
796.931	0.22779871
797.114	0.22812132
797.297	0.22839775
797.48	0.22864753
797.663	0.22902276
797.845	0.22929738
798.028	0.2297405
798.211	0.23011172
798.393	0.23051324
798.576	0.23091572
798.759	0.23122992
798.941	0.23163396
799.124	0.23207989
799.307	0.23249466
799.489	0.23287855
799.672	0.23314454
799.854	0.23329783
800.037	0.23355988
800.219	0.23370619
800.402	0.23388226
800.584	0.23401665
800.767	0.23426987
800.949	0.2346167
801.132	0.23507849
801.314	0.23548823
801.496	0.23590567
801.679	0.23621549
801.861	0.2365018
802.043	0.23660013
802.226	0.23668407
802.408	0.23670316
802.59	0.23677754
802.772	0.23686256
802.955	0.23711628
803.137	0.23737198
803.319	0.23761541
803.501	0.23781239
803.684	0.23798685
803.866	0.23807604
804.048	0.23812201
804.23	0.23817877
804.412	0.23838022
804.594	0.23854169
804.776	0.23874883
804.958	0.23895009
805.14	0.23919033
805.322	0.23935067
805.504	0.23955484
805.686	0.23950366
805.868	0.23954772
806.05	0.23956947
806.232	0.23971144
806.414	0.23991534
806.596	0.24012729
806.778	0.24016349
806.96	0.24042891
807.141	0.24052713
807.323	0.24073644
807.505	0.24069723
807.687	0.2406599
807.869	0.24061833
808.05	0.24052299
808.232	0.24029402
808.414	0.24024547
808.595	0.24015787
808.777	0.24025052
808.959	0.24041535
809.14	0.240513
809.322	0.24069016
809.504	0.24105303
809.685	0.24140539
809.867	0.2416576
810.048	0.24179969
810.23	0.24179488
810.411	0.24191226
810.593	0.24201583
810.774	0.24198381
810.956	0.24188852
811.137	0.24184582
811.319	0.24198426
811.5	0.24213948
811.681	0.24222914
811.863	0.24232669
812.044	0.24249672
812.225	0.24276856
812.407	0.24295775
812.588	0.24305848
812.769	0.24320719
812.951	0.24335128
813.132	0.24351771
813.313	0.24365941
813.494	0.24366942
813.675	0.24382761
813.857	0.24401537
814.038	0.24423987
814.219	0.244533
814.4	0.24488339
814.581	0.2453215
814.762	0.24569105
814.943	0.24598358
815.124	0.2461825
815.305	0.24631482
815.486	0.2465046
815.667	0.24657778
815.848	0.24655226
816.029	0.24664714
816.21	0.24676443
816.391	0.24694553
816.572	0.24700602
816.753	0.24707504
816.934	0.24713049
817.115	0.2471289
817.295	0.24723632
817.476	0.24721334
817.657	0.24725442
817.838	0.24746126
818.019	0.24761775
818.199	0.24777526
818.38	0.24797566
818.561	0.24812076
818.741	0.24832669
818.922	0.24861304
819.103	0.24890535
819.283	0.24916937
819.464	0.24943052
819.645	0.24969895
819.825	0.24989928
820.006	0.25012109
820.186	0.25027542
820.367	0.25049445
820.547	0.25059418
820.728	0.25078514
820.908	0.25095836
821.089	0.25125818
821.269	0.25154925
821.45	0.25195816
821.63	0.25208822
821.81	0.25245319
821.991	0.25280981
822.171	0.25317312
822.351	0.25340409
822.532	0.25376215
822.712	0.25396574
822.892	0.2543775
823.072	0.25454439
823.253	0.25473916
823.433	0.25492088
823.613	0.25518301
823.793	0.25536603
823.973	0.25555751
824.154	0.25561797
824.334	0.25571727
824.514	0.25575569
824.694	0.25596453
824.874	0.25609871
825.054	0.25625087
825.234	0.25636573
825.414	0.25644304
825.594	0.25661861
825.774	0.25682298
825.954	0.25697407
826.134	0.25718158
826.314	0.25731596
826.494	0.25755461
826.674	0.25771665
826.854	0.25789708
827.033	0.25816909
827.213	0.25826287
827.393	0.25835372
827.573	0.25847382
827.753	0.25862597
827.932	0.2589843
828.112	0.2593437
828.292	0.25947489
828.472	0.25954856
828.651	0.25967275
828.831	0.25973421
829.011	0.25978355
829.19	0.25976664
829.37	0.25990867
829.549	0.26015441
829.729	0.26040437
829.909	0.26056014
830.088	0.26093981
830.268	0.26110648
830.447	0.26133137
830.627	0.26145795
830.806	0.26152156
830.986	0.26170805
831.165	0.26197821
831.344	0.26216746
831.524	0.26233948
831.703	0.26255156
831.883	0.26255688
832.062	0.26269471
832.241	0.26274087
832.421	0.26278466
832.6	0.26274458
832.779	0.26286676
832.958	0.26294867
833.138	0.26308796
833.317	0.2632867
833.496	0.26357019
833.675	0.26382293
833.854	0.26409994
834.034	0.26421344
834.213	0.2642505
834.392	0.26450556
834.571	0.26454974
834.75	0.26455685
834.929	0.26469155
835.108	0.26465453
835.287	0.26485459
835.466	0.26497556
835.645	0.264952
835.824	0.26495906
836.003	0.26502725
836.182	0.26482928
836.361	0.2646479
836.54	0.26434555
836.719	0.2641706
836.897	0.26404605
837.076	0.26406041
837.255	0.26399621
837.434	0.2641506
837.613	0.26434045
837.791	0.2645906
837.97	0.26491124
838.149	0.2649998
838.328	0.264994
838.506	0.26506898
838.685	0.26512723
838.864	0.26531659
839.042	0.26540802
839.221	0.26558561
839.4	0.26593672
839.578	0.26627443
839.757	0.2664797
839.935	0.2667563
840.114	0.26699503
840.292	0.26720219
840.471	0.26734889
840.649	0.26737285
840.828	0.26739372
841.006	0.26756674
841.185	0.26752425
841.363	0.26753767
841.541	0.26750909
841.72	0.26741081
841.898	0.26732277
842.076	0.26725602
842.255	0.26711244
842.433	0.26717775
842.611	0.26712937
842.789	0.26714474
842.968	0.26720496
843.146	0.26736074
843.324	0.26748088
843.502	0.26765182
843.68	0.26768806
843.859	0.26770636
844.037	0.26771002
844.215	0.26760952
844.393	0.26746629
844.571	0.26740945
844.749	0.26731827
844.927	0.26725261
845.105	0.26715491
845.283	0.26715867
845.461	0.2672187
845.639	0.26725259
845.817	0.26738026
845.995	0.26761551
846.173	0.26781296
846.351	0.26796415
846.529	0.2680859
846.706	0.26809484
846.884	0.26818505
847.062	0.26796915
847.24	0.26777921
847.418	0.26754006
847.595	0.26749057
847.773	0.26743756
847.951	0.26742495
848.129	0.26744153
848.306	0.26760628
848.484	0.26757706
848.662	0.26776584
848.839	0.26800638
849.017	0.26828213
849.194	0.26851503
849.372	0.26878733
849.549	0.26907642
849.727	0.26948049
849.905	0.26964039
850.082	0.26965303
850.26	0.26961213
850.437	0.26967398
850.614	0.26958282
850.792	0.26949911
850.969	0.26941007
851.147	0.26942921
851.324	0.26937872
851.501	0.26936127
851.679	0.26924928
851.856	0.26918851
852.033	0.26910655
852.211	0.2689507
852.388	0.26874768
852.565	0.26887161
852.742	0.26886955
852.92	0.26905291
853.097	0.26923743
853.274	0.26939268
853.451	0.26941717
853.628	0.26944934
853.805	0.26929463
853.982	0.26923687
854.159	0.26899791
854.336	0.26875947
854.514	0.26860305
854.691	0.2685075
854.868	0.26845903
855.045	0.26836395
855.221	0.26828939
855.398	0.26818009
855.575	0.26811215
855.752	0.26798671
855.929	0.26799392
856.106	0.26788847
856.283	0.26779097
856.46	0.267715
856.637	0.26783141
856.813	0.26786394
856.99	0.26790761
857.167	0.26794926
857.344	0.26805993
857.52	0.26824607
857.697	0.26814901
857.874	0.26798967
858.05	0.26790153
858.227	0.26790613
858.404	0.26790382
858.58	0.26792543
858.757	0.26783007
858.933	0.26792886
859.11	0.26785448
859.287	0.26758324
859.463	0.26726294
859.64	0.26706494
859.816	0.26685864
859.993	0.26679095
860.169	0.26675835
860.345	0.26682786
860.522	0.26701923
860.698	0.26698442
860.875	0.26687909
861.051	0.26674356
861.227	0.26657299
861.404	0.26656139
861.58	0.26654961
861.756	0.26658753
861.932	0.26684951
862.109	0.26687646
862.285	0.26711325
862.461	0.2673412
862.637	0.26739783
862.813	0.26741591
862.99	0.26727842
863.166	0.267085
863.342	0.26716705
863.518	0.266897
863.694	0.26671325
863.87	0.26636301
864.046	0.26619507
864.222	0.26610661
864.398	0.26596763
864.574	0.26560439
864.75	0.26561429
864.926	0.26558288
865.102	0.26576042
865.278	0.26563303
865.454	0.26565798
865.63	0.26564872
865.805	0.2656655
865.981	0.2656145
866.157	0.26547605
866.333	0.26522771
866.509	0.26537022
866.684	0.26548394
866.86	0.26568854
867.036	0.26594474
867.212	0.26590862
867.387	0.26584644
867.563	0.2658419
867.739	0.26566179
867.914	0.26561153
868.09	0.26533594
868.265	0.26523502
868.441	0.26516574
868.617	0.26508367
868.792	0.26489503
868.968	0.26480664
869.143	0.26469585
869.319	0.26481202
869.494	0.26463672
869.67	0.26473107
869.845	0.26476835
870.02	0.26487677
870.196	0.26491847
870.371	0.26467455
870.546	0.26434875
870.722	0.26440048
870.897	0.26427457
871.072	0.26413007
871.248	0.26402569
871.423	0.2637803
871.598	0.2636199
871.773	0.26335122
871.949	0.2630062
872.124	0.26283309
872.299	0.26269355
872.474	0.26252825
872.649	0.26239646
872.824	0.26228505
872.999	0.26240126
873.174	0.26228793
873.349	0.26197384
873.524	0.26165412
873.699	0.26135604
873.874	0.2611504
874.049	0.26092861
874.224	0.26053115
874.399	0.26026411
874.574	0.26013304
874.749	0.26004655
874.924	0.25997953
875.099	0.25981829
875.274	0.25974982
875.449	0.25983706
875.623	0.25963711
875.798	0.25930477
875.973	0.25894459
876.148	0.25860431
876.322	0.25825174
876.497	0.25781068
876.672	0.25745458
876.846	0.25725086
877.021	0.25702966
877.196	0.25687875
877.37	0.25685634
877.545	0.25684572
877.72	0.25681737
877.894	0.25678794
878.069	0.25657385
878.243	0.25647975
878.418	0.25654313
878.592	0.25653103
878.767	0.25656768
878.941	0.25665194
879.116	0.25643954
879.29	0.25652223
879.464	0.25655382
879.639	0.25658255
879.813	0.25648507
879.987	0.25619074
880.162	0.25582751
880.336	0.2557318
880.51	0.25539256
880.685	0.25510401
880.859	0.25468712
881.033	0.25435901
881.207	0.25415334
881.381	0.25405271
881.556	0.25386548
881.73	0.25380481
881.904	0.25375169
882.078	0.25349584
882.252	0.25331026
882.426	0.2531247
882.6	0.25293718
882.774	0.25281087
882.948	0.25275694
883.122	0.25242631
883.296	0.25225356
883.47	0.25197167
883.644	0.25182789
883.818	0.25149806
883.992	0.25114721
884.166	0.25096914
884.34	0.25097821
884.514	0.25109997
884.687	0.2511645
884.861	0.25112481
885.035	0.25121531
885.209	0.25142938
885.382	0.25137949
885.556	0.25138826
885.73	0.25131023
885.904	0.251209
886.077	0.25099208
886.251	0.25079162
886.425	0.25061463
886.598	0.2503576
886.772	0.25001723
886.945	0.24964755
887.119	0.24933393
887.292	0.24922079
887.466	0.24932356
887.64	0.24910601
887.813	0.24909839
887.986	0.24917279
888.16	0.24932024
888.333	0.24936408
888.507	0.24939829
888.68	0.24913679
888.854	0.249129
889.027	0.24903253
889.2	0.24903244
889.374	0.24875787
889.547	0.24849726
889.72	0.24825739
889.893	0.24789251
890.067	0.24747296
890.24	0.24707034
890.413	0.24658202
890.586	0.24619707
890.759	0.24609138
890.933	0.24593535
891.106	0.24580953
891.279	0.24571824
891.452	0.24564461
891.625	0.24548066
891.798	0.24537019
891.971	0.2451733
892.144	0.24482472
892.317	0.24471771
892.49	0.24428076
892.663	0.24392845
892.836	0.24366167
893.009	0.24337048
893.182	0.24289988
893.355	0.24268786
893.527	0.24232771
893.7	0.24229277
893.873	0.24218662
894.046	0.24196054
894.219	0.24188763
894.391	0.24195912
894.564	0.24203209
894.737	0.24189909
894.91	0.24173198
895.082	0.24140132
895.255	0.24118527
895.428	0.24077321
895.6	0.24043881
895.773	0.23990079
895.945	0.23970107
896.118	0.23940598
896.291	0.2392774
896.463	0.23903083
896.636	0.23889503
896.808	0.23869322
896.981	0.2385189
897.153	0.23818114
897.326	0.23801075
897.498	0.23770589
897.67	0.23759118
897.843	0.23754719
898.015	0.23738493
898.187	0.23730565
898.36	0.23712066
898.532	0.23675883
898.704	0.23668924
898.877	0.23642405
899.049	0.23629377
899.221	0.23614184
899.393	0.23598157
899.566	0.23596462
899.738	0.23614287
899.91	0.23603083
900.082	0.23606256
900.254	0.23590698
900.426	0.2358837
900.598	0.2357563
900.77	0.23553608
900.942	0.23520953
901.114	0.2348742
901.286	0.23443825
901.458	0.23411812
901.63	0.23357546
901.802	0.23320286
901.974	0.23291002
902.146	0.23261152
902.318	0.23234098
902.49	0.2320952
902.662	0.23172832
902.834	0.23156885
903.005	0.23124415
903.177	0.23081705
903.349	0.23043937
903.521	0.22997535
903.693	0.22970139
903.864	0.2294811
904.036	0.2293408
904.208	0.22903518
904.379	0.22904901
904.551	0.22905881
904.723	0.2290308
904.894	0.22876972
905.066	0.2284958
905.237	0.22796133
905.409	0.22765018
905.58	0.2271495
905.752	0.22664026
905.923	0.22643956
906.095	0.22631292
906.266	0.22607581
906.438	0.22600827
906.609	0.22605157
906.78	0.22587143
906.952	0.22585988
907.123	0.22547935
907.295	0.22510516
907.466	0.22474627
907.637	0.22447023
907.808	0.22391541
907.98	0.22353002
908.151	0.22305922
908.322	0.2228586
908.493	0.22255831
908.665	0.22226673
908.836	0.22187419
909.007	0.22168104
909.178	0.22165651
909.349	0.22144389
909.52	0.22136293
909.691	0.22127567
909.862	0.2212469
910.033	0.2212572
910.204	0.22129533
910.375	0.22128637
910.546	0.22139789
910.717	0.22113835
910.888	0.22128069
911.059	0.22134015
911.23	0.22118527
911.401	0.22106637
911.572	0.22089943
911.742	0.22058898
911.913	0.22067458
912.084	0.22021834
912.255	0.21991502
912.426	0.21966444
912.596	0.21923427
912.767	0.21898569
912.938	0.21878334
913.108	0.21842919
913.279	0.21815613
913.45	0.21773873
913.62	0.217543
913.791	0.21735667
913.962	0.21703281
914.132	0.21664089
914.303	0.21611583
914.473	0.21589401
914.644	0.21558703
914.814	0.21516192
914.985	0.2148912
915.155	0.21441448
915.326	0.21408495
915.496	0.21378837
915.666	0.21327315
915.837	0.21304818
916.007	0.21273943
916.177	0.21222438
916.348	0.21208825
916.518	0.21186628
916.688	0.21167398
916.858	0.21161216
917.029	0.21124289
917.199	0.2109695
917.369	0.21086109
917.539	0.2106679
917.709	0.21048364
917.88	0.21013051
918.05	0.20965094
918.22	0.20948781
918.39	0.20941126
918.56	0.20926678
918.73	0.20902961
918.9	0.20878313
919.07	0.20861175
919.24	0.20859001
919.41	0.20831841
919.58	0.20788707
919.75	0.20758852
919.92	0.20720088
920.09	0.20692106
920.26	0.20673866
920.429	0.20650807
920.599	0.20622208
920.769	0.2059709
920.939	0.20559943
921.109	0.20524984
921.278	0.20487497
921.448	0.20454524
921.618	0.20414581
921.787	0.20389153
921.957	0.20364284
922.127	0.20326374
922.296	0.2032648
922.466	0.20301581
922.636	0.20277126
922.805	0.20249291
922.975	0.20213887
923.144	0.20187304
923.314	0.20172277
923.483	0.20116177
923.653	0.20063888
923.822	0.20023454
923.992	0.19989906
924.161	0.19966389
924.331	0.19919811
924.5	0.1987549
924.669	0.19834545
924.839	0.19816558
925.008	0.19779709
925.177	0.19740758
925.347	0.1971418
925.516	0.19698493
925.685	0.19684518
925.854	0.19687611
926.023	0.19683022
926.193	0.1969243
926.362	0.19695089
926.531	0.19679393
926.7	0.19667979
926.869	0.19669564
927.038	0.19618345
927.207	0.19584581
927.376	0.19527508
927.545	0.19473057
927.715	0.19431987
927.884	0.19384016
928.052	0.1934499
928.221	0.19311518
928.39	0.19276198
928.559	0.19251245
928.728	0.19243213
928.897	0.19230997
929.066	0.19212736
929.235	0.19173813
929.404	0.19172742
929.572	0.19145788
929.741	0.19134648
929.91	0.19106528
930.079	0.19061881
930.247	0.19044767
930.416	0.1904357
930.585	0.19017246
930.753	0.18997199
930.922	0.18972306
931.091	0.18968118
931.259	0.18966513
931.428	0.18969422
931.596	0.1892774
931.765	0.18945821
931.934	0.18957052
932.102	0.18913657
932.27	0.18879544
932.439	0.18864707
932.607	0.18820836
932.776	0.18821692
932.944	0.18773961
933.113	0.18734288
933.281	0.18721156
933.449	0.18693622
933.618	0.18649353
933.786	0.18633212
933.954	0.18598022
934.123	0.18546047
934.291	0.18518758
934.459	0.18510562
934.627	0.18496628
934.795	0.18480903
934.964	0.18440894
935.132	0.18406792
935.3	0.18389515
935.468	0.18355028
935.636	0.18328251
935.804	0.18280676
935.972	0.18279184
936.14	0.18259077
936.308	0.18238482
936.476	0.18248189
936.644	0.18242638
936.812	0.18229881
936.98	0.18222137
937.148	0.18172011
937.316	0.18118209
937.484	0.18115356
937.652	0.18061099
937.82	0.18044563
937.987	0.1801646
938.155	0.18004386
938.323	0.17994384
938.491	0.17959202
938.658	0.17905577
938.826	0.17882972
938.994	0.17835703
939.162	0.17802996
939.329	0.17791209
939.497	0.17757459
939.665	0.17764751
939.832	0.17783274
940	0.17728176
940.167	0.17691048
940.335	0.17616357
940.502	0.17482686
940.67	0.17462525
940.837	0.17497867
941.005	0.17407579
941.172	0.17403347
941.34	0.17399746
941.507	0.17530678
941.674	0.17582489
941.842	0.17504094
942.009	0.17496917
942.177	0.17445321
942.344	0.1749207
942.511	0.17441449
942.678	0.17338243
942.846	0.17266455
943.013	0.17298759
943.18	0.17237395
943.347	0.17279515
943.514	0.17152415
943.682	0.17253187
943.849	0.17118743
944.016	0.17076083
944.183	0.17069531
944.35	0.17039046
944.517	0.17100245
944.684	0.17114305
944.851	0.16793158
945.018	0.16807215
945.185	0.16763326
945.352	0.16624952
945.519	0.16542081
945.686	0.16406653
945.853	0.16448387
946.02	0.1649833
946.187	0.16413662
946.353	0.16519267
946.52	0.16518674
946.687	0.16479633
946.854	0.16424719
947.021	0.16301438
947.187	0.16321636
947.354	0.16217882
947.521	0.16123722
947.687	0.16088986
947.854	0.1600979
948.021	0.15914186
948.187	0.15826368
948.354	0.15749762
948.52	0.15814617
948.687	0.15864547
948.854	0.15869082
949.02	0.1585345
949.187	0.15864302
949.353	0.15935442
949.52	0.15851422
949.686	0.15799891
949.852	0.15762119
950.019	0.15707862
950.185	0.1568458
950.352	0.15710066
950.518	0.15583954
950.684	0.15623272
950.851	0.15609424
951.017	0.15487688
951.183	0.15523512
951.349	0.15467344
951.516	0.15356432
951.682	0.15361749
951.848	0.15319512
952.014	0.15218727
952.18	0.15213245
952.346	0.15092004
952.512	0.15100694
952.679	0.15122035
952.845	0.15130819
953.011	0.15094261
953.177	0.15107878
953.343	0.15029628
953.509	0.15072253
953.675	0.15040724
953.841	0.15030522
954.007	0.15020996
954.172	0.15056177
954.338	0.15006448
954.504	0.14965531
954.67	0.14828535
954.836	0.14824217
955.002	0.14765035
955.167	0.14677678
955.333	0.14528968
955.499	0.14482175
955.665	0.14470453
955.83	0.14480704
955.996	0.1440058
956.162	0.14335519
956.327	0.1427948
956.493	0.14283417
956.659	0.14316209
956.824	0.14293451
956.99	0.1423238
957.155	0.14236716
957.321	0.14214027
957.486	0.14160391
957.652	0.14127243
957.817	0.14104973
957.983	0.14058505
958.148	0.14072466
958.314	0.14030452
958.479	0.13994761
958.644	0.14021526
958.81	0.14034108
958.975	0.13971885
959.14	0.13964567
959.306	0.1393953
959.471	0.13897235
959.636	0.13864671
959.801	0.13889774
959.967	0.1388628
960.132	0.13897926
960.297	0.13872249
960.462	0.13853654
960.627	0.13839559
960.792	0.13804337
960.957	0.13747374
961.123	0.13701944
961.288	0.13620635
961.453	0.13596699
961.618	0.13557597
961.783	0.13555539
961.948	0.13570864
962.113	0.1351421
962.277	0.13506208
962.442	0.13541088
962.607	0.13552208
962.772	0.13546586
962.937	0.13465798
963.102	0.13389171
963.267	0.13377627
963.431	0.13324428
963.596	0.1327949
963.761	0.13213805
963.926	0.13190317
964.09	0.13238617
964.255	0.13267063
964.42	0.13275989
964.584	0.13271525
964.749	0.13236035
964.914	0.13224687
965.078	0.13194472
965.243	0.13158132
965.407	0.13128257
965.572	0.13097459
965.736	0.13103732
965.901	0.13109551
966.065	0.13099523
966.23	0.13089065
966.394	0.13088507
966.559	0.13069514
966.723	0.13048478
966.887	0.129859
967.052	0.12958637
967.216	0.12923509
967.38	0.12856197
967.545	0.12814519
967.709	0.12822048
967.873	0.12824055
968.037	0.12824858
968.202	0.12821487
968.366	0.12829644
968.53	0.12870346
968.694	0.12861436
968.858	0.12835701
969.022	0.12787925
969.187	0.12760985
969.351	0.12741023
969.515	0.12715883
969.679	0.12676526
969.843	0.12638007
970.007	0.12598912
970.171	0.12589143
970.335	0.1254096
970.499	0.12495078
970.662	0.1250359
970.826	0.12491329
970.99	0.12490817
971.154	0.12511523
971.318	0.12485563
971.482	0.12465147
971.645	0.12448773
971.809	0.12394669
971.973	0.1234454
972.137	0.12290226
972.3	0.12223806
972.464	0.1223158
972.628	0.12251888
972.791	0.12259379
972.955	0.12239732
973.119	0.1223696
973.282	0.12223478
973.446	0.1219571
973.609	0.12147411
973.773	0.12081927
973.936	0.12021929
974.1	0.11983466
974.263	0.11944233
974.427	0.11911139
974.59	0.11887123
974.754	0.11807177
974.917	0.11810125
975.08	0.11792138
975.244	0.11750952
975.407	0.11730745
975.57	0.11703452
975.734	0.1165326
975.897	0.11675552
976.06	0.11639404
976.223	0.11592601
976.387	0.11588627
976.55	0.11526635
976.713	0.11494793
976.876	0.11510099
977.039	0.11442962
977.202	0.11401368
977.365	0.11385299
977.528	0.11352553
977.692	0.1134692
977.855	0.11284245
978.018	0.11209795
978.181	0.11201136
978.344	0.11166653
978.506	0.11155119
978.669	0.11138751
978.832	0.11121131
978.995	0.11134
979.158	0.11152525
979.321	0.11168272
979.484	0.1117312
979.646	0.11154526
979.809	0.11141357
979.972	0.11161929
980.135	0.11192162
980.297	0.11188828
980.46	0.11172599
980.623	0.11155115
980.786	0.11118136
980.948	0.11117267
981.111	0.11091044
981.273	0.11065446
981.436	0.11044315
981.599	0.11016695
981.761	0.11010577
981.924	0.11028788
982.086	0.10972734
982.249	0.10952779
982.411	0.10924688
982.573	0.10907953
982.736	0.10913667
982.898	0.10907381
983.061	0.10880455
983.223	0.10869057
983.385	0.10838851
983.548	0.10828241
983.71	0.10812372
983.872	0.10761494
984.034	0.10736872
984.197	0.10704866
984.359	0.10686803
984.521	0.10648855
984.683	0.10605417
984.845	0.10571561
985.008	0.10557578
985.17	0.1054151
985.332	0.10526726
985.494	0.10473541
985.656	0.10495506
985.818	0.10446663
985.98	0.10417158
986.142	0.10361333
986.304	0.1027011
986.466	0.10219348
986.628	0.10239234
986.79	0.10208898
986.952	0.10227275
987.113	0.10212861
987.275	0.10197033
987.437	0.1020417
987.599	0.10199167
987.761	0.10162715
987.922	0.1010997
988.084	0.10089449
988.246	0.1008181
988.408	0.10061229
988.569	0.10070506
988.731	0.10092027
988.893	0.10061197
989.054	0.10068913
989.216	0.10045705
989.377	0.1001483
989.539	0.10007048
989.701	0.09997158
989.862	0.09948052
990.024	0.09955171
990.185	0.09921908
990.347	0.09908114
990.508	0.09902007
990.669	0.09901334
990.831	0.09842304
990.992	0.09878893
991.154	0.09823084
991.315	0.0987756
991.476	0.09828451
991.638	0.09836798
991.799	0.09817357
991.96	0.09810453
992.121	0.09780073
992.283	0.09783693
992.444	0.09685127
992.605	0.09660068
992.766	0.09588574
992.927	0.09534032
993.088	0.09529998
993.249	0.09462435
993.41	0.09416968
993.572	0.09384067
993.733	0.09394667
993.894	0.09376792
994.055	0.09288226
994.216	0.09228548
994.376	0.09152448
994.537	0.09175668
994.698	0.09135371
994.859	0.09085052
995.02	0.09042802
995.181	0.09063467
995.342	0.09089779
995.503	0.09069424
995.663	0.08999173
995.824	0.09010955
995.985	0.09054529
996.146	0.09098072
996.306	0.09096021
996.467	0.09039514
996.628	0.09071202
996.788	0.09079468
996.949	0.09063673
997.11	0.08993936
997.27	0.08900487
997.431	0.08866329
997.591	0.08824422
997.752	0.08807521
997.912	0.08838118
998.073	0.08826416
998.233	0.08822301
998.394	0.08852556
998.554	0.08899532
998.714	0.08907167
998.875	0.08847602
999.035	0.0877092
999.196	0.08718566
999.356	0.08743255
999.516	0.08712393
999.676	0.087171
999.837	0.08717531
999.997	0.08727859
1000.157	0.08710618
1000.317	0.08656073
1000.477	0.08586389
1000.638	0.08548851
1000.798	0.08496002
1000.958	0.08486942
1001.118	0.08479847
1001.278	0.08461453
1001.438	0.08446231
1001.598	0.08424738
1001.758	0.08426465
1001.918	0.08454072
1002.078	0.08380894
1002.238	0.0837641
1002.398	0.08448676
1002.558	0.08498356
1002.718	0.08528479
1002.878	0.085388
1003.037	0.08426277
1003.197	0.08460054
1003.357	0.08411386
1003.517	0.08400626
1003.677	0.08346913
1003.836	0.08282378
1003.996	0.08251853
1004.156	0.08270855
1004.315	0.08264048
1004.475	0.08258287
1004.635	0.08194546
1004.794	0.08190519
1004.954	0.08172531
1005.114	0.08087442
1005.273	0.08100204
1005.433	0.08077719
1005.592	0.08043673
1005.752	0.07996635
1005.911	0.07960306
1006.071	0.07975113
1006.23	0.08009495
1006.389	0.07977185
1006.549	0.07969651
1006.708	0.07975501
1006.868	0.07882461
1007.027	0.07931746
1007.186	0.07935051
1007.345	0.08018483
1007.505	0.07979336
1007.664	0.07912996
1007.823	0.07924218
1007.982	0.07963392
1008.142	0.0795481
1008.301	0.07973154
1008.46	0.07806261
1008.619	0.07749219
1008.778	0.07780773
1008.937	0.077763
1009.096	0.077627
1009.255	0.07694364
1009.414	0.07578357
1009.573	0.07638175
1009.732	0.07782032
1009.891	0.0777738
1010.05	0.07769261
1010.209	0.07800703
1010.368	0.07842839
1010.527	0.07888067
1010.686	0.07887766
1010.845	0.07780235
1011.003	0.07716272
1011.162	0.07717028
1011.321	0.07695666
1011.48	0.0773365
1011.638	0.07707802
1011.797	0.07676397
1011.956	0.07635495
1012.115	0.07722567
1012.273	0.07698786
1012.432	0.07674076
1012.59	0.07619832
1012.749	0.0759615
1012.908	0.07525285
1013.066	0.0757145
1013.225	0.07517756
1013.383	0.07500829
1013.542	0.07494793
1013.7	0.07350118
1013.859	0.07376957
1014.017	0.07463569
1014.175	0.07404678
1014.334	0.07463003
1014.492	0.07417785
1014.65	0.07410122
1014.809	0.07502156
1014.967	0.07407546
1015.125	0.07398802
1015.284	0.07461426
1015.442	0.0739538
1015.6	0.07381995
1015.758	0.07318297
1015.916	0.07368583
1016.075	0.07314948
1016.233	0.07268227
1016.391	0.07224632
1016.549	0.07155114
1016.707	0.07199564
1016.865	0.0718949
1017.023	0.07167735
1017.181	0.07272891
1017.339	0.07228801
1017.497	0.07170526
1017.655	0.07249224
1017.813	0.07296617
1017.971	0.07340843
1018.129	0.07329821
1018.286	0.0729869
1018.444	0.07312879
1018.602	0.074161
1018.76	0.07377478
1018.918	0.07329669
1019.075	0.07268507
1019.233	0.07185857
1019.391	0.07117891
1019.549	0.07223224
1019.706	0.07129722
1019.864	0.07164977
1020.022	0.07284219
1020.179	0.0745459
1020.337	0.07621287
1020.494	0.07678408
1020.652	0.07491058
1020.809	0.07535016
1020.967	0.07392809
1021.124	0.07302936
1021.282	0.07226717
1021.439	0.07100866
1021.597	0.07048569
1021.754	0.071455
1021.911	0.07170826
1022.069	0.07125412
1022.226	0.07018732
1022.384	0.06990155
1022.541	0.06907642
1022.698	0.06964529
1022.855	0.06836613
1023.013	0.06752716
1023.17	0.06817889
1023.327	0.0691042
1023.484	0.06968746
1023.641	0.06988155
1023.798	0.07149486
1023.956	0.07283266
1024.113	0.07274775
1024.27	0.07192126
1024.427	0.07133858
1024.584	0.07087705
1024.741	0.07223151
1024.898	0.0696446
1025.055	0.06924634
1025.212	0.06797204
1025.369	0.06882765
1025.525	0.06679432
1025.682	0.06716512
1025.839	0.06794933
1025.996	0.07045031
1026.153	0.07020753
1026.31	0.07262559
1026.466	0.07251141
1026.623	0.07472267
1026.78	0.07470188
1026.937	0.07294671
1027.093	0.07194189
1027.25	0.07264762
1027.407	0.07274054
1027.563	0.07439417
1027.72	0.07389925
1027.876	0.07316475
1028.033	0.07460817
1028.19	0.07300116
1028.346	0.07134319
1028.503	0.06979904
1028.659	0.06830104
1028.816	0.06746771
1028.972	0.06905214
1029.128	0.06809111
1029.285	0.06680514
1029.441	0.06759788
1029.598	0.06936783
1029.754	0.07192638
1029.91	0.07327829
1030.067	0.07172396
1030.223	0.0714449
1030.379	0.07265584
1030.535	0.07505744
1030.691	0.07403322
1030.848	0.07187259
1031.004	0.07015733
1031.16	0.06909232
1031.316	0.06967342
1031.472	0.07252869
1031.628	0.06903989
1031.784	0.07228215
1031.94	0.07342709
1032.096	0.07579393
1032.252	0.07827927
1032.408	0.07805578
1032.564	0.07665874
1032.72	0.08008174
1032.876	0.07512793
1033.032	0.07183363
1033.188	0.07188495
1033.344	0.07091669
1033.5	0.07085324
1033.655	0.07092203
1033.811	0.06874826
1033.967	0.07088722
