Data from 1_mm_pl_80pc_Absorbance__0__17-24-18-643.txt Node

Date: Wed Mar 08 17:24:18 CET 2023
User: Ange
Spectrometer: FLMT08341
Trigger mode: 0
Integration Time (sec): 1.000000E-2
Scans to average: 400
Electric dark correction enabled: true
Nonlinearity correction enabled: false
Boxcar width: 3
XAxis mode: Wavelengths
Number of Pixels in Spectrum: 3648
>>>>>Begin Spectral Data<<<<<
345.271	0.0617671
345.487	0.06708701
345.704	0.05741313
345.921	0.0544315
346.137	0.06363706
346.354	0.03650273
346.571	0.02711475
346.787	0.04705498
347.004	-0.0660905
347.22	-0.1606244
347.437	-0.09418434
347.653	0.0570725
347.87	0.08619015
348.086	0.34095925
348.303	-0.34591912
348.519	0.19486546
348.736	0.18345432
348.952	0.19222468
349.169	0.19978586
349.385	0.21057916
349.601	0.20747319
349.818	0.2035541
350.034	0.20200499
350.251	0.20205675
350.467	0.20446428
350.683	0.19739906
350.9	0.19454614
351.116	0.19072524
351.332	0.18792133
351.549	0.19343025
351.765	0.19609961
351.981	0.19752642
352.197	0.20406379
352.414	0.20887806
352.63	0.21266629
352.846	0.21706672
353.062	0.21317835
353.278	0.21092114
353.495	0.21496269
353.711	0.21609839
353.927	0.21648739
354.143	0.21909938
354.359	0.21791683
354.575	0.21729908
354.792	0.22130158
355.008	0.2174945
355.224	0.21484731
355.44	0.21326095
355.656	0.21292354
355.872	0.21603929
356.088	0.22520304
356.304	0.22576272
356.52	0.22694579
356.736	0.2291455
356.952	0.23238004
357.168	0.23255507
357.384	0.23430928
357.6	0.22832877
357.816	0.22999594
358.032	0.2309596
358.248	0.2363392
358.464	0.23577057
358.679	0.23830089
358.895	0.2362576
359.111	0.24099689
359.327	0.23883993
359.543	0.23962761
359.759	0.24170418
359.974	0.24144199
360.19	0.24169575
360.406	0.24490478
360.622	0.24224452
360.838	0.24226501
361.053	0.24662017
361.269	0.24563658
361.485	0.24767639
361.701	0.24744379
361.916	0.24476466
362.132	0.24535969
362.348	0.24704921
362.563	0.24653721
362.779	0.24547253
362.995	0.24670358
363.21	0.25012616
363.426	0.25210866
363.641	0.25407174
363.857	0.25538425
364.073	0.25497025
364.288	0.25465129
364.504	0.25756166
364.719	0.25689414
364.935	0.25776846
365.15	0.25894501
365.366	0.25968143
365.581	0.26200077
365.797	0.26371335
366.012	0.26174972
366.228	0.26108426
366.443	0.26448688
366.658	0.26391789
366.874	0.26319611
367.089	0.26430128
367.305	0.26559821
367.52	0.26693965
367.735	0.26785565
367.951	0.26402315
368.166	0.26589998
368.381	0.27036408
368.597	0.26985726
368.812	0.27166111
369.027	0.27274377
369.243	0.27356857
369.458	0.27895181
369.673	0.27996707
369.888	0.27946564
370.104	0.27840487
370.319	0.27871564
370.534	0.27756427
370.749	0.27832629
370.964	0.27837373
371.179	0.27863498
371.395	0.27789831
371.61	0.28024347
371.825	0.27835299
372.04	0.28055237
372.255	0.2791743
372.47	0.2775887
372.685	0.27557082
372.9	0.27639189
373.115	0.27505365
373.33	0.27739186
373.545	0.27719857
373.76	0.2789782
373.975	0.2786993
374.19	0.27902407
374.405	0.27886906
374.62	0.2818882
374.835	0.28345998
375.05	0.28387303
375.265	0.28545301
375.48	0.28736777
375.695	0.29146103
375.91	0.29077304
376.125	0.28921712
376.339	0.2867023
376.554	0.2864666
376.769	0.28726243
376.984	0.2867522
377.199	0.28723226
377.414	0.28739187
377.628	0.28952029
377.843	0.29093952
378.058	0.29190211
378.273	0.29119705
378.487	0.29292805
378.702	0.29162738
378.917	0.29271411
379.131	0.29080751
379.346	0.28896635
379.561	0.28897635
379.775	0.28844662
379.99	0.28687046
380.205	0.28609096
380.419	0.28473343
380.634	0.28377285
380.848	0.28509648
381.063	0.28521479
381.278	0.28686382
381.492	0.28570469
381.707	0.28695837
381.921	0.28774837
382.136	0.28991436
382.35	0.28962023
382.565	0.28865822
382.779	0.28800872
382.994	0.28905365
383.208	0.28800969
383.422	0.2898298
383.637	0.28911876
383.851	0.29089902
384.066	0.29160814
384.28	0.29226527
384.494	0.29274101
384.709	0.29380526
384.923	0.29308108
385.137	0.2921248
385.352	0.29170118
385.566	0.29221203
385.78	0.29186533
385.995	0.29083036
386.209	0.29009022
386.423	0.29123482
386.637	0.29244542
386.852	0.2913079
387.066	0.29067065
387.28	0.28942879
387.494	0.29066141
387.708	0.29083522
387.923	0.28942488
388.137	0.29025319
388.351	0.29073288
388.565	0.29152853
388.779	0.29216906
388.993	0.29321163
389.207	0.29355642
389.421	0.29380375
389.635	0.29234497
389.85	0.29202558
390.064	0.29188441
390.278	0.29202177
390.492	0.29159749
390.706	0.29189114
390.92	0.29169211
391.134	0.29257928
391.348	0.2945389
391.561	0.29391418
391.775	0.29308692
391.989	0.29177069
392.203	0.29174184
392.417	0.2925645
392.631	0.29331468
392.845	0.2918771
393.059	0.29283004
393.273	0.29293565
393.486	0.29251618
393.7	0.29115186
393.914	0.29090599
394.128	0.29011727
394.342	0.28945502
394.555	0.28756862
394.769	0.28732928
394.983	0.28794137
395.197	0.28845457
395.41	0.28805647
395.624	0.28768166
395.838	0.28773417
396.051	0.28967628
396.265	0.28939597
396.479	0.28904461
396.692	0.28885672
396.906	0.28827804
397.12	0.28774641
397.333	0.28803001
397.547	0.28673239
397.76	0.28722243
397.974	0.2871893
398.187	0.28721136
398.401	0.2871434
398.614	0.28701401
398.828	0.2864302
399.041	0.28625941
399.255	0.28541558
399.468	0.28497531
399.682	0.28456676
399.895	0.284838
400.109	0.28442104
400.322	0.28379014
400.536	0.28313526
400.749	0.28392414
400.962	0.28370301
401.176	0.28322491
401.389	0.28256144
401.602	0.28155053
401.816	0.28146369
402.029	0.28151956
402.242	0.28016215
402.456	0.27974035
402.669	0.27896528
402.882	0.27791425
403.095	0.27875785
403.309	0.27834887
403.522	0.27804968
403.735	0.27747254
403.948	0.2773779
404.161	0.2786362
404.375	0.27869135
404.588	0.27845009
404.801	0.27834466
405.014	0.27755317
405.227	0.27859771
405.44	0.27884091
405.653	0.27789231
405.866	0.27734923
406.079	0.27671617
406.293	0.27611198
406.506	0.27576645
406.719	0.27470524
406.932	0.27336772
407.145	0.27242636
407.358	0.27276657
407.571	0.27160321
407.784	0.27180987
407.996	0.27198092
408.209	0.27089326
408.422	0.27029078
408.635	0.27017851
408.848	0.26939911
409.061	0.26876675
409.274	0.26772369
409.487	0.26700062
409.7	0.26690024
409.912	0.26687988
410.125	0.26627357
410.338	0.26603895
410.551	0.26584653
410.764	0.26538329
410.976	0.26481979
411.189	0.26437696
411.402	0.26361751
411.615	0.26356853
411.827	0.26299716
412.04	0.26265841
412.253	0.26218874
412.465	0.26142996
412.678	0.26081862
412.891	0.26061118
413.103	0.25896282
413.316	0.25847707
413.529	0.25849039
413.741	0.25852264
413.954	0.25849538
414.166	0.25817225
414.379	0.25772408
414.591	0.25812765
414.804	0.25739499
415.016	0.25670785
415.229	0.25556715
415.441	0.25476534
415.654	0.25433975
415.866	0.25381306
416.079	0.2533036
416.291	0.25258682
416.504	0.25229452
416.716	0.252047
416.928	0.25159492
417.141	0.25105266
417.353	0.25077011
417.566	0.24985376
417.778	0.24979202
417.99	0.24851419
418.203	0.24788924
418.415	0.24738802
418.627	0.24713414
418.839	0.24655172
419.052	0.24668747
419.264	0.24588977
419.476	0.24580084
419.688	0.24520384
419.901	0.24465134
420.113	0.24393076
420.325	0.24320969
420.537	0.2420894
420.749	0.24148106
420.961	0.24111375
421.174	0.24050887
421.386	0.23982176
421.598	0.2390533
421.81	0.23874143
422.022	0.23825004
422.234	0.23792816
422.446	0.23712793
422.658	0.23649445
422.87	0.23615441
423.082	0.23566939
423.294	0.23478256
423.506	0.23408699
423.718	0.23334827
423.93	0.23237886
424.142	0.23173391
424.354	0.23069497
424.566	0.23014658
424.778	0.22974699
424.99	0.22918844
425.202	0.22843931
425.414	0.22804222
425.625	0.22771622
425.837	0.22703759
426.049	0.2264631
426.261	0.22566613
426.473	0.22491878
426.684	0.22449048
426.896	0.22415071
427.108	0.22327671
427.32	0.22314752
427.531	0.22251694
427.743	0.22200168
427.955	0.2217352
428.167	0.22090707
428.378	0.22015031
428.59	0.21969445
428.802	0.21891001
429.013	0.21826842
429.225	0.2173887
429.436	0.21665265
429.648	0.2164276
429.86	0.21601098
430.071	0.2156257
430.283	0.2152045
430.494	0.21465617
430.706	0.21432261
430.917	0.2137297
431.129	0.21300066
431.34	0.21221184
431.552	0.21133331
431.763	0.21046161
431.975	0.20990037
432.186	0.2091538
432.398	0.20851621
432.609	0.20753927
432.821	0.20704781
433.032	0.20659121
433.243	0.20600744
433.455	0.20522862
433.666	0.20462697
433.877	0.20412323
434.089	0.20353821
434.3	0.20279614
434.511	0.20175355
434.723	0.20106215
434.934	0.20046479
435.145	0.19966845
435.356	0.19886307
435.568	0.19829004
435.779	0.19755031
435.99	0.19683957
436.201	0.19625247
436.412	0.19542007
436.624	0.19488651
436.835	0.19427303
437.046	0.19368342
437.257	0.19295155
437.468	0.19252928
437.679	0.19189468
437.89	0.19131875
438.101	0.19079799
438.312	0.19028654
438.523	0.18961753
438.734	0.18910544
438.945	0.18837354
439.156	0.18751615
439.367	0.18684888
439.578	0.1862988
439.789	0.18539908
440	0.18496853
440.211	0.18426239
440.422	0.18377187
440.633	0.18335643
440.844	0.18269611
441.055	0.18189553
441.266	0.18144088
441.477	0.18063319
441.687	0.1800332
441.898	0.1794105
442.109	0.17865816
442.32	0.17798404
442.531	0.17714758
442.741	0.17623877
442.952	0.17548275
443.163	0.17477266
443.374	0.17412322
443.584	0.17333453
443.795	0.17269454
444.006	0.17221711
444.216	0.17166571
444.427	0.17093135
444.638	0.17006212
444.848	0.1692951
445.059	0.16874769
445.27	0.16798431
445.48	0.16698058
445.691	0.16618528
445.901	0.16556912
446.112	0.16519281
446.323	0.16450017
446.533	0.16390361
446.744	0.16325577
446.954	0.16286043
447.165	0.16234184
447.375	0.16182122
447.586	0.16121515
447.796	0.16058039
448.006	0.15990694
448.217	0.15956757
448.427	0.15891287
448.638	0.15825851
448.848	0.15764919
449.058	0.15703415
449.269	0.1565958
449.479	0.15598804
449.689	0.15530467
449.9	0.15490835
450.11	0.15429939
450.32	0.15397678
450.531	0.15334522
450.741	0.15275385
450.951	0.15234739
451.161	0.15179141
451.372	0.15102725
451.582	0.15083249
451.792	0.14997112
452.002	0.14942619
452.212	0.14881111
452.422	0.14828578
452.633	0.14768232
452.843	0.14738119
453.053	0.14656877
453.263	0.14615302
453.473	0.14567427
453.683	0.14517559
453.893	0.14454184
454.103	0.14420717
454.313	0.14376331
454.523	0.14334527
454.733	0.14309352
454.943	0.1427421
455.153	0.1423678
455.363	0.1420237
455.573	0.1415989
455.783	0.14115822
455.993	0.1407571
456.203	0.14026618
456.413	0.13978825
456.623	0.13930448
456.833	0.13895811
457.042	0.13841753
457.252	0.13809236
457.462	0.13763453
457.672	0.1371366
457.882	0.13660601
458.091	0.13624434
458.301	0.13575135
458.511	0.13537468
458.721	0.13470844
458.931	0.13438631
459.14	0.13406157
459.35	0.13383751
459.56	0.13365035
459.769	0.13347684
459.979	0.13319702
460.189	0.13304879
460.398	0.13267677
460.608	0.13241302
460.817	0.13207206
461.027	0.13163587
461.237	0.13115407
461.446	0.13082158
461.656	0.13048178
461.865	0.1301323
462.075	0.12982804
462.284	0.12972268
462.494	0.1294113
462.703	0.12916411
462.913	0.12894934
463.122	0.12863387
463.332	0.12846874
463.541	0.12819751
463.751	0.12787619
463.96	0.12768931
464.169	0.12748085
464.379	0.12729438
464.588	0.12711686
464.797	0.12692135
465.007	0.1267226
465.216	0.1266088
465.425	0.1265176
465.635	0.12643487
465.844	0.12630956
466.053	0.12629143
466.263	0.1261127
466.472	0.12592693
466.681	0.12567218
466.89	0.12537351
467.099	0.12519327
467.309	0.12498814
467.518	0.12493805
467.727	0.1248817
467.936	0.12479557
468.145	0.12477457
468.354	0.12478134
468.563	0.12466689
468.772	0.12448656
468.982	0.12432501
469.191	0.12431634
469.4	0.12422957
469.609	0.1240735
469.818	0.1240001
470.027	0.12388228
470.236	0.12379845
470.445	0.1235896
470.654	0.12336885
470.863	0.12331032
471.072	0.12334442
471.28	0.12333253
471.489	0.12340129
471.698	0.12353754
471.907	0.12361027
472.116	0.12371669
472.325	0.12384728
472.534	0.12389871
472.743	0.12390519
472.951	0.12395873
473.16	0.12395706
473.369	0.12399713
473.578	0.12397033
473.786	0.12403286
473.995	0.12409202
474.204	0.12423291
474.413	0.12428497
474.621	0.12451781
474.83	0.12477887
475.039	0.12495189
475.247	0.1250223
475.456	0.12518913
475.665	0.12533211
475.873	0.12545279
476.082	0.12542781
476.291	0.12554604
476.499	0.12575991
476.708	0.12584828
476.916	0.12604078
477.125	0.12627771
477.333	0.12653708
477.542	0.12680468
477.75	0.12683841
477.959	0.1270449
478.167	0.12741971
478.376	0.12752849
478.584	0.12774181
478.793	0.12789548
479.001	0.12815771
479.209	0.12850135
479.418	0.12871451
479.626	0.12885776
479.834	0.12916169
480.043	0.12934911
480.251	0.12971907
480.459	0.12991138
480.668	0.13028927
480.876	0.13059206
481.084	0.13091144
481.293	0.13126506
481.501	0.13160229
481.709	0.1319539
481.917	0.13231328
482.125	0.13262533
482.334	0.13293766
482.542	0.1333148
482.75	0.13371995
482.958	0.13411812
483.166	0.13452097
483.374	0.13497829
483.583	0.13528802
483.791	0.13572894
483.999	0.1361261
484.207	0.13647269
484.415	0.13688425
484.623	0.13713031
484.831	0.13749543
485.039	0.1379501
485.247	0.13840872
485.455	0.13885123
485.663	0.13927147
485.871	0.13969216
486.079	0.14009674
486.287	0.14051229
486.495	0.14090723
486.702	0.14128181
486.91	0.14169277
487.118	0.14216731
487.326	0.14256344
487.534	0.14318529
487.742	0.14374391
487.95	0.14421412
488.157	0.14474043
488.365	0.14528345
488.573	0.14580405
488.781	0.14645339
488.988	0.14698005
489.196	0.14751877
489.404	0.14810511
489.612	0.14871103
489.819	0.14926029
490.027	0.14984038
490.235	0.15031794
490.442	0.15088629
490.65	0.15139308
490.857	0.15203258
491.065	0.15263879
491.273	0.15333073
491.48	0.15393374
491.688	0.15459621
491.895	0.15528592
492.103	0.15599789
492.31	0.15663905
492.518	0.15722789
492.725	0.15777125
492.933	0.15833024
493.14	0.15890134
493.348	0.15942232
493.555	0.15996791
493.763	0.16049762
493.97	0.16119987
494.177	0.16192019
494.385	0.16267796
494.592	0.16336835
494.8	0.1640584
495.007	0.16486846
495.214	0.16554611
495.422	0.16625213
495.629	0.16697572
495.836	0.16766811
496.043	0.16844319
496.251	0.16923028
496.458	0.16990208
496.665	0.1706591
496.872	0.17139904
497.08	0.17211346
497.287	0.1727927
497.494	0.17353265
497.701	0.17430099
497.908	0.1750701
498.115	0.17582766
498.322	0.17649654
498.53	0.17721131
498.737	0.17799042
498.944	0.1787144
499.151	0.1794256
499.358	0.18019974
499.565	0.18096643
499.772	0.18181384
499.979	0.18262655
500.186	0.18351138
500.393	0.1843557
500.6	0.18514819
500.807	0.18595871
501.014	0.18678595
501.221	0.18760187
501.427	0.18847097
501.634	0.18930842
501.841	0.19021257
502.048	0.19110838
502.255	0.1918814
502.462	0.19275224
502.669	0.19358117
502.875	0.19437178
503.082	0.19516911
503.289	0.19590146
503.496	0.19676052
503.702	0.19765086
503.909	0.19850256
504.116	0.1994065
504.323	0.20028895
504.529	0.20118876
504.736	0.20212033
504.943	0.20301177
505.149	0.20394312
505.356	0.20492385
505.563	0.20583615
505.769	0.20678063
505.976	0.20770123
506.182	0.20865114
506.389	0.20959869
506.595	0.21058665
506.802	0.21147414
507.008	0.21233164
507.215	0.2132414
507.421	0.21420788
507.628	0.2150843
507.834	0.21593946
508.041	0.2168351
508.247	0.21777883
508.454	0.21881319
508.66	0.21976513
508.866	0.22058966
509.073	0.22157227
509.279	0.22256029
509.486	0.22342812
509.692	0.22434982
509.898	0.22524515
510.105	0.22625501
510.311	0.22727566
510.517	0.22821182
510.723	0.22916678
510.93	0.23010667
511.136	0.23109815
511.342	0.23205838
511.548	0.23292114
511.754	0.23382758
511.961	0.23484272
512.167	0.23576949
512.373	0.23672928
512.579	0.2376945
512.785	0.23869802
512.991	0.23975057
513.197	0.24082364
513.404	0.2418673
513.61	0.24290802
513.816	0.24392068
514.022	0.24492503
514.228	0.24594568
514.434	0.24685284
514.64	0.24782009
514.846	0.24878189
515.052	0.24974877
515.258	0.25076923
515.464	0.25179153
515.669	0.25280038
515.875	0.25389409
516.081	0.25492295
516.287	0.25599727
516.493	0.25714262
516.699	0.25814332
516.905	0.25912507
517.111	0.26010722
517.316	0.26105258
517.522	0.26201982
517.728	0.26298448
517.934	0.2639005
518.139	0.26485505
518.345	0.26571763
518.551	0.26668053
518.757	0.26758865
518.962	0.26855151
519.168	0.26949128
519.374	0.27038857
519.579	0.27144528
519.785	0.27261536
519.991	0.27370742
520.196	0.27485856
520.402	0.2758926
520.607	0.27696388
520.813	0.27817935
521.018	0.27912752
521.224	0.27996282
521.429	0.28089438
521.635	0.28190563
521.84	0.28283947
522.046	0.28381271
522.251	0.28462499
522.457	0.28565543
522.662	0.28675223
522.868	0.28776274
523.073	0.28865439
523.279	0.28972376
523.484	0.29066449
523.689	0.29174222
523.895	0.29276903
524.1	0.29376699
524.305	0.29478187
524.511	0.29581146
524.716	0.2968193
524.921	0.29783685
525.126	0.29879644
525.332	0.29979387
525.537	0.30073595
525.742	0.30169507
525.947	0.30264163
526.153	0.30357891
526.358	0.30452707
526.563	0.30545293
526.768	0.30637281
526.973	0.30738301
527.178	0.30837368
527.383	0.30927503
527.588	0.31008647
527.794	0.31092697
527.999	0.31189007
528.204	0.31279184
528.409	0.31357721
528.614	0.31449159
528.819	0.31544999
529.024	0.31643086
529.229	0.31735856
529.434	0.3183273
529.639	0.31921034
529.843	0.32016596
530.048	0.32104419
530.253	0.32197062
530.458	0.32298665
530.663	0.32392736
530.868	0.3248176
531.073	0.32569768
531.278	0.32656073
531.482	0.32745383
531.687	0.32837293
531.892	0.32915818
532.097	0.33004628
532.302	0.33090237
532.506	0.33180349
532.711	0.33269053
532.916	0.33356602
533.12	0.33443672
533.325	0.33530487
533.53	0.33616767
533.734	0.33700271
533.939	0.33787214
534.144	0.33878505
534.348	0.33968949
534.553	0.3405605
534.757	0.34144923
534.962	0.34230317
535.167	0.34322001
535.371	0.34405205
535.576	0.34495647
535.78	0.34576468
535.985	0.3465747
536.189	0.34735239
536.394	0.34820034
536.598	0.34898848
536.803	0.34987445
537.007	0.3505911
537.211	0.35141083
537.416	0.35209967
537.62	0.35287114
537.825	0.35364619
538.029	0.35447965
538.233	0.35521654
538.438	0.35609874
538.642	0.35681224
538.846	0.35766839
539.05	0.35851515
539.255	0.3593079
539.459	0.3600751
539.663	0.36080193
539.867	0.36146273
540.072	0.36218906
540.276	0.36288712
540.48	0.36366721
540.684	0.36438386
540.888	0.36520708
541.092	0.36599345
541.297	0.36682409
541.501	0.36763707
541.705	0.36842407
541.909	0.36903224
542.113	0.3696335
542.317	0.37028266
542.521	0.37097026
542.725	0.37165977
542.929	0.37231962
543.133	0.37301694
543.337	0.3738032
543.541	0.37460595
543.745	0.3751786
543.949	0.37584876
544.153	0.3764155
544.357	0.37711963
544.56	0.37778767
544.764	0.37840596
544.968	0.379024
545.172	0.37961434
545.376	0.38025458
545.58	0.3809279
545.783	0.38156122
545.987	0.38212188
546.191	0.38267358
546.395	0.38325409
546.598	0.38400706
546.802	0.38468922
547.006	0.38531175
547.21	0.38570892
547.413	0.38632883
547.617	0.38699174
547.821	0.38760484
548.024	0.38817327
548.228	0.38867034
548.431	0.38922979
548.635	0.39001721
548.839	0.39055099
549.042	0.39108949
549.246	0.39158114
549.449	0.39211681
549.653	0.3926867
549.856	0.39321056
550.06	0.39362566
550.263	0.39427295
550.467	0.39483406
550.67	0.39552839
550.874	0.39606053
551.077	0.39666924
551.28	0.39723046
551.484	0.39778959
551.687	0.39826421
551.891	0.39884517
552.094	0.39930622
552.297	0.39988445
552.501	0.4003949
552.704	0.40092526
552.907	0.40139271
553.11	0.40184916
553.314	0.40225425
553.517	0.40264087
553.72	0.40307849
553.923	0.40360539
554.127	0.40418635
554.33	0.40465765
554.533	0.40513815
554.736	0.4055211
554.939	0.40592033
555.142	0.40625901
555.345	0.40647745
555.549	0.40680299
555.752	0.40714115
555.955	0.40748489
556.158	0.4078896
556.361	0.40830405
556.564	0.408717
556.767	0.40914927
556.97	0.40949969
557.173	0.40995773
557.376	0.41038305
557.579	0.41075527
557.782	0.41113611
557.984	0.41155052
558.187	0.41191384
558.39	0.41218332
558.593	0.41250313
558.796	0.41281997
558.999	0.41308102
559.202	0.41342871
559.404	0.4136121
559.607	0.41389353
559.81	0.41426513
560.013	0.41461998
560.216	0.41497876
560.418	0.41544655
560.621	0.4158388
560.824	0.41625201
561.026	0.41663394
561.229	0.41691638
561.432	0.41719861
561.634	0.41750471
561.837	0.41772509
562.04	0.41796278
562.242	0.418247
562.445	0.41841099
562.647	0.4187239
562.85	0.41888346
563.053	0.41904965
563.255	0.4192883
563.458	0.41946833
563.66	0.41961358
563.863	0.41986441
564.065	0.4199963
564.268	0.42023329
564.47	0.42041596
564.672	0.42053553
564.875	0.42075293
565.077	0.42095253
565.28	0.42112204
565.482	0.42136173
565.684	0.42152391
565.887	0.42166419
566.089	0.42194531
566.291	0.42211804
566.494	0.42230184
566.696	0.42249562
566.898	0.42267812
567.1	0.42289229
567.303	0.42318803
567.505	0.42334025
567.707	0.42347787
567.909	0.42359491
568.111	0.42377847
568.314	0.42385588
568.516	0.42405145
568.718	0.42410441
568.92	0.42417899
569.122	0.42430331
569.324	0.4244751
569.526	0.42445518
569.728	0.42462206
569.93	0.42466202
570.132	0.4247475
570.334	0.42487399
570.536	0.42492672
570.738	0.4248809
570.94	0.42493452
571.142	0.42492856
571.344	0.4248057
571.546	0.42470766
571.748	0.42479091
571.95	0.42471509
572.152	0.42478528
572.354	0.42493533
572.555	0.42505019
572.757	0.42534518
572.959	0.42544957
573.161	0.42532321
573.363	0.42544438
573.564	0.42554012
573.766	0.4254655
573.968	0.42539217
574.17	0.42513248
574.371	0.42509534
574.573	0.42504964
574.775	0.42490081
574.976	0.42474909
575.178	0.42464146
575.38	0.4244864
575.581	0.42434051
575.783	0.42422924
575.985	0.42418468
576.186	0.424129
576.388	0.42399894
576.589	0.42387264
576.791	0.42390662
576.992	0.42393561
577.194	0.42391427
577.395	0.42378646
577.597	0.42377596
577.798	0.42375138
578	0.42373875
578.201	0.42369332
578.402	0.42367361
578.604	0.42348909
578.805	0.42340104
579.007	0.42325177
579.208	0.42318015
579.409	0.42303516
579.611	0.42272967
579.812	0.4226383
580.013	0.42253303
580.215	0.4222571
580.416	0.42209857
580.617	0.42193927
580.818	0.42184326
581.019	0.42170956
581.221	0.42148255
581.422	0.42138241
581.623	0.42132059
581.824	0.42108108
582.025	0.42085332
582.226	0.42060738
582.428	0.42043386
582.629	0.42006789
582.83	0.4198172
583.031	0.41950005
583.232	0.41921746
583.433	0.41897694
583.634	0.41863881
583.835	0.41841731
584.036	0.41822098
584.237	0.41787957
584.438	0.41761757
584.639	0.41735768
584.84	0.41707516
585.041	0.41685832
585.242	0.4164661
585.442	0.41614008
585.643	0.41594416
585.844	0.4157457
586.045	0.41552892
586.246	0.4152055
586.447	0.41489435
586.647	0.4145897
586.848	0.41426194
587.049	0.41385752
587.25	0.41338604
587.45	0.41306985
587.651	0.41276151
587.852	0.41239558
588.053	0.41225368
588.253	0.41197484
588.454	0.41176042
588.655	0.41153264
588.855	0.41110683
589.056	0.41074323
589.256	0.41045561
589.457	0.40998574
589.658	0.40960197
589.858	0.40907806
590.059	0.40881471
590.259	0.40851089
590.46	0.40817805
590.66	0.40773871
590.861	0.40736467
591.061	0.40693563
591.262	0.40660588
591.462	0.40607604
591.662	0.40553706
591.863	0.40498182
592.063	0.40457141
592.264	0.40415596
592.464	0.403786
592.664	0.40334796
592.865	0.40310389
593.065	0.40276823
593.265	0.40247843
593.465	0.40206091
593.666	0.40155277
593.866	0.40113068
594.066	0.40076141
594.266	0.40010174
594.467	0.39952846
594.667	0.39891486
594.867	0.39843162
595.067	0.39789688
595.267	0.39734434
595.467	0.39674399
595.668	0.39627147
595.868	0.39591115
596.068	0.39553354
596.268	0.3950383
596.468	0.39464725
596.668	0.39426362
596.868	0.39384503
597.068	0.39346362
597.268	0.39302257
597.468	0.39254475
597.668	0.39204027
597.868	0.39162941
598.068	0.39117715
598.268	0.39071484
598.467	0.3902417
598.667	0.38963611
598.867	0.38906245
599.067	0.38863436
599.267	0.38807073
599.467	0.38746957
599.667	0.38684295
599.866	0.38626923
600.066	0.38578555
600.266	0.38522604
600.466	0.38455714
600.665	0.38402727
600.865	0.38338082
601.065	0.38289377
601.264	0.38229025
601.464	0.38167755
601.664	0.38115829
601.863	0.38063161
602.063	0.38003423
602.263	0.37941989
602.462	0.37882789
602.662	0.37824021
602.861	0.37769707
603.061	0.37713351
603.26	0.37658743
603.46	0.37603537
603.659	0.37562576
603.859	0.37514447
604.058	0.37459314
604.258	0.37419802
604.457	0.37377654
604.657	0.37315013
604.856	0.37241472
605.056	0.37179579
605.255	0.37109633
605.454	0.37052212
605.654	0.36974651
605.853	0.36908164
606.052	0.36850636
606.252	0.3680556
606.451	0.3674897
606.65	0.36698938
606.849	0.36623495
607.049	0.36554694
607.248	0.36477306
607.447	0.36400848
607.646	0.36340993
607.845	0.36276636
608.045	0.36200971
608.244	0.36158848
608.443	0.36101589
608.642	0.36047907
608.841	0.35984419
609.04	0.35915649
609.239	0.35849148
609.438	0.35783544
609.637	0.35712783
609.836	0.35643833
610.035	0.35576148
610.234	0.3551889
610.433	0.3544857
610.632	0.35374187
610.831	0.35313109
611.03	0.35239212
611.229	0.35186098
611.428	0.35126352
611.627	0.35064608
611.826	0.3500871
612.025	0.34964641
612.224	0.34890617
612.422	0.34832682
612.621	0.34756652
612.82	0.34690179
613.019	0.34623631
613.218	0.3455763
613.416	0.34470554
613.615	0.34410948
613.814	0.34336283
614.012	0.34272059
614.211	0.34193224
614.41	0.34125459
614.608	0.34054006
614.807	0.33982203
615.006	0.33923355
615.204	0.33858969
615.403	0.3380467
615.602	0.33745565
615.8	0.33685926
615.999	0.3360184
616.197	0.33547344
616.396	0.33472771
616.594	0.3340372
616.793	0.33320177
616.991	0.33244149
617.19	0.3316412
617.388	0.33115022
617.586	0.33042623
617.785	0.32969519
617.983	0.32900484
618.182	0.32833868
618.38	0.32763735
618.578	0.32703104
618.777	0.32635911
618.975	0.32580222
619.173	0.32520735
619.372	0.32451516
619.57	0.3237594
619.768	0.32327135
619.966	0.32258017
620.165	0.3218228
620.363	0.32108883
620.561	0.32026599
620.759	0.31958108
620.957	0.31900923
621.155	0.31825888
621.354	0.31752951
621.552	0.31698305
621.75	0.31621754
621.948	0.31564211
622.146	0.31498102
622.344	0.31427866
622.542	0.31357714
622.74	0.31288011
622.938	0.31204709
623.136	0.31136868
623.334	0.31077864
623.532	0.31006818
623.73	0.30942623
623.928	0.30882452
624.126	0.30820649
624.324	0.30765569
624.522	0.30695652
624.719	0.30617942
624.917	0.30561531
625.115	0.30486628
625.313	0.30425082
625.511	0.3036614
625.708	0.30286223
625.906	0.30213883
626.104	0.3014364
626.302	0.30071739
626.499	0.2999861
626.697	0.29902817
626.895	0.29800044
627.093	0.29715158
627.29	0.29644424
627.488	0.29564582
627.686	0.29487313
627.883	0.29400827
628.081	0.29322197
628.278	0.2927011
628.476	0.29207197
628.673	0.2913631
628.871	0.29073372
629.068	0.28995765
629.266	0.28936885
629.463	0.28875153
629.661	0.28803302
629.858	0.28729705
630.056	0.28657403
630.253	0.28574946
630.451	0.2850476
630.648	0.28421573
630.845	0.28346902
631.043	0.28268659
631.24	0.2820282
631.438	0.28135236
631.635	0.28072791
631.832	0.27991514
632.029	0.27932206
632.227	0.27856314
632.424	0.27782713
632.621	0.27703722
632.818	0.27619499
633.016	0.27540047
633.213	0.27471612
633.41	0.27396029
633.607	0.2732572
633.804	0.27253872
634.001	0.27169422
634.199	0.27096541
634.396	0.27025136
634.593	0.26945366
634.79	0.26875992
634.987	0.26802188
635.184	0.26735564
635.381	0.26686713
635.578	0.26628205
635.775	0.26552991
635.972	0.2649279
636.169	0.26413265
636.366	0.26344998
636.563	0.26269032
636.76	0.26180227
636.957	0.2610208
637.153	0.26032726
637.35	0.2596808
637.547	0.25908222
637.744	0.25839885
637.941	0.257853
638.138	0.25738311
638.334	0.25675305
638.531	0.25617613
638.728	0.25559063
638.925	0.25502996
639.121	0.25441079
639.318	0.25361213
639.515	0.25271017
639.711	0.25198766
639.908	0.25115997
640.105	0.2503972
640.301	0.24959365
640.498	0.24891073
640.695	0.24832467
640.891	0.24778234
641.088	0.24718096
641.284	0.24659709
641.481	0.24596406
641.677	0.24530765
641.874	0.24455002
642.07	0.24390415
642.267	0.24326923
642.463	0.24257594
642.66	0.24202475
642.856	0.24128635
643.053	0.24063265
643.249	0.2400916
643.445	0.23945705
643.642	0.23871772
643.838	0.23811252
644.034	0.23738846
644.231	0.23668129
644.427	0.23607381
644.623	0.2353781
644.82	0.23476563
645.016	0.2341422
645.212	0.23341569
645.408	0.23277913
645.604	0.23227242
645.801	0.23160522
645.997	0.23086743
646.193	0.23015878
646.389	0.22961718
646.585	0.22909823
646.781	0.2285236
646.977	0.2279816
647.173	0.22739052
647.37	0.22683216
647.566	0.22619284
647.762	0.22555749
647.958	0.22493828
648.154	0.22422804
648.35	0.22347134
648.546	0.22268833
648.742	0.22213426
648.937	0.22135369
649.133	0.22068969
649.329	0.22007188
649.525	0.21947102
649.721	0.21885876
649.917	0.21837002
650.113	0.21762121
650.309	0.21712163
650.504	0.2164401
650.7	0.21576968
650.896	0.21520026
651.092	0.2146511
651.287	0.21412407
651.483	0.21369274
651.679	0.2131344
651.875	0.21273828
652.07	0.2121788
652.266	0.21156035
652.462	0.21098169
652.657	0.21038045
652.853	0.20975401
653.048	0.20921876
653.244	0.20856656
653.44	0.20807837
653.635	0.20746015
653.831	0.20693469
654.026	0.20640101
654.222	0.20580113
654.417	0.20528507
654.613	0.20462964
654.808	0.20389103
655.004	0.20328076
655.199	0.20251243
655.394	0.20181358
655.59	0.20126353
655.785	0.20048957
655.98	0.1999359
656.176	0.19935601
656.371	0.19898625
656.566	0.19860867
656.762	0.19804198
656.957	0.1975242
657.152	0.19718547
657.348	0.19676396
657.543	0.19640024
657.738	0.19584002
657.933	0.19529137
658.128	0.1948403
658.324	0.19433043
658.519	0.19379541
658.714	0.1931845
658.909	0.19255862
659.104	0.19197988
659.299	0.19136769
659.494	0.19077265
659.689	0.19017866
659.884	0.18948576
660.079	0.1888401
660.274	0.18821008
660.469	0.18758828
660.664	0.187095
660.859	0.18656767
661.054	0.18611839
661.249	0.18568644
661.444	0.18524828
661.639	0.18471234
661.834	0.18417954
662.029	0.18368744
662.224	0.18315966
662.418	0.18250983
662.613	0.1819096
662.808	0.1813212
663.003	0.18088016
663.198	0.18033816
663.392	0.17970825
663.587	0.1793258
663.782	0.17876403
663.977	0.17823982
664.171	0.17783057
664.366	0.17731847
664.561	0.17690642
664.755	0.17650786
664.95	0.17597818
665.144	0.17559167
665.339	0.17524732
665.534	0.17480522
665.728	0.17437951
665.923	0.17384651
666.117	0.17328276
666.312	0.17269764
666.506	0.17223647
666.701	0.17165777
666.895	0.17109219
667.09	0.17049632
667.284	0.17012913
667.479	0.16969429
667.673	0.16931054
667.867	0.16887079
668.062	0.16848811
668.256	0.16807824
668.45	0.16779178
668.645	0.16728277
668.839	0.16683269
669.033	0.16628527
669.228	0.16583921
669.422	0.16544503
669.616	0.16504279
669.81	0.16465731
670.004	0.16434639
670.199	0.16404916
670.393	0.16381328
670.587	0.16344918
670.781	0.16297229
670.975	0.16257704
671.169	0.16202085
671.363	0.16147214
671.558	0.16104247
671.752	0.1605863
671.946	0.16020263
672.14	0.15983018
672.334	0.1593098
672.528	0.15898735
672.722	0.15852989
672.916	0.15806519
673.11	0.15753719
673.304	0.15707174
673.497	0.15657543
673.691	0.15625559
673.885	0.15572568
674.079	0.15535948
674.273	0.15483923
674.467	0.1544383
674.661	0.15398101
674.854	0.15363954
675.048	0.1532558
675.242	0.15300269
675.436	0.15268793
675.629	0.15245894
675.823	0.152123
676.017	0.15180308
676.211	0.15144261
676.404	0.15099124
676.598	0.15055375
676.792	0.15020864
676.985	0.14979122
677.179	0.14939337
677.372	0.14895166
677.566	0.14850911
677.76	0.14812217
677.953	0.14767385
678.147	0.14719793
678.34	0.14691024
678.534	0.14660093
678.727	0.14638647
678.921	0.14618211
679.114	0.14595341
679.307	0.14579539
679.501	0.14557821
679.694	0.14524808
679.888	0.14493107
680.081	0.14454682
680.274	0.14405064
680.468	0.14368109
680.661	0.14318115
680.854	0.14286081
681.048	0.14240844
681.241	0.14191589
681.434	0.14141564
681.627	0.14100783
681.821	0.14057813
682.014	0.14031996
682.207	0.13987214
682.4	0.1395875
682.593	0.13936437
682.786	0.13912803
682.98	0.1388898
683.173	0.13864216
683.366	0.13832291
683.559	0.13801839
683.752	0.13767694
683.945	0.13737972
684.138	0.13713792
684.331	0.13686325
684.524	0.13657765
684.717	0.13625276
684.91	0.13600487
685.103	0.13573411
685.296	0.13538223
685.489	0.13504644
685.682	0.13469204
685.874	0.13429136
686.067	0.1339723
686.26	0.13366397
686.453	0.13334424
686.646	0.13308267
686.839	0.13286082
687.031	0.13266153
687.224	0.13247789
687.417	0.13240223
687.61	0.13220639
687.802	0.13201866
687.995	0.13183697
688.188	0.13156428
688.38	0.13127178
688.573	0.13107814
688.766	0.13073116
688.958	0.13036488
689.151	0.13001638
689.343	0.12982926
689.536	0.12961146
689.729	0.12942335
689.921	0.12921789
690.114	0.1289585
690.306	0.12885555
690.499	0.12883672
690.691	0.12863357
690.884	0.12842226
691.076	0.12823311
691.268	0.1279002
691.461	0.12760082
691.653	0.12730768
691.846	0.12691453
692.038	0.12662111
692.23	0.12630616
692.423	0.12601991
692.615	0.1258873
692.807	0.12575989
692.999	0.12559061
693.192	0.12539609
693.384	0.12514358
693.576	0.12497805
693.768	0.12490912
693.961	0.12468626
694.153	0.12451079
694.345	0.12442874
694.537	0.1244279
694.729	0.12444977
694.921	0.12437653
695.113	0.12412941
695.305	0.12394132
695.498	0.12372594
695.69	0.12341404
695.882	0.12301602
696.074	0.12264115
696.266	0.12231579
696.458	0.12204038
696.65	0.12187055
696.842	0.12174791
697.033	0.12171197
697.225	0.12167766
697.417	0.12163597
697.609	0.12150332
697.801	0.12133736
697.993	0.1210994
698.185	0.12085225
698.376	0.12053969
698.568	0.12026411
698.76	0.12002048
698.952	0.11989108
699.144	0.11983294
699.335	0.11983851
699.527	0.11978305
699.719	0.11969645
699.91	0.11962681
700.102	0.11949449
700.294	0.1194429
700.485	0.11937163
700.677	0.11921688
700.869	0.1191932
701.06	0.1191073
701.252	0.11898781
701.443	0.11888418
701.635	0.11874769
701.826	0.11857843
702.018	0.11842193
702.209	0.11827243
702.401	0.11827744
702.592	0.11833013
702.784	0.11840211
702.975	0.11840376
703.166	0.1184982
703.358	0.11851043
703.549	0.1183831
703.741	0.11815004
703.932	0.11788816
704.123	0.1176784
704.315	0.11749001
704.506	0.11728541
704.697	0.11706721
704.888	0.11698352
705.08	0.11692203
705.271	0.11690336
705.462	0.11676188
705.653	0.11660386
705.844	0.11643704
706.035	0.11642761
706.227	0.1163441
706.418	0.11632708
706.609	0.11626109
706.8	0.11624146
706.991	0.11627298
707.182	0.11631827
707.373	0.11630174
707.564	0.11628393
707.755	0.11618381
707.946	0.11616002
708.137	0.11615919
708.328	0.11604667
708.519	0.11593296
708.71	0.11576991
708.901	0.1155895
709.092	0.1154953
709.283	0.1153431
709.473	0.11519846
709.664	0.11512779
709.855	0.11498169
710.046	0.11490999
710.237	0.11483996
710.427	0.11467466
710.618	0.11458789
710.809	0.11450736
711	0.11446793
711.19	0.11445038
711.381	0.11446326
711.572	0.11443313
711.762	0.11451989
711.953	0.11455669
712.144	0.11455152
712.334	0.11451851
712.525	0.11460059
712.715	0.11459694
712.906	0.11454112
713.097	0.11446133
713.287	0.11436496
713.478	0.11438299
713.668	0.1144938
713.859	0.11455627
714.049	0.1146591
714.239	0.11484822
714.43	0.11488095
714.62	0.11499975
714.811	0.11506717
715.001	0.11501607
715.191	0.114945
715.382	0.11480598
715.572	0.11482301
715.762	0.11498464
715.953	0.11508101
716.143	0.11510808
716.333	0.11519379
716.523	0.11530394
716.714	0.11551304
716.904	0.11556403
717.094	0.11562747
717.284	0.11568134
717.474	0.11571932
717.664	0.11579271
717.855	0.11581685
718.045	0.11587941
718.235	0.11598447
718.425	0.11611317
718.615	0.11617847
718.805	0.11627651
718.995	0.11631983
719.185	0.11637139
719.375	0.11636944
719.565	0.11638228
719.755	0.11631307
719.945	0.11628712
720.135	0.11637307
720.325	0.11644314
720.515	0.11660738
720.704	0.11668293
720.894	0.11674162
721.084	0.11680464
721.274	0.11697493
721.464	0.11707673
721.654	0.11723599
721.843	0.11727272
722.033	0.11739345
722.223	0.11749198
722.413	0.11767268
722.602	0.1177231
722.792	0.1177539
722.982	0.11778495
723.171	0.11786051
723.361	0.11795433
723.55	0.11804366
723.74	0.11806942
723.93	0.118165
724.119	0.11827472
724.309	0.11837814
724.498	0.11850437
724.688	0.11866455
724.877	0.1188159
725.067	0.11895858
725.256	0.11909289
725.446	0.11927314
725.635	0.11932448
725.825	0.1194564
726.014	0.11955664
726.203	0.11963426
726.393	0.11969594
726.582	0.11975612
726.771	0.11981523
726.961	0.11999521
727.15	0.1201138
727.339	0.12016594
727.529	0.12031576
727.718	0.12047415
727.907	0.1206478
728.096	0.12072815
728.286	0.12079603
728.475	0.1208854
728.664	0.12097056
728.853	0.12106853
729.042	0.12118123
729.231	0.12128281
729.42	0.12133238
729.609	0.12132932
729.799	0.12127922
729.988	0.12132141
730.177	0.12132801
730.366	0.12134069
730.555	0.12131926
730.744	0.12138356
730.933	0.12145471
731.122	0.12146416
731.31	0.12145278
731.499	0.12146863
731.688	0.121543
731.877	0.12169684
732.066	0.12194037
732.255	0.12219898
732.444	0.12253139
732.632	0.12284117
732.821	0.12313927
733.01	0.12336313
733.199	0.1235146
733.388	0.12361229
733.576	0.12377588
733.765	0.12387942
733.954	0.12402293
734.142	0.12419178
734.331	0.12434832
734.52	0.12455627
734.708	0.12471399
734.897	0.12486749
735.086	0.12511423
735.274	0.12530907
735.463	0.12544084
735.651	0.12562328
735.84	0.12582174
736.028	0.12604713
736.217	0.12620164
736.405	0.12630596
736.594	0.12643211
736.782	0.12655834
736.971	0.12667281
737.159	0.12671263
737.347	0.12674558
737.536	0.12677946
737.724	0.12678471
737.912	0.12677658
738.101	0.12686143
738.289	0.12694322
738.477	0.12706187
738.666	0.12709488
738.854	0.12728239
739.042	0.12752503
739.23	0.12774385
739.418	0.12799024
739.607	0.12823458
739.795	0.12843595
739.983	0.12875953
740.171	0.12896885
740.359	0.12918148
740.547	0.12947017
740.735	0.12964399
740.923	0.12986522
741.112	0.13019833
741.3	0.13049109
741.488	0.13078551
741.676	0.13104419
741.864	0.13123781
742.052	0.13151491
742.239	0.13169435
742.427	0.13173842
742.615	0.13178604
742.803	0.13189289
742.991	0.13206287
743.179	0.13226738
743.367	0.13241334
743.555	0.13261037
743.742	0.13286783
743.93	0.13318632
744.118	0.13339228
744.306	0.13360451
744.494	0.13391237
744.681	0.13420935
744.869	0.13444952
745.057	0.13462167
745.244	0.13474548
745.432	0.13493654
745.62	0.1351064
745.807	0.13524392
745.995	0.13545037
746.182	0.13571105
746.37	0.13601631
746.558	0.13628564
746.745	0.13657236
746.933	0.13682425
747.12	0.13704837
747.308	0.13719624
747.495	0.13732293
747.683	0.13757013
747.87	0.13786003
748.057	0.13811451
748.245	0.13836622
748.432	0.13854255
748.62	0.13874427
748.807	0.13903447
748.994	0.13927191
749.182	0.13947154
749.369	0.13970465
749.556	0.13997835
749.743	0.14024286
749.931	0.14056683
750.118	0.14080669
750.305	0.14092318
750.492	0.14107813
750.68	0.14131636
750.867	0.14159423
751.054	0.14186138
751.241	0.14210328
751.428	0.14231801
751.615	0.1425945
751.802	0.14280824
751.989	0.14290133
752.176	0.14297036
752.363	0.143031
752.55	0.14310012
752.737	0.1432238
752.924	0.14340238
753.111	0.1436595
753.298	0.14395652
753.485	0.14426058
753.672	0.14454649
753.859	0.14488459
754.046	0.14517523
754.233	0.14537557
754.42	0.14563445
754.606	0.14580892
754.793	0.14594362
754.98	0.14616463
755.167	0.14627599
755.353	0.14650053
755.54	0.146808
755.727	0.14709893
755.914	0.14736426
756.1	0.14763754
756.287	0.14793442
756.474	0.14821815
756.66	0.14841661
756.847	0.14852967
757.033	0.14851888
757.22	0.14858923
757.407	0.14872316
757.593	0.14880308
757.78	0.14894475
757.966	0.14914153
758.153	0.1493778
758.339	0.14960116
758.526	0.14982681
758.712	0.1499838
758.898	0.15027526
759.085	0.15060087
759.271	0.15096953
759.458	0.15134922
759.644	0.15181929
759.83	0.15229037
760.017	0.15275391
760.203	0.15316247
760.389	0.15349092
760.576	0.15371282
760.762	0.15391555
760.948	0.15406801
761.134	0.15424165
761.32	0.15443998
761.507	0.15463193
761.693	0.15485929
761.879	0.1551587
762.065	0.15553605
762.251	0.15603119
762.437	0.15652029
762.623	0.15692772
762.809	0.15721883
762.995	0.15745436
763.181	0.15770449
763.367	0.15792327
763.553	0.15804836
763.739	0.15808582
763.925	0.15814989
764.111	0.15830654
764.297	0.15855875
764.483	0.15867503
764.669	0.1588425
764.855	0.15904172
765.041	0.15931131
765.227	0.159583
765.412	0.15987282
765.598	0.16023693
765.784	0.16076731
765.97	0.16123205
766.156	0.16169493
766.341	0.16211343
766.527	0.16253882
766.713	0.16301463
766.898	0.16339087
767.084	0.1635786
767.27	0.16366599
767.455	0.16377178
767.641	0.16395166
767.827	0.16413013
768.012	0.16420648
768.198	0.16430135
768.383	0.16458558
768.569	0.16499489
768.754	0.16544749
768.94	0.16584229
769.125	0.16622021
769.311	0.1666307
769.496	0.16699022
769.682	0.16726088
769.867	0.16749681
770.052	0.1676583
770.238	0.16783717
770.423	0.16808453
770.608	0.16836354
770.794	0.16870789
770.979	0.16903881
771.164	0.16935988
771.35	0.16962481
771.535	0.16990007
771.72	0.17014509
771.905	0.17039432
772.09	0.17048654
772.276	0.17065057
772.461	0.17088023
772.646	0.17122128
772.831	0.17161718
773.016	0.17199387
773.201	0.17235384
773.386	0.17289498
773.571	0.17333009
773.756	0.17363084
773.941	0.17391927
774.126	0.17423474
774.311	0.17456597
774.496	0.17495666
774.681	0.17526216
774.866	0.17557803
775.051	0.17596746
775.236	0.17629799
775.421	0.17654276
775.606	0.17683643
775.791	0.17695431
775.976	0.17706402
776.16	0.17713836
776.345	0.17726769
776.53	0.17745525
776.715	0.17768057
776.899	0.17778614
777.084	0.17797297
777.269	0.1782066
777.454	0.17842767
777.638	0.17865094
777.823	0.17893275
778.008	0.17921265
778.192	0.1796377
778.377	0.17995958
778.561	0.180229
778.746	0.18058993
778.931	0.18083656
779.115	0.18102497
779.3	0.18115726
779.484	0.181246
779.669	0.18146399
779.853	0.18162817
780.037	0.18174775
780.222	0.18189213
780.406	0.18190992
780.591	0.18202511
780.775	0.18214165
780.959	0.18225025
781.144	0.18238729
781.328	0.18253085
781.512	0.18271751
781.697	0.1830541
781.881	0.18336374
782.065	0.18364722
782.249	0.18373943
782.434	0.18390763
782.618	0.18408323
782.802	0.18422858
782.986	0.18430209
783.17	0.18438814
783.354	0.18436812
783.539	0.18456131
783.723	0.18468685
783.907	0.18482624
784.091	0.18507664
784.275	0.1852417
784.459	0.18537232
784.643	0.18564
784.827	0.1858824
785.011	0.18611505
785.195	0.18631904
785.379	0.18644021
785.563	0.1866755
785.747	0.18682831
785.93	0.18698493
786.114	0.18698824
786.298	0.18692675
786.482	0.18694537
786.666	0.18697304
786.85	0.18702547
787.033	0.18725484
787.217	0.18736806
787.401	0.18770491
787.585	0.18812148
787.768	0.18841511
787.952	0.18869293
788.136	0.18891023
788.319	0.18905567
788.503	0.18928741
788.687	0.18946156
788.87	0.18958838
789.054	0.18981377
789.237	0.19013372
789.421	0.19042947
789.605	0.19069746
789.788	0.19090487
789.972	0.19107272
790.155	0.19130416
790.338	0.1915371
790.522	0.19168068
790.705	0.19190026
790.889	0.19218701
791.072	0.19264619
791.256	0.19309114
791.439	0.19355694
791.622	0.19399943
791.806	0.19450615
791.989	0.19486376
792.172	0.19509703
792.355	0.19516989
792.539	0.19518655
792.722	0.19519575
792.905	0.19513441
793.088	0.19506429
793.271	0.19516238
793.455	0.19534835
793.638	0.19556238
793.821	0.19583622
794.004	0.19608348
794.187	0.1965392
794.37	0.1969842
794.553	0.19737346
794.736	0.19764759
794.919	0.19797375
795.102	0.19817413
795.285	0.1984054
795.468	0.19851438
795.651	0.19866018
795.834	0.19886015
796.017	0.19912375
796.2	0.19939392
796.383	0.19976382
796.566	0.2000525
796.749	0.20029594
796.931	0.20046804
797.114	0.20064066
797.297	0.20082256
797.48	0.20103338
797.663	0.2012758
797.845	0.20155226
798.028	0.20194337
798.211	0.20227829
798.393	0.20272644
798.576	0.20313541
798.759	0.20336484
798.941	0.20373287
799.124	0.20411859
799.307	0.20445672
799.489	0.20480438
799.672	0.204931
799.854	0.20497905
800.037	0.20519467
800.219	0.20533146
800.402	0.20543543
800.584	0.2055414
800.767	0.20584141
800.949	0.20619022
801.132	0.20668528
801.314	0.2070524
801.496	0.20737412
801.679	0.20772539
801.861	0.20798057
802.043	0.20801492
802.226	0.20805903
802.408	0.20801397
802.59	0.20806737
802.772	0.20809871
802.955	0.20825956
803.137	0.208478
803.319	0.20869151
803.501	0.20883453
803.684	0.20897222
803.866	0.20898793
804.048	0.20910581
804.23	0.20913217
804.412	0.20928883
804.594	0.20937339
804.776	0.20958618
804.958	0.20974053
805.14	0.20996094
805.322	0.21005322
805.504	0.21018705
805.686	0.21016195
805.868	0.21026871
806.05	0.21031216
806.232	0.21046686
806.414	0.21074753
806.596	0.21105295
806.778	0.2112148
806.96	0.21145208
807.141	0.21156977
807.323	0.21168727
807.505	0.21167506
807.687	0.21149041
807.869	0.21124455
808.05	0.21105291
808.232	0.21084226
808.414	0.21070336
808.595	0.21061189
808.777	0.21071196
808.959	0.21092907
809.14	0.21114596
809.322	0.21143474
809.504	0.21171005
809.685	0.21209242
809.867	0.21237785
810.048	0.21254389
810.23	0.21259229
810.411	0.21267333
810.593	0.21265976
810.774	0.2126725
810.956	0.21255825
811.137	0.2124605
811.319	0.21242927
811.5	0.21244812
811.681	0.21244801
811.863	0.21251254
812.044	0.2125628
812.225	0.21266391
812.407	0.21283101
812.588	0.21293745
812.769	0.21309471
812.951	0.21332502
813.132	0.21349815
813.313	0.21367913
813.494	0.21379108
813.675	0.21385082
813.857	0.21405286
814.038	0.21432377
814.219	0.21447502
814.4	0.21477268
814.581	0.21507983
814.762	0.21540735
814.943	0.21574527
815.124	0.21588316
815.305	0.21597393
815.486	0.21624847
815.667	0.21634321
815.848	0.21643283
816.029	0.2165085
816.21	0.2166098
816.391	0.21683746
816.572	0.2169468
816.753	0.21701859
816.934	0.21708371
817.115	0.21710774
817.295	0.21720894
817.476	0.21722939
817.657	0.21720371
817.838	0.2173339
818.019	0.21740997
818.199	0.21758703
818.38	0.21769348
818.561	0.21779525
818.741	0.21796327
818.922	0.21823469
819.103	0.21844132
819.283	0.21862756
819.464	0.21882182
819.645	0.21908577
819.825	0.21930012
820.006	0.21945554
820.186	0.21962298
820.367	0.21977421
820.547	0.21985214
820.728	0.21993058
820.908	0.21998513
821.089	0.22022441
821.269	0.22048099
821.45	0.22079469
821.63	0.22100376
821.81	0.22130958
821.991	0.22162294
822.171	0.2219411
822.351	0.22210169
822.532	0.22237875
822.712	0.22248599
822.892	0.22273244
823.072	0.22295227
823.253	0.22308998
823.433	0.22328497
823.613	0.22356857
823.793	0.22377664
823.973	0.22395776
824.154	0.224073
824.334	0.22413699
824.514	0.22415351
824.694	0.22418039
824.874	0.22426604
825.054	0.22427261
825.234	0.22437015
825.414	0.22443122
825.594	0.22463043
825.774	0.22484691
825.954	0.22509316
826.134	0.22522573
826.314	0.22547768
826.494	0.22566094
826.674	0.22569278
826.854	0.22571061
827.033	0.2259172
827.213	0.2260128
827.393	0.22605036
827.573	0.22610333
827.753	0.22628971
827.932	0.22668366
828.112	0.22696594
828.292	0.22716335
828.472	0.22727461
828.651	0.22737133
828.831	0.2274163
829.011	0.22741252
829.19	0.2273019
829.37	0.22738011
829.549	0.2274266
829.729	0.2276088
829.909	0.22788172
830.088	0.22817724
830.268	0.22832479
830.447	0.22861711
830.627	0.22883162
830.806	0.22903405
830.986	0.2292512
831.165	0.22940832
831.344	0.22950783
831.524	0.22962842
831.703	0.22974489
831.883	0.2297997
832.062	0.22988212
832.241	0.2298563
832.421	0.22988356
832.6	0.22993441
832.779	0.23006117
832.958	0.2301709
833.138	0.23033571
833.317	0.23053462
833.496	0.23081627
833.675	0.23104186
833.854	0.23126752
834.034	0.23141675
834.213	0.23146867
834.392	0.23156114
834.571	0.23166382
834.75	0.23169201
834.929	0.23178939
835.108	0.23176757
835.287	0.23194549
835.466	0.23210148
835.645	0.23214851
835.824	0.23209261
836.003	0.23202811
836.182	0.23185798
836.361	0.23171239
836.54	0.23137266
836.719	0.2312084
836.897	0.23108621
837.076	0.2310019
837.255	0.23099266
837.434	0.23116833
837.613	0.23131208
837.791	0.23157583
837.97	0.23174645
838.149	0.23174591
838.328	0.23182659
838.506	0.23192335
838.685	0.23191963
838.864	0.23212618
839.042	0.23224043
839.221	0.2324715
839.4	0.23282575
839.578	0.23307621
839.757	0.23323477
839.935	0.23350943
840.114	0.23366946
840.292	0.2337682
840.471	0.23387104
840.649	0.23392126
840.828	0.23396985
841.006	0.23413072
841.185	0.23409199
841.363	0.23406526
841.541	0.23416355
841.72	0.23406095
841.898	0.23404134
842.076	0.23402131
842.255	0.23394771
842.433	0.23402018
842.611	0.23402433
842.789	0.23395358
842.968	0.23400018
843.146	0.23398972
843.324	0.23398712
843.502	0.23399912
843.68	0.23402358
843.859	0.23407166
844.037	0.23406784
844.215	0.23401364
844.393	0.23397117
844.571	0.23399175
844.749	0.23405091
844.927	0.23394774
845.105	0.23388145
845.283	0.23391048
845.461	0.23398465
845.639	0.23417613
845.817	0.23429899
845.995	0.23453085
846.173	0.23485726
846.351	0.23500004
846.529	0.23518128
846.706	0.23522339
846.884	0.23515454
847.062	0.23498564
847.24	0.23473785
847.418	0.23442136
847.595	0.23428007
847.773	0.23414695
847.951	0.23398524
848.129	0.23389399
848.306	0.23397137
848.484	0.23396309
848.662	0.23413776
848.839	0.23435673
849.017	0.23462302
849.194	0.23497069
849.372	0.23530879
849.549	0.23558769
849.727	0.23590337
849.905	0.23606735
850.082	0.23616141
850.26	0.2362801
850.437	0.23635823
850.614	0.23636863
850.792	0.2363553
850.969	0.23638267
851.147	0.23648905
851.324	0.23639213
851.501	0.23620988
851.679	0.23607889
851.856	0.23596651
852.033	0.23585352
852.211	0.2356176
852.388	0.23531161
852.565	0.23536262
852.742	0.23539649
852.92	0.23536595
853.097	0.23550039
853.274	0.23553754
853.451	0.23553402
853.628	0.2355046
853.805	0.23546314
853.982	0.23537103
854.159	0.23529255
854.336	0.23502752
854.514	0.23496932
854.691	0.23491214
854.868	0.23495337
855.045	0.23482992
855.221	0.23476168
855.398	0.23473061
855.575	0.23470715
855.752	0.23461287
855.929	0.23464635
856.106	0.23446449
856.283	0.23437756
856.46	0.2343296
856.637	0.23441366
856.813	0.23432649
856.99	0.2343602
857.167	0.23434949
857.344	0.23453735
857.52	0.23473357
857.697	0.2346152
857.874	0.23441016
858.05	0.23444988
858.227	0.23446195
858.404	0.23441316
858.58	0.23438696
858.757	0.23419684
858.933	0.23422054
859.11	0.23406354
859.287	0.23384695
859.463	0.23349071
859.64	0.23336833
859.816	0.23313752
859.993	0.23310176
860.169	0.23316312
860.345	0.23325892
860.522	0.23332387
860.698	0.23326939
860.875	0.2331034
861.051	0.23299671
861.227	0.23285768
861.404	0.23280561
861.58	0.23282814
861.756	0.23293038
861.932	0.23319816
862.109	0.23336553
862.285	0.23359144
862.461	0.23376567
862.637	0.23379899
862.813	0.23386502
862.99	0.23381646
863.166	0.23376192
863.342	0.23382275
863.518	0.23370205
863.694	0.23369112
863.87	0.23348032
864.046	0.23332604
864.222	0.23329301
864.398	0.23310069
864.574	0.23289409
864.75	0.23278323
864.926	0.23265518
865.102	0.23277779
865.278	0.23273464
865.454	0.23260456
865.63	0.2324956
865.805	0.23236683
865.981	0.23227758
866.157	0.23214275
866.333	0.23194041
866.509	0.23195241
866.684	0.23200862
866.86	0.23215258
867.036	0.23229535
867.212	0.23233537
867.387	0.23225981
867.563	0.23224958
867.739	0.23209345
867.914	0.23209338
868.09	0.23202079
868.265	0.23195221
868.441	0.23179957
868.617	0.23176247
868.792	0.23158875
868.968	0.23150779
869.143	0.23149638
869.319	0.23153817
869.494	0.23143488
869.67	0.231516
869.845	0.23149471
870.02	0.23154913
870.196	0.23159513
870.371	0.23141472
870.546	0.23118701
870.722	0.23124275
870.897	0.23119
871.072	0.23114838
871.248	0.2310436
871.423	0.23084993
871.598	0.23073586
871.773	0.23056574
871.949	0.23020245
872.124	0.23012073
872.299	0.23010295
872.474	0.23006726
872.649	0.23000039
872.824	0.22983578
872.999	0.22983075
873.174	0.22979883
873.349	0.22968501
873.524	0.22936982
873.699	0.22910711
873.874	0.22889256
874.049	0.2287373
874.224	0.22847376
874.399	0.22824042
874.574	0.22791059
874.749	0.22772166
874.924	0.22748471
875.099	0.22740057
875.274	0.22721022
875.449	0.22708004
875.623	0.22678974
875.798	0.22651242
875.973	0.22625325
876.148	0.22601358
876.322	0.22569319
876.497	0.22549567
876.672	0.22525652
876.846	0.22520303
877.021	0.22509006
877.196	0.22492866
877.37	0.22488436
877.545	0.22482267
877.72	0.22471653
877.894	0.22473286
878.069	0.22464289
878.243	0.22461207
878.418	0.22469726
878.592	0.22472614
878.767	0.22483606
878.941	0.22487635
879.116	0.22471733
879.29	0.2247437
879.464	0.22471398
879.639	0.22468128
879.813	0.22468933
879.987	0.22444299
880.162	0.2241383
880.336	0.22403876
880.51	0.2238372
880.685	0.22359191
880.859	0.22338584
881.033	0.22303425
881.207	0.22279047
881.381	0.22263958
881.556	0.22246951
881.73	0.2221811
881.904	0.22208684
882.078	0.22169152
882.252	0.22141614
882.426	0.22128068
882.6	0.22120949
882.774	0.22113971
882.948	0.22122914
883.122	0.22086872
883.296	0.22072087
883.47	0.22066299
883.644	0.22046135
883.818	0.22007682
883.992	0.21978166
884.166	0.21956188
884.34	0.21957681
884.514	0.21970591
884.687	0.21965954
884.861	0.21964581
885.035	0.21975135
885.209	0.21991477
885.382	0.21986937
885.556	0.21978013
885.73	0.21968039
885.904	0.21966923
886.077	0.21947673
886.251	0.21926019
886.425	0.2190055
886.598	0.2186835
886.772	0.21855224
886.945	0.21815653
887.119	0.21779493
887.292	0.21769504
887.466	0.2177736
887.64	0.21766574
887.813	0.21777407
887.986	0.21777314
888.16	0.21810562
888.333	0.21833942
888.507	0.21848611
888.68	0.21836541
888.854	0.21838671
889.027	0.21830931
889.2	0.21835029
889.374	0.21811637
889.547	0.21778923
889.72	0.21744057
889.893	0.21712789
890.067	0.21673788
890.24	0.21636666
890.413	0.21590311
890.586	0.21561855
890.759	0.215467
890.933	0.21540731
891.106	0.21535688
891.279	0.21532093
891.452	0.21529432
891.625	0.21510935
891.798	0.21487663
891.971	0.21474228
892.144	0.2144332
892.317	0.21415552
892.49	0.21372047
892.663	0.21337906
892.836	0.21316697
893.009	0.21294072
893.182	0.21251141
893.355	0.21225353
893.527	0.21212385
893.7	0.21211694
893.873	0.21196166
894.046	0.21189548
894.219	0.21182535
894.391	0.21179161
894.564	0.21181061
894.737	0.21155307
894.91	0.21138728
895.082	0.2111447
895.255	0.21088905
895.428	0.21064662
895.6	0.21049314
895.773	0.21009758
895.945	0.20993208
896.118	0.20968745
896.291	0.20958982
896.463	0.20933667
896.636	0.20902077
896.808	0.20876346
896.981	0.20873295
897.153	0.20853377
897.326	0.20835071
897.498	0.20805646
897.67	0.20789695
897.843	0.20788822
898.015	0.20769832
898.187	0.2075187
898.36	0.20737913
898.532	0.20715955
898.704	0.20705651
898.877	0.20691698
899.049	0.20664473
899.221	0.2064988
899.393	0.20632812
899.566	0.2061563
899.738	0.20623239
899.91	0.20616725
900.082	0.20624976
900.254	0.20628488
900.426	0.20626374
900.598	0.20619158
900.77	0.20615313
900.942	0.20586073
901.114	0.20563347
901.286	0.20519838
901.458	0.20491757
901.63	0.20457456
901.802	0.20429099
901.974	0.20390949
902.146	0.20355033
902.318	0.20336935
902.49	0.2030441
902.662	0.20272171
902.834	0.20244624
903.005	0.20214229
903.177	0.20180659
903.349	0.20160458
903.521	0.20124317
903.693	0.20116327
903.864	0.20113311
904.036	0.20105721
904.208	0.20087618
904.379	0.20094965
904.551	0.20094552
904.723	0.20086431
904.894	0.20055305
905.066	0.20006803
905.237	0.19968226
905.409	0.1992806
905.58	0.19877357
905.752	0.19846129
905.923	0.19809459
906.095	0.19795978
906.266	0.19790905
906.438	0.19787506
906.609	0.19795475
906.78	0.19794855
906.952	0.19781577
907.123	0.19761058
907.295	0.19735489
907.466	0.19710023
907.637	0.19671708
907.808	0.19624241
907.98	0.19583685
908.151	0.19537649
908.322	0.19511993
908.493	0.19472968
908.665	0.1943079
908.836	0.19400471
909.007	0.19377102
909.178	0.19360469
909.349	0.1933841
909.52	0.19338956
909.691	0.19342398
909.862	0.19347321
910.033	0.19341604
910.204	0.19340188
910.375	0.19334898
910.546	0.19339215
910.717	0.19310335
910.888	0.19313632
911.059	0.19299931
911.23	0.19291642
911.401	0.19271821
911.572	0.19257648
911.742	0.19235193
911.913	0.19240182
912.084	0.19205777
912.255	0.19200344
912.426	0.19182676
912.596	0.19168927
912.767	0.19164729
912.938	0.19159999
913.108	0.19154162
913.279	0.19148456
913.45	0.19118269
913.62	0.19108513
913.791	0.19094901
913.962	0.19061684
914.132	0.1902307
914.303	0.18970057
914.473	0.18941342
914.644	0.18906567
914.814	0.18862045
914.985	0.18817605
915.155	0.18777964
915.326	0.18741492
915.496	0.1870282
915.666	0.18658424
915.837	0.18636244
916.007	0.18613608
916.177	0.18585323
916.348	0.18578174
916.518	0.18568649
916.688	0.18560474
916.858	0.18550426
917.029	0.18523901
917.199	0.18500902
917.369	0.18501061
917.539	0.18481586
917.709	0.18466728
917.88	0.18440919
918.05	0.18408116
918.22	0.18399977
918.39	0.18398684
918.56	0.18376025
918.73	0.18352707
918.9	0.18331188
919.07	0.1832225
919.24	0.18312571
919.41	0.1828346
919.58	0.18241424
919.75	0.18213208
919.92	0.18182967
920.09	0.18156962
920.26	0.18115761
920.429	0.18087602
920.599	0.18057169
920.769	0.18041013
920.939	0.18010063
921.109	0.17980372
921.278	0.17953005
921.448	0.17936358
921.618	0.17919218
921.787	0.17907811
921.957	0.17877303
922.127	0.1785453
922.296	0.17851197
922.466	0.17826858
922.636	0.17806233
922.805	0.17773628
922.975	0.17725483
923.144	0.17692345
923.314	0.17661666
923.483	0.1760108
923.653	0.17549125
923.822	0.17498459
923.992	0.17451773
924.161	0.17432923
924.331	0.17394993
924.5	0.17358291
924.669	0.17335037
924.839	0.17310166
925.008	0.17290511
925.177	0.17267506
925.347	0.17247342
925.516	0.17245615
925.685	0.17242035
925.854	0.17245176
926.023	0.17256249
926.193	0.1727344
926.362	0.17288942
926.531	0.17274852
926.7	0.17259223
926.869	0.17248168
927.038	0.17207941
927.207	0.17178048
927.376	0.17127592
927.545	0.17086624
927.715	0.17063089
927.884	0.17021457
928.052	0.16992447
928.221	0.16958364
928.39	0.16913046
928.559	0.1688177
928.728	0.16841238
928.897	0.16808837
929.066	0.16785525
929.235	0.16748197
929.404	0.16731895
929.572	0.16713351
929.741	0.1668673
929.91	0.16662109
930.079	0.16623193
930.247	0.16607164
930.416	0.16597118
930.585	0.16572246
930.753	0.16567658
930.922	0.16574982
931.091	0.16573049
931.259	0.16581774
931.428	0.16587405
931.596	0.16587867
931.765	0.16617845
931.934	0.16625494
932.102	0.16591103
932.27	0.16581975
932.439	0.16573823
932.607	0.16533826
932.776	0.16512209
932.944	0.16466358
933.113	0.16421758
933.281	0.16412761
933.449	0.16384543
933.618	0.16348364
933.786	0.16357989
933.954	0.16334081
934.123	0.16320809
934.291	0.1630708
934.459	0.16295847
934.627	0.1628104
934.795	0.16271255
934.964	0.16228887
935.132	0.16200203
935.3	0.16157565
935.468	0.16134357
935.636	0.16118217
935.804	0.16084782
935.972	0.16067571
936.14	0.16052646
936.308	0.16035777
936.476	0.16048085
936.644	0.16044617
936.812	0.16009993
936.98	0.16002677
937.148	0.15970342
937.316	0.15931659
937.484	0.15926627
937.652	0.15887956
937.82	0.15898131
937.987	0.15874486
938.155	0.15873672
938.323	0.15889701
938.491	0.15863642
938.658	0.15857006
938.826	0.15826814
938.994	0.15771496
939.162	0.15770375
939.329	0.15757314
939.497	0.15757997
939.665	0.15754892
939.832	0.15753978
940	0.15739607
940.167	0.15700625
940.335	0.15642091
940.502	0.15575692
940.67	0.15519448
940.837	0.15530315
941.005	0.15469284
941.172	0.1549317
941.34	0.15512278
941.507	0.15570288
941.674	0.15618694
941.842	0.15619459
942.009	0.15691822
942.177	0.1557802
942.344	0.15574657
942.511	0.15540377
942.678	0.15574332
942.846	0.15517767
943.013	0.15484576
943.18	0.15388573
943.347	0.15474125
943.514	0.15415163
943.682	0.15466879
943.849	0.15340028
944.016	0.15272617
944.183	0.15307013
944.35	0.15267781
944.517	0.15271166
944.684	0.153036
944.851	0.15042897
945.018	0.15003623
945.185	0.14946794
945.352	0.14820248
945.519	0.14754151
945.686	0.14699477
945.853	0.14705425
946.02	0.14770201
946.187	0.14692147
946.353	0.14795427
946.52	0.14750189
946.687	0.14693305
946.854	0.1466719
947.021	0.14526082
947.187	0.14520818
947.354	0.14451956
947.521	0.14403241
947.687	0.14380927
947.854	0.14401331
948.021	0.14255498
948.187	0.14270053
948.354	0.14199664
948.52	0.14244588
948.687	0.14230895
948.854	0.14234963
949.02	0.14173547
949.187	0.14219028
949.353	0.14166171
949.52	0.14133989
949.686	0.14069791
949.852	0.14031649
950.019	0.14038548
950.185	0.14014619
950.352	0.13929282
950.518	0.13905392
950.684	0.13901569
950.851	0.13860806
951.017	0.13768186
951.183	0.13723877
951.349	0.13712319
951.516	0.13688279
951.682	0.13625369
951.848	0.13574709
952.014	0.13506041
952.18	0.13522179
952.346	0.13449001
952.512	0.1337244
952.679	0.13419525
952.845	0.13446014
953.011	0.13462777
953.177	0.13484069
953.343	0.13401573
953.509	0.13415317
953.675	0.13421175
953.841	0.13399408
954.007	0.13374501
954.172	0.13346425
954.338	0.13280999
954.504	0.13238334
954.67	0.13142924
954.836	0.13122408
955.002	0.13038156
955.167	0.12960011
955.333	0.1288761
955.499	0.12876545
955.665	0.12869445
955.83	0.12860492
955.996	0.12802566
956.162	0.12739215
956.327	0.12708936
956.493	0.12661648
956.659	0.12664299
956.824	0.12620445
956.99	0.12568179
957.155	0.12544582
957.321	0.12532593
957.486	0.12473906
957.652	0.12434078
957.817	0.12409406
957.983	0.12372659
958.148	0.12370419
958.314	0.12325331
958.479	0.12315522
958.644	0.12332863
958.81	0.12349844
958.975	0.12307495
959.14	0.12305332
959.306	0.12261216
959.471	0.1224019
959.636	0.1219977
959.801	0.12196404
959.967	0.12177865
960.132	0.12153055
960.297	0.12112879
960.462	0.12119627
960.627	0.1210973
960.792	0.12044819
960.957	0.12011627
961.123	0.11980083
961.288	0.11950598
961.453	0.11948615
961.618	0.11908928
961.783	0.11901839
961.948	0.11926069
962.113	0.11890678
962.277	0.11858125
962.442	0.1185338
962.607	0.11860516
962.772	0.11846198
962.937	0.11781783
963.102	0.11746198
963.267	0.11713924
963.431	0.11707253
963.596	0.11687338
963.761	0.11624189
963.926	0.1162203
964.09	0.11636573
964.255	0.11646782
964.42	0.1165287
964.584	0.11634607
964.749	0.11596549
964.914	0.11574966
965.078	0.11548607
965.243	0.11528186
965.407	0.11495538
965.572	0.11470892
965.736	0.11459192
965.901	0.11490444
966.065	0.11500193
966.23	0.11466907
966.394	0.11463887
966.559	0.11434253
966.723	0.11430075
966.887	0.11416473
967.052	0.11376452
967.216	0.11345193
967.38	0.11294351
967.545	0.11278405
967.709	0.11293343
967.873	0.11260669
968.037	0.11214549
968.202	0.11221743
968.366	0.11223943
968.53	0.11298318
968.694	0.11295564
968.858	0.11273424
969.022	0.1124828
969.187	0.11251657
969.351	0.11197161
969.515	0.11160096
969.679	0.11087182
969.843	0.11042193
970.007	0.1100975
970.171	0.1102353
970.335	0.10981539
970.499	0.10966105
970.662	0.10980807
970.826	0.10964894
970.99	0.10963709
971.154	0.10984408
971.318	0.10975069
971.482	0.1096116
971.645	0.10953463
971.809	0.10937915
971.973	0.10904656
972.137	0.10847722
972.3	0.10794844
972.464	0.10764765
972.628	0.10765385
972.791	0.10752972
972.955	0.10705141
973.119	0.1071388
973.282	0.10707946
973.446	0.10682046
973.609	0.10648408
973.773	0.10601809
973.936	0.10560053
974.1	0.10507052
974.263	0.10457691
974.427	0.10446362
974.59	0.10392318
974.754	0.10334565
974.917	0.10324066
975.08	0.10280814
975.244	0.10271509
975.407	0.10249419
975.57	0.10203283
975.734	0.10183791
975.897	0.10183168
976.06	0.10144103
976.223	0.10147057
976.387	0.10143583
976.55	0.10109294
976.713	0.10101574
976.876	0.10122939
977.039	0.10111543
977.202	0.10109548
977.365	0.10069936
977.528	0.10052258
977.692	0.10039315
977.855	0.09990078
978.018	0.09941254
978.181	0.09928271
978.344	0.09878625
978.506	0.09875818
978.669	0.0983364
978.832	0.09826831
978.995	0.09817069
979.158	0.09815039
979.321	0.09790988
979.484	0.09809429
979.646	0.09803248
979.809	0.09839945
979.972	0.09828997
980.135	0.09824452
980.297	0.09820275
980.46	0.09811263
980.623	0.09801277
980.786	0.09775599
980.948	0.09723309
981.111	0.09722502
981.273	0.09730024
981.436	0.09705384
981.599	0.09671339
981.761	0.09622892
981.924	0.09658234
982.086	0.09632395
982.249	0.09628002
982.411	0.09613097
982.573	0.09598843
982.736	0.09633156
982.898	0.09659076
983.061	0.09596485
983.223	0.09587083
983.385	0.09529329
983.548	0.0953838
983.71	0.09519454
983.872	0.09469421
984.034	0.09457854
984.197	0.09429703
984.359	0.0942688
984.521	0.09434321
984.683	0.09365899
984.845	0.09373981
985.008	0.09338449
985.17	0.09323084
985.332	0.09311556
985.494	0.09280196
985.656	0.09243711
985.818	0.09229929
985.98	0.09184668
986.142	0.0913264
986.304	0.09037984
986.466	0.08989689
986.628	0.08943692
986.79	0.08945582
986.952	0.0893807
987.113	0.08895826
987.275	0.08919077
987.437	0.08927542
987.599	0.08941832
987.761	0.08945239
987.922	0.08936078
988.084	0.08930642
988.246	0.08974678
988.408	0.08946553
988.569	0.089867
988.731	0.08964161
988.893	0.08968551
989.054	0.08954094
989.216	0.08962436
989.377	0.08901456
989.539	0.0891074
989.701	0.08842119
989.862	0.08826398
990.024	0.0879532
990.185	0.08743762
990.347	0.08690433
990.508	0.08693685
990.669	0.08655189
990.831	0.08642209
990.992	0.08652006
991.154	0.08597212
991.315	0.0864669
991.476	0.08610357
991.638	0.08589231
991.799	0.08531196
991.96	0.08522878
992.121	0.08501782
992.283	0.08528728
992.444	0.08485369
992.605	0.08491844
992.766	0.08455363
992.927	0.08488603
993.088	0.08486532
993.249	0.08439884
993.41	0.08393218
993.572	0.08352996
993.733	0.08322138
993.894	0.08298967
994.055	0.08212641
994.216	0.0817919
994.376	0.08140955
994.537	0.08153786
994.698	0.08101575
994.859	0.08079791
995.02	0.08064992
995.181	0.08051629
995.342	0.08042726
995.503	0.08045964
995.663	0.07967379
995.824	0.07953962
995.985	0.07959279
996.146	0.07933905
996.306	0.07932896
996.467	0.07931885
996.628	0.07902413
996.788	0.07958758
996.949	0.07973789
997.11	0.07934649
997.27	0.07880633
997.431	0.07876017
997.591	0.07777977
997.752	0.07764278
997.912	0.07756269
998.073	0.07732812
998.233	0.07744987
998.394	0.07777774
998.554	0.07833369
998.714	0.07876951
998.875	0.07844279
999.035	0.07771122
999.196	0.07805705
999.356	0.07751024
999.516	0.07725225
999.676	0.07707949
999.837	0.07662942
999.997	0.07669465
1000.157	0.07680976
1000.317	0.07556593
1000.477	0.07580549
1000.638	0.07592155
1000.798	0.07527853
1000.958	0.07577383
1001.118	0.07613957
1001.278	0.07587428
1001.438	0.0762941
1001.598	0.07616102
1001.758	0.0759082
1001.918	0.0755249
1002.078	0.07476905
1002.238	0.07435635
1002.398	0.07492573
1002.558	0.07491456
1002.718	0.0749438
1002.878	0.07444361
1003.037	0.07377588
1003.197	0.07410806
1003.357	0.07338543
1003.517	0.07326058
1003.677	0.07277752
1003.836	0.07203766
1003.996	0.07220347
1004.156	0.07279759
1004.315	0.07214717
1004.475	0.07202403
1004.635	0.07193516
1004.794	0.07190737
1004.954	0.07216691
1005.114	0.07200456
1005.273	0.07257879
1005.433	0.07246432
1005.592	0.07244068
1005.752	0.07205272
1005.911	0.07190288
1006.071	0.07142806
1006.23	0.07104238
1006.389	0.07032456
1006.549	0.07026838
1006.708	0.07125659
1006.868	0.07073886
1007.027	0.07156682
1007.186	0.0719178
1007.345	0.07269618
1007.505	0.07270405
1007.664	0.07286623
1007.823	0.07168044
1007.982	0.0715197
1008.142	0.07078857
1008.301	0.07098199
1008.46	0.06996162
1008.619	0.06947513
1008.778	0.07028186
1008.937	0.07068946
1009.096	0.07075976
1009.255	0.07028836
1009.414	0.06949028
1009.573	0.06974379
1009.732	0.07045729
1009.891	0.06930886
1010.05	0.06962174
1010.209	0.06936102
1010.368	0.06959278
1010.527	0.07034774
1010.686	0.07042369
1010.845	0.07010786
1011.003	0.07076045
1011.162	0.07013884
1011.321	0.07080986
1011.48	0.07133253
1011.638	0.07138057
1011.797	0.07208596
1011.956	0.07188561
1012.115	0.07174093
1012.273	0.07167142
1012.432	0.07161599
1012.59	0.07070531
1012.749	0.07044713
1012.908	0.06904661
1013.066	0.06903034
1013.225	0.06927341
1013.383	0.0691886
1013.542	0.06931222
1013.7	0.06973548
1013.859	0.07007944
1014.017	0.07105802
1014.175	0.07054115
1014.334	0.07024207
1014.492	0.07065321
1014.65	0.06867815
1014.809	0.06852062
1014.967	0.06691547
1015.125	0.06628752
1015.284	0.06655024
1015.442	0.06594551
1015.6	0.06547838
1015.758	0.06651493
1015.916	0.06640725
1016.075	0.06714742
1016.233	0.06686991
1016.391	0.06729806
1016.549	0.06696429
1016.707	0.0673287
1016.865	0.06728387
1017.023	0.06686225
1017.181	0.06653563
1017.339	0.06672455
1017.497	0.06513203
1017.655	0.0655701
1017.813	0.06615328
1017.971	0.06563421
1018.129	0.06551815
1018.286	0.06553743
1018.444	0.06500886
1018.602	0.06629515
1018.76	0.06623917
1018.918	0.06556075
1019.075	0.06516992
1019.233	0.06460839
1019.391	0.06422131
1019.549	0.06535953
1019.706	0.06559534
1019.864	0.06536453
1020.022	0.06574409
1020.179	0.06690133
1020.337	0.0694719
1020.494	0.06969955
1020.652	0.06913076
1020.809	0.06911017
1020.967	0.06891293
1021.124	0.06808535
1021.282	0.06918884
1021.439	0.06727229
1021.597	0.06634214
1021.754	0.06626341
1021.911	0.06676554
1022.069	0.06641793
1022.226	0.06484656
1022.384	0.06418027
1022.541	0.06363664
1022.698	0.06473914
1022.855	0.06479055
1023.013	0.06424703
1023.17	0.06487056
1023.327	0.06703393
1023.484	0.06660941
1023.641	0.06766877
1023.798	0.06904791
1023.956	0.0697173
1024.113	0.06907877
1024.27	0.06906242
1024.427	0.06886533
1024.584	0.06966771
1024.741	0.07077547
1024.898	0.06935289
1025.055	0.06811714
1025.212	0.06726976
1025.369	0.06681719
1025.525	0.06527381
1025.682	0.0651602
1025.839	0.06467868
1025.996	0.06664139
1026.153	0.06813145
1026.31	0.07049712
1026.466	0.07053447
1026.623	0.07201033
1026.78	0.07102175
1026.937	0.07089169
1027.093	0.06782749
1027.25	0.06740252
1027.407	0.06821844
1027.563	0.07021144
1027.72	0.0716627
1027.876	0.07171626
1028.033	0.07215436
1028.19	0.0751219
1028.346	0.07182697
1028.503	0.06957777
1028.659	0.06913158
1028.816	0.06703777
1028.972	0.06909905
1029.128	0.07072623
1029.285	0.06570306
1029.441	0.06817288
1029.598	0.06741292
1029.754	0.06884052
1029.91	0.06959798
1030.067	0.0668711
1030.223	0.06516123
1030.379	0.06741084
1030.535	0.06982625
1030.691	0.07227258
1030.848	0.07093592
1031.004	0.07070442
1031.16	0.0730585
1031.316	0.07391607
1031.472	0.07736483
1031.628	0.07601211
1031.784	0.07727481
1031.94	0.0791168
1032.096	0.08022512
1032.252	0.07918618
1032.408	0.07786647
1032.564	0.07651917
1032.72	0.07674638
1032.876	0.07356964
1033.032	0.07123673
1033.188	0.07326442
1033.344	0.07303408
1033.5	0.07260006
1033.655	0.07187605
1033.811	0.07224135
1033.967	0.07518563
