Data from 1_mm_pl_20pc_Absorbance__0__17-21-00-562.txt Node

Date: Wed Mar 08 17:21:00 CET 2023
User: Ange
Spectrometer: FLMT08341
Trigger mode: 0
Integration Time (sec): 1.000000E-2
Scans to average: 400
Electric dark correction enabled: true
Nonlinearity correction enabled: false
Boxcar width: 3
XAxis mode: Wavelengths
Number of Pixels in Spectrum: 3648
>>>>>Begin Spectral Data<<<<<
345.271	0.05299627
345.487	0.05531023
345.704	0.03697318
345.921	0.04307991
346.137	0.06757569
346.354	0.05394614
346.571	0.06937904
346.787	0.12994316
347.004	-0.00687036
347.22	-0.12987146
347.437	0.06616197
347.653	0.48950314
347.87	-0.37241075
348.086	-0.35404279
348.303	0.03433595
348.519	0.2687852
348.736	0.26631596
348.952	0.27783768
349.169	0.28512592
349.385	0.29517438
349.601	0.29155025
349.818	0.28989341
350.034	0.28684508
350.251	0.28817866
350.467	0.29190742
350.683	0.28381969
350.9	0.284091
351.116	0.28139564
351.332	0.2792043
351.549	0.29016057
351.765	0.295887
351.981	0.30026325
352.197	0.31311263
352.414	0.32478056
352.63	0.33099314
352.846	0.33854489
353.062	0.33494456
353.278	0.33155629
353.495	0.33890698
353.711	0.3378312
353.927	0.33924765
354.143	0.34172869
354.359	0.34163191
354.575	0.34033293
354.792	0.34726805
355.008	0.33965198
355.224	0.33854198
355.44	0.3349542
355.656	0.33535571
355.872	0.34071716
356.088	0.35715859
356.304	0.35945656
356.52	0.36695463
356.736	0.37463047
356.952	0.37870392
357.168	0.38164973
357.384	0.3879377
357.6	0.37929485
357.816	0.3854945
358.032	0.39261457
358.248	0.3992732
358.464	0.40121416
358.679	0.40695735
358.895	0.40569892
359.111	0.41297054
359.327	0.4079006
359.543	0.40844218
359.759	0.41636341
359.974	0.41838898
360.19	0.41898656
360.406	0.42211772
360.622	0.42146674
360.838	0.42213
361.053	0.42514759
361.269	0.42321028
361.485	0.42779879
361.701	0.43116427
361.916	0.42647174
362.132	0.42745311
362.348	0.43307057
362.563	0.4377864
362.779	0.43714139
362.995	0.43926981
363.21	0.44304073
363.426	0.44731661
363.641	0.45073731
363.857	0.45557836
364.073	0.45212256
364.288	0.45072194
364.504	0.45746433
364.719	0.46170688
364.935	0.46336574
365.15	0.46634369
365.366	0.46732409
365.581	0.47379112
365.797	0.47826555
366.012	0.47562081
366.228	0.47043815
366.443	0.47877982
366.658	0.47939581
366.874	0.47704125
367.089	0.48271804
367.305	0.48418221
367.52	0.48793487
367.735	0.49058322
367.951	0.48695058
368.166	0.49116584
368.381	0.50233932
368.597	0.49783253
368.812	0.50333919
369.027	0.50668695
369.243	0.51269904
369.458	0.5244028
369.673	0.52680611
369.888	0.52410663
370.104	0.52321976
370.319	0.52742449
370.534	0.52660398
370.749	0.52537008
370.964	0.525414
371.179	0.52500468
371.395	0.52401824
371.61	0.5316905
371.825	0.52643077
372.04	0.5279124
372.255	0.52758565
372.47	0.52525693
372.685	0.52333773
372.9	0.52432627
373.115	0.52214262
373.33	0.52722413
373.545	0.53030635
373.76	0.53632305
373.975	0.5362758
374.19	0.53753026
374.405	0.54162088
374.62	0.54872737
374.835	0.55626081
375.05	0.55807701
375.265	0.56057569
375.48	0.56620245
375.695	0.57955627
375.91	0.58010356
376.125	0.57576204
376.339	0.56749085
376.554	0.56934122
376.769	0.57092655
376.984	0.57034892
377.199	0.57137333
377.414	0.57305882
377.628	0.58122878
377.843	0.58855676
378.058	0.5916989
378.273	0.59533619
378.487	0.598702
378.702	0.59889431
378.917	0.60174302
379.131	0.59907326
379.346	0.59485881
379.561	0.59400226
379.775	0.59343289
379.99	0.58992608
380.205	0.58631466
380.419	0.58366764
380.634	0.58095457
380.848	0.58657702
381.063	0.58725213
381.278	0.5923021
381.492	0.59209082
381.707	0.59937468
381.921	0.60151485
382.136	0.60927405
382.35	0.6088505
382.565	0.61043207
382.779	0.61129348
382.994	0.61637494
383.208	0.61344432
383.422	0.62123597
383.637	0.62192937
383.851	0.6277515
384.066	0.63310223
384.28	0.63622311
384.494	0.63846796
384.709	0.64185591
384.923	0.64236776
385.137	0.64095822
385.352	0.64175788
385.566	0.64452058
385.78	0.64253341
385.995	0.64261946
386.209	0.64363978
386.423	0.64787229
386.637	0.65148509
386.852	0.64988601
387.066	0.64904001
387.28	0.64914802
387.494	0.65510333
387.708	0.65726531
387.923	0.65643457
388.137	0.66036395
388.351	0.66507941
388.565	0.67006369
388.779	0.67410763
388.993	0.68140394
389.207	0.68275281
389.421	0.68579964
389.635	0.68497211
389.85	0.68384485
390.064	0.68408823
390.278	0.68647386
390.492	0.68485007
390.706	0.68848796
390.92	0.68974993
391.134	0.69461398
391.348	0.70450985
391.561	0.70448447
391.775	0.70471937
391.989	0.70086923
392.203	0.70361245
392.417	0.7057775
392.631	0.7104452
392.845	0.7061315
393.059	0.71221831
393.273	0.71196078
393.486	0.71192076
393.7	0.70781836
393.914	0.71086522
394.128	0.70971534
394.342	0.70928337
394.555	0.70344139
394.769	0.70558818
394.983	0.71109331
395.197	0.71699317
395.41	0.7165939
395.624	0.71831815
395.838	0.72026009
396.051	0.72951139
396.265	0.72885591
396.479	0.73016237
396.692	0.72972772
396.906	0.72876906
397.12	0.72832854
397.333	0.73304452
397.547	0.73043057
397.76	0.73523174
397.974	0.73711695
398.187	0.74033213
398.401	0.74475824
398.614	0.74786083
398.828	0.74819276
399.041	0.75027519
399.255	0.75003004
399.468	0.74991946
399.682	0.75107058
399.895	0.75371357
400.109	0.75316429
400.322	0.75232328
400.536	0.75027188
400.749	0.75551374
400.962	0.75742831
401.176	0.75699978
401.389	0.75578805
401.602	0.75207596
401.816	0.75439318
402.029	0.75881334
402.242	0.75665201
402.456	0.75706566
402.669	0.75514264
402.882	0.75124343
403.095	0.75817634
403.309	0.7574197
403.522	0.75783496
403.735	0.75729097
403.948	0.75764909
404.161	0.76647075
404.375	0.77019577
404.588	0.76985336
404.801	0.77232178
405.014	0.77105434
405.227	0.77634923
405.44	0.77961737
405.653	0.77911769
405.866	0.77695012
406.079	0.77649069
406.293	0.77550729
406.506	0.77716595
406.719	0.77499169
406.932	0.77356591
407.145	0.76949078
407.358	0.77655305
407.571	0.77407616
407.784	0.77564944
407.996	0.77664407
408.209	0.77384351
408.422	0.77253328
408.635	0.77463135
408.848	0.77243009
409.061	0.77073518
409.274	0.77007066
409.487	0.76840428
409.7	0.77023954
409.912	0.77144693
410.125	0.77098145
410.338	0.77128462
410.551	0.77268618
410.764	0.77265592
410.976	0.77298789
411.189	0.77359693
411.402	0.7713027
411.615	0.77230408
411.827	0.77166735
412.04	0.77296529
412.253	0.77204523
412.465	0.77070776
412.678	0.76860517
412.891	0.77084802
413.103	0.76514063
413.316	0.7635618
413.529	0.76449289
413.741	0.76568819
413.954	0.76671362
414.166	0.76660975
414.379	0.76513286
414.591	0.76873118
414.804	0.76637896
415.016	0.76422646
415.229	0.76235962
415.441	0.75968217
415.654	0.76148452
415.866	0.76107461
416.079	0.76072852
416.291	0.7606478
416.504	0.7628757
416.716	0.76246699
416.928	0.76327741
417.141	0.76000759
417.353	0.76010628
417.566	0.75603549
417.778	0.75645452
417.99	0.75142134
418.203	0.74882597
418.415	0.74641619
418.627	0.74671785
418.839	0.74536048
419.052	0.74836393
419.264	0.74704156
419.476	0.74785552
419.688	0.74832175
419.901	0.74817749
420.113	0.74602259
420.325	0.74353835
420.537	0.73898899
420.749	0.73896817
420.961	0.73767916
421.174	0.7352386
421.386	0.73299845
421.598	0.73130959
421.81	0.72990264
422.022	0.72922472
422.234	0.72701557
422.446	0.72511517
422.658	0.72421598
422.87	0.72357283
423.082	0.72232327
423.294	0.72045675
423.506	0.71926478
423.718	0.71728466
423.93	0.71422611
424.142	0.7113923
424.354	0.70877338
424.566	0.70666187
424.778	0.7059782
424.99	0.70348793
425.202	0.70107026
425.414	0.70044632
425.625	0.70010338
425.837	0.69697359
426.049	0.69635469
426.261	0.69340368
426.473	0.69109087
426.684	0.6897528
426.896	0.68830441
427.108	0.68533948
427.32	0.68509244
427.531	0.68170111
427.743	0.67986727
427.955	0.68005537
428.167	0.67696166
428.378	0.67438944
428.59	0.67239305
428.802	0.66994007
429.013	0.66786478
429.225	0.66535441
429.436	0.66158464
429.648	0.6606462
429.86	0.6589834
430.071	0.65752431
430.283	0.65554039
430.494	0.65334385
430.706	0.65191951
430.917	0.64967931
431.129	0.64738437
431.34	0.64465525
431.552	0.64275528
431.763	0.63996996
431.975	0.63855548
432.186	0.63499441
432.398	0.63264774
432.609	0.6281754
432.821	0.62618684
433.032	0.62313942
433.243	0.62070651
433.455	0.61756423
433.666	0.6157951
433.877	0.61434499
434.089	0.61188189
434.3	0.60832099
434.511	0.60439429
434.723	0.60150773
434.934	0.59807534
435.145	0.59408585
435.356	0.59013581
435.568	0.58847783
435.779	0.58580945
435.99	0.58304384
436.201	0.58043279
436.412	0.57796843
436.624	0.5765441
436.835	0.5745176
437.046	0.5720958
437.257	0.56962327
437.468	0.56855577
437.679	0.5666374
437.89	0.56420859
438.101	0.56202128
438.312	0.55955006
438.523	0.55658931
438.734	0.55412902
438.945	0.55106817
439.156	0.54729448
439.367	0.5449425
439.578	0.54228074
439.789	0.53879038
440	0.53641448
440.211	0.53335028
440.422	0.53049154
440.633	0.52889168
440.844	0.52546961
441.055	0.52217536
441.266	0.52003157
441.477	0.51652639
441.687	0.51395427
441.898	0.51137132
442.109	0.50787418
442.32	0.50528995
442.531	0.50203608
442.741	0.49821356
442.952	0.49531158
443.163	0.49239471
443.374	0.48902578
443.584	0.48606115
443.795	0.48331008
444.006	0.48084269
444.216	0.47831195
444.427	0.47514822
444.638	0.47236948
444.848	0.46956664
445.059	0.46680648
445.27	0.46368559
445.48	0.46032974
445.691	0.4574569
445.901	0.45532185
446.112	0.45238318
446.323	0.44940628
446.533	0.44635854
446.744	0.44322941
446.954	0.44051212
447.165	0.43786257
447.375	0.43524801
447.586	0.43275478
447.796	0.43024782
448.006	0.4275918
448.217	0.42530155
448.427	0.42262827
448.638	0.41947711
448.848	0.41627359
449.058	0.41324351
449.269	0.41039362
449.479	0.40771321
449.689	0.40491168
449.9	0.40216085
450.11	0.39937349
450.32	0.39712639
450.531	0.39427607
450.741	0.39132151
450.951	0.38850952
451.161	0.38563454
451.372	0.38279565
451.582	0.38102848
451.792	0.37799134
452.002	0.37519601
452.212	0.37248914
452.422	0.36995385
452.633	0.36723752
452.843	0.36502239
453.053	0.36140682
453.263	0.35893255
453.473	0.35624707
453.683	0.35421579
453.893	0.35133094
454.103	0.34915218
454.313	0.34679258
454.523	0.34458253
454.733	0.34232008
454.943	0.34044717
455.153	0.33797954
455.363	0.33567065
455.573	0.33313289
455.783	0.33055215
455.993	0.32805277
456.203	0.32580811
456.413	0.32342468
456.623	0.32085014
456.833	0.3191482
457.042	0.31685506
457.252	0.31471054
457.462	0.31246967
457.672	0.3101428
457.882	0.30782897
458.091	0.30546313
458.301	0.30252522
458.511	0.3002693
458.721	0.29783512
458.931	0.29563618
459.14	0.29346665
459.35	0.29126091
459.56	0.28940855
459.769	0.28770517
459.979	0.28548396
460.189	0.28347831
460.398	0.28120808
460.608	0.27931418
460.817	0.27731204
461.027	0.27519213
461.237	0.27291494
461.446	0.27094482
461.656	0.26911671
461.865	0.26729183
462.075	0.265228
462.284	0.26344048
462.494	0.26151939
462.703	0.25964183
462.913	0.25786109
463.122	0.25595301
463.332	0.25421225
463.541	0.25259614
463.751	0.25071808
463.96	0.24904172
464.169	0.24746403
464.379	0.24599483
464.588	0.24430057
464.797	0.24265698
465.007	0.24104314
465.216	0.23954757
465.425	0.23813565
465.635	0.23666838
465.844	0.23502515
466.053	0.23364346
466.263	0.23215962
466.472	0.23058413
466.681	0.2290656
466.89	0.22739147
467.099	0.22591058
467.309	0.22443221
467.518	0.22302364
467.727	0.22168223
467.936	0.22021059
468.145	0.21889762
468.354	0.21768366
468.563	0.2162852
468.772	0.21485199
468.982	0.21343082
469.191	0.21219752
469.4	0.21093975
469.609	0.20967905
469.818	0.20847824
470.027	0.20728145
470.236	0.20614006
470.445	0.20499888
470.654	0.20355199
470.863	0.20227816
471.072	0.20119252
471.28	0.19991592
471.489	0.1988247
471.698	0.19773927
471.907	0.19673366
472.116	0.19588417
472.325	0.1949301
472.534	0.19392331
472.743	0.19290854
472.951	0.19195268
473.16	0.19096121
473.369	0.18994104
473.578	0.18897545
473.786	0.18799935
473.995	0.18702901
474.204	0.18625303
474.413	0.18529324
474.621	0.18452802
474.83	0.18376305
475.039	0.18291475
475.247	0.18204647
475.456	0.18119469
475.665	0.18031589
475.873	0.17946381
476.082	0.17838054
476.291	0.17756007
476.499	0.17694277
476.708	0.17618962
476.916	0.17550607
477.125	0.17485601
477.333	0.17428905
477.542	0.17388188
477.75	0.17314072
477.959	0.17244405
478.167	0.17197073
478.376	0.17130698
478.584	0.1706728
478.793	0.17007767
479.001	0.16948136
479.209	0.16898197
479.418	0.16845823
479.626	0.1679416
479.834	0.16748561
480.043	0.16701188
480.251	0.16659313
480.459	0.16612605
480.668	0.16577802
480.876	0.16532889
481.084	0.16488176
481.293	0.16443565
481.501	0.16400657
481.709	0.16359053
481.917	0.16319217
482.125	0.16282711
482.334	0.16246003
482.542	0.16212649
482.75	0.16181126
482.958	0.16164646
483.166	0.16147032
483.374	0.16125739
483.583	0.16098003
483.791	0.16076514
483.999	0.16048532
484.207	0.1602367
484.415	0.15988642
484.623	0.15944211
484.831	0.15910162
485.039	0.15883479
485.247	0.15854165
485.455	0.15822661
485.663	0.15803241
485.871	0.15782605
486.079	0.15763633
486.287	0.15754246
486.495	0.15742215
486.702	0.15726854
486.91	0.1572331
487.118	0.15707787
487.326	0.15699365
487.534	0.1570705
487.742	0.1571218
487.95	0.15707493
488.157	0.15707773
488.365	0.15708695
488.573	0.15723323
488.781	0.15734278
488.988	0.15735009
489.196	0.15729986
489.404	0.15730624
489.612	0.15738062
489.819	0.157477
490.027	0.15744893
490.235	0.15739129
490.442	0.1573767
490.65	0.15742311
490.857	0.15761926
491.065	0.15777878
491.273	0.15790243
491.48	0.15811918
491.688	0.15831932
491.895	0.15859511
492.103	0.15876702
492.31	0.15892487
492.518	0.1589516
492.725	0.1591059
492.933	0.15914905
493.14	0.15927476
493.348	0.15935916
493.555	0.15949685
493.763	0.15960596
493.97	0.15983809
494.177	0.16006625
494.385	0.16042704
494.592	0.16072226
494.8	0.16090249
495.007	0.16125135
495.214	0.16156083
495.422	0.16200449
495.629	0.16229462
495.836	0.16254759
496.043	0.16290151
496.251	0.16331634
496.458	0.16363983
496.665	0.16394428
496.872	0.16418441
497.08	0.16451136
497.287	0.164785
497.494	0.16508645
497.701	0.16550236
497.908	0.16593247
498.115	0.16627233
498.322	0.16661743
498.53	0.1669901
498.737	0.16743205
498.944	0.16784755
499.151	0.16818601
499.358	0.16859044
499.565	0.16906158
499.772	0.16962973
499.979	0.17017248
500.186	0.17069531
500.393	0.17114764
500.6	0.17162496
500.807	0.17207353
501.014	0.17255988
501.221	0.17290666
501.427	0.17329434
501.634	0.17379123
501.841	0.17429052
502.048	0.17478165
502.255	0.17520264
502.462	0.1756622
502.669	0.17620872
502.875	0.17675362
503.082	0.17722223
503.289	0.17771322
503.496	0.17824356
503.702	0.17880123
503.909	0.17943001
504.116	0.18006764
504.323	0.1805756
504.529	0.18115229
504.736	0.18179849
504.943	0.18237757
505.149	0.18306788
505.356	0.18369735
505.563	0.18428136
505.769	0.18499872
505.976	0.18565114
506.182	0.18629333
506.389	0.18695581
506.595	0.18760618
506.802	0.18821086
507.008	0.18879169
507.215	0.18938979
507.421	0.19004598
507.628	0.19063982
507.834	0.1912992
508.041	0.1919306
508.247	0.1925495
508.454	0.19327063
508.66	0.19393137
508.866	0.19452463
509.073	0.19521959
509.279	0.1958586
509.486	0.19642596
509.692	0.19720604
509.898	0.19784869
510.105	0.19861174
510.311	0.1993322
510.517	0.20009915
510.723	0.20088513
510.93	0.2016139
511.136	0.20231473
511.342	0.20311493
511.548	0.20384517
511.754	0.20461901
511.961	0.20535365
512.167	0.20614036
512.373	0.20697027
512.579	0.20777412
512.785	0.20862709
512.991	0.20943266
513.197	0.21028027
513.404	0.21114448
513.61	0.21194096
513.816	0.21274053
514.022	0.21348988
514.228	0.21421102
514.434	0.2149281
514.64	0.21568712
514.846	0.21645594
515.052	0.21719771
515.258	0.21798375
515.464	0.21884613
515.669	0.21970264
515.875	0.22064874
516.081	0.22160914
516.287	0.22253875
516.493	0.22353429
516.699	0.22447351
516.905	0.22533042
517.111	0.22618776
517.316	0.22702725
517.522	0.22783393
517.728	0.22867957
517.934	0.22951471
518.139	0.23037318
518.345	0.23122363
518.551	0.23206009
518.757	0.2328692
518.962	0.23366489
519.168	0.23454448
519.374	0.23541066
519.579	0.23629891
519.785	0.23738241
519.991	0.23844761
520.196	0.23950381
520.402	0.24052783
520.607	0.24152801
520.813	0.24257868
521.018	0.24357532
521.224	0.24436296
521.429	0.24526404
521.635	0.24614129
521.84	0.24697956
522.046	0.24783112
522.251	0.24860711
522.457	0.24951888
522.662	0.25049874
522.868	0.25147164
523.073	0.25245342
523.279	0.25359022
523.484	0.25463737
523.689	0.25576752
523.895	0.25682797
524.1	0.25786348
524.305	0.2588742
524.511	0.25989646
524.716	0.26086561
524.921	0.26186387
525.126	0.26281604
525.332	0.26376343
525.537	0.26470101
525.742	0.26568003
525.947	0.26667956
526.153	0.26764097
526.358	0.26854721
526.563	0.26950898
526.768	0.27049715
526.973	0.27155724
527.178	0.2725888
527.383	0.27357817
527.588	0.27456887
527.794	0.27564417
527.999	0.27676926
528.204	0.27784696
528.409	0.27882288
528.614	0.2799758
528.819	0.28106887
529.024	0.2821067
529.229	0.28313626
529.434	0.28419239
529.639	0.28521165
529.843	0.28631757
530.048	0.2872931
530.253	0.28834104
530.458	0.28950537
530.663	0.29062461
530.868	0.29172434
531.073	0.29280564
531.278	0.29379852
531.482	0.29478733
531.687	0.2958721
531.892	0.29693227
532.097	0.29795294
532.302	0.29897626
532.506	0.30010628
532.711	0.30127274
532.916	0.30246504
533.12	0.3035802
533.325	0.30464188
533.53	0.30576781
533.734	0.30693174
533.939	0.30804463
534.144	0.30919872
534.348	0.3102897
534.553	0.31141819
534.757	0.31252355
534.962	0.31367112
535.167	0.31475964
535.371	0.31578901
535.576	0.31693273
535.78	0.31801635
535.985	0.31912115
536.189	0.32024863
536.394	0.32139667
536.598	0.32255872
536.803	0.32374138
537.007	0.32482702
537.211	0.32605673
537.416	0.32715984
537.62	0.32833869
537.825	0.32942749
538.029	0.33062968
538.233	0.331827
538.438	0.33304581
538.642	0.33414258
538.846	0.3354256
539.05	0.33656335
539.255	0.33769918
539.459	0.33877382
539.663	0.3398444
539.867	0.34092273
540.072	0.34204098
540.276	0.34313067
540.48	0.34436488
540.684	0.34560958
540.888	0.34695763
541.092	0.3481846
541.297	0.34941878
541.501	0.35065794
541.705	0.35184256
541.909	0.35288994
542.113	0.35391377
542.317	0.35495919
542.521	0.35610451
542.725	0.35733412
542.929	0.35850517
543.133	0.3596931
543.337	0.36100205
543.541	0.36227787
543.745	0.36339637
543.949	0.36458904
544.153	0.36564259
544.357	0.3667924
544.56	0.3679121
544.764	0.36899795
544.968	0.37014672
545.172	0.37126504
545.376	0.37245907
545.58	0.37371901
545.783	0.37494452
545.987	0.37615147
546.191	0.37736811
546.395	0.37864975
546.598	0.38004371
546.802	0.38132364
547.006	0.38244925
547.21	0.38341073
547.413	0.38457754
547.617	0.38582546
547.821	0.38693685
548.024	0.3880906
548.228	0.38915416
548.431	0.39045489
548.635	0.39184215
548.839	0.39300015
549.042	0.39414218
549.246	0.39525013
549.449	0.39639122
549.653	0.39764227
549.856	0.39878071
550.06	0.39984945
550.263	0.40113224
550.467	0.40237964
550.67	0.40371185
550.874	0.40483799
551.077	0.40600403
551.28	0.40720758
551.484	0.40841333
551.687	0.40953647
551.891	0.41072402
552.094	0.4118731
552.297	0.41324844
552.501	0.41460247
552.704	0.41581028
552.907	0.41704071
553.11	0.41823725
553.314	0.41939646
553.517	0.42047573
553.72	0.42160243
553.923	0.42273825
554.127	0.42401566
554.33	0.42515994
554.533	0.42638358
554.736	0.42741927
554.939	0.4285747
555.142	0.42962369
555.345	0.43066848
555.549	0.43171852
555.752	0.43280622
555.955	0.43387774
556.158	0.43516433
556.361	0.43640333
556.564	0.43758254
556.767	0.43881514
556.97	0.44004362
557.173	0.44129521
557.376	0.44256263
557.579	0.44363706
557.782	0.44484465
557.984	0.44612046
558.187	0.44735197
558.39	0.44847797
558.593	0.449707
558.796	0.45076297
558.999	0.45188424
559.202	0.45295422
559.404	0.45395919
559.607	0.45496335
559.81	0.45609256
560.013	0.4571478
560.216	0.45839412
560.418	0.45966471
560.621	0.46090767
560.824	0.46215195
561.026	0.46337937
561.229	0.46450367
561.432	0.46571475
561.634	0.4668194
561.837	0.46787111
562.04	0.46891935
562.242	0.47001764
562.445	0.47106309
562.647	0.47224832
562.85	0.47323916
563.053	0.47433778
563.255	0.47549784
563.458	0.47659969
563.66	0.47768128
563.863	0.47885964
564.065	0.4799074
564.268	0.48101193
564.47	0.48207345
564.672	0.48305614
564.875	0.48407137
565.077	0.48514493
565.28	0.48613979
565.482	0.48720195
565.684	0.48832217
565.887	0.48946323
566.089	0.49068784
566.291	0.49186946
566.494	0.49294611
566.696	0.49403636
566.898	0.49522386
567.1	0.4963585
567.303	0.49733969
567.505	0.49831282
567.707	0.49919616
567.909	0.50014989
568.111	0.50116689
568.314	0.50211199
568.516	0.50304376
568.718	0.50409302
568.92	0.50513571
569.122	0.50621724
569.324	0.50728567
569.526	0.50821226
569.728	0.50928425
569.93	0.51021081
570.132	0.51117398
570.334	0.5121709
570.536	0.51312014
570.738	0.51411241
570.94	0.51514411
571.142	0.51614647
571.344	0.51708165
571.546	0.51803308
571.748	0.51905892
571.95	0.52008367
572.152	0.52114315
572.354	0.52218541
572.555	0.52322478
572.757	0.52449343
572.959	0.52557506
573.161	0.52641511
573.363	0.52735552
573.564	0.528385
573.766	0.52921694
573.968	0.53006138
574.17	0.53071849
574.371	0.53165787
574.573	0.5326539
574.775	0.5335797
574.976	0.53440035
575.178	0.53532357
575.38	0.53617552
575.581	0.53712373
575.783	0.53796927
575.985	0.53884387
576.186	0.53982093
576.388	0.54067354
576.589	0.54149371
576.791	0.54251567
576.992	0.54350507
577.194	0.5443339
577.395	0.54513143
577.597	0.54592289
577.798	0.5468776
578	0.54778848
578.201	0.54862953
578.402	0.54943839
578.604	0.55027337
578.805	0.55115056
579.007	0.55202049
579.208	0.55279392
579.409	0.55358985
579.611	0.55425361
579.812	0.55503022
580.013	0.55578986
580.215	0.55645181
580.416	0.55725061
580.617	0.55800899
580.818	0.55890463
581.019	0.55968805
581.221	0.56049369
581.422	0.56137173
581.623	0.56230114
581.824	0.5628893
582.025	0.56363243
582.226	0.56429563
582.428	0.56499303
582.629	0.56563068
582.83	0.56623711
583.031	0.56684575
583.232	0.56767361
583.433	0.56833008
583.634	0.56897211
583.835	0.5697301
584.036	0.57044044
584.237	0.57112662
584.438	0.57182458
584.639	0.5723779
584.84	0.57311111
585.041	0.57374342
585.242	0.57423448
585.442	0.57486114
585.643	0.57555394
585.844	0.57621262
586.045	0.57694153
586.246	0.57740949
586.447	0.57808327
586.647	0.57870475
586.848	0.57921855
587.049	0.57967437
587.25	0.58012279
587.45	0.58063687
587.651	0.58124662
587.852	0.58172898
588.053	0.58244959
588.253	0.58307034
588.454	0.58374645
588.655	0.58432648
588.855	0.58481185
589.056	0.58535773
589.256	0.58593754
589.457	0.5864038
589.658	0.58689301
589.858	0.58732847
590.059	0.587924
590.259	0.58853766
590.46	0.58899227
590.66	0.58943235
590.861	0.58984289
591.061	0.59029646
591.262	0.59086506
591.462	0.59131697
591.662	0.59168574
591.863	0.59210308
592.063	0.59256645
592.264	0.59305207
592.464	0.59353265
592.664	0.59388795
592.865	0.59436772
593.065	0.59472078
593.265	0.59527287
593.465	0.59565848
593.666	0.59599563
593.866	0.59631182
594.066	0.59662283
594.266	0.59682877
594.467	0.59713182
594.667	0.59732988
594.867	0.59765108
595.067	0.59797116
595.267	0.59823106
595.467	0.59853305
595.668	0.59886464
595.868	0.59925497
596.068	0.599575
596.268	0.59980819
596.468	0.60011942
596.668	0.60059539
596.868	0.60088162
597.068	0.60121228
597.268	0.60155689
597.468	0.6017988
597.668	0.60212383
597.868	0.60233512
598.068	0.60246002
598.268	0.60268132
598.467	0.60290578
598.667	0.60302436
598.867	0.60320519
599.067	0.60343572
599.267	0.60361796
599.467	0.60379189
599.667	0.60395743
599.866	0.60408763
600.066	0.60429586
600.266	0.60444359
600.466	0.60453515
600.665	0.60470828
600.865	0.60483586
601.065	0.60506547
601.264	0.60523904
601.464	0.6054657
601.664	0.60566732
601.863	0.60579283
602.063	0.60589592
602.263	0.60579012
602.462	0.60584879
602.662	0.60589923
602.861	0.60581082
603.061	0.60586115
603.26	0.60592283
603.46	0.60592232
603.659	0.60618568
603.859	0.60626073
604.058	0.60628446
604.258	0.6063801
604.457	0.60661677
604.657	0.60659461
604.856	0.60654308
605.056	0.60659181
605.255	0.60649978
605.454	0.60655727
605.654	0.6065618
605.853	0.60643324
606.052	0.6064834
606.252	0.60662116
606.451	0.60659201
606.65	0.6067284
606.849	0.60648654
607.049	0.60633546
607.248	0.60611623
607.447	0.60592971
607.646	0.60587934
607.845	0.60576144
608.045	0.60546738
608.244	0.60552786
608.443	0.60542489
608.642	0.60535114
608.841	0.60524015
609.04	0.60497365
609.239	0.60479929
609.438	0.60468485
609.637	0.60453056
609.836	0.60437438
610.035	0.60418973
610.234	0.60397815
610.433	0.60373138
610.632	0.60357443
610.831	0.60338718
611.03	0.60312006
611.229	0.6030221
611.428	0.60283684
611.627	0.60274349
611.826	0.60264803
612.025	0.60250523
612.224	0.60225122
612.422	0.60196098
612.621	0.60151608
612.82	0.60130974
613.019	0.60096205
613.218	0.60074192
613.416	0.60039216
613.615	0.60024444
613.814	0.60004307
614.012	0.59997058
614.211	0.59963625
614.41	0.59940558
614.608	0.59900489
614.807	0.59864324
615.006	0.59829657
615.204	0.59795018
615.403	0.59765576
615.602	0.59741802
615.8	0.59715564
615.999	0.59677006
616.197	0.59648247
616.396	0.59612849
616.594	0.59569731
616.793	0.59529248
616.991	0.5948273
617.19	0.59438376
617.388	0.59419813
617.586	0.59383086
617.785	0.59337394
617.983	0.5930095
618.182	0.59256208
618.38	0.59207054
618.578	0.59161809
618.777	0.5911461
618.975	0.59082563
619.173	0.59046107
619.372	0.59006146
619.57	0.58952068
619.768	0.58926386
619.966	0.58877067
620.165	0.5881518
620.363	0.58762406
620.561	0.5870687
620.759	0.58654929
620.957	0.58621064
621.155	0.5855904
621.354	0.58506012
621.552	0.58475534
621.75	0.58418478
621.948	0.58375174
622.146	0.5832424
622.344	0.58251801
622.542	0.58202296
622.74	0.58144445
622.938	0.58080194
623.136	0.58023661
623.334	0.57968968
623.532	0.5791085
623.73	0.57869645
623.928	0.5782461
624.126	0.57783116
624.324	0.57731171
624.522	0.57667027
624.719	0.57595168
624.917	0.57548493
625.115	0.57485494
625.313	0.57430335
625.511	0.57376735
625.708	0.57304144
625.906	0.57240696
626.104	0.571853
626.302	0.57120383
626.499	0.57059364
626.697	0.56975735
626.895	0.56895113
627.093	0.56830518
627.29	0.56773298
627.488	0.56697937
627.686	0.56627215
627.883	0.56546006
628.081	0.56469469
628.278	0.56414438
628.476	0.56345472
628.673	0.56288688
628.871	0.56235931
629.068	0.56172163
629.266	0.56111013
629.463	0.56045582
629.661	0.5596432
629.858	0.55892292
630.056	0.55809384
630.253	0.55733255
630.451	0.5565405
630.648	0.55572968
630.845	0.5550374
631.043	0.55432507
631.24	0.55370272
631.438	0.55297123
631.635	0.55224767
631.832	0.55144214
632.029	0.55081765
632.227	0.55000035
632.424	0.54918955
632.621	0.54828319
632.818	0.54742241
633.016	0.54662531
633.213	0.54587841
633.41	0.54506103
633.607	0.54427085
633.804	0.54354947
634.001	0.54271244
634.199	0.54189595
634.396	0.54107367
634.593	0.54013785
634.79	0.53938108
634.987	0.53856979
635.184	0.53773551
635.381	0.53704663
635.578	0.53627709
635.775	0.53532412
635.972	0.53450594
636.169	0.5335613
636.366	0.53271387
636.563	0.53185466
636.76	0.5308202
636.957	0.52993182
637.153	0.52903101
637.35	0.52831277
637.547	0.52743321
637.744	0.52649012
637.941	0.52562576
638.138	0.52482507
638.334	0.5239508
638.531	0.52322377
638.728	0.52229085
638.925	0.52155898
639.121	0.52072884
639.318	0.51974344
639.515	0.51872655
639.711	0.51781039
639.908	0.51663369
640.105	0.51559397
640.301	0.51447097
640.498	0.51344288
640.695	0.51256971
640.891	0.51170746
641.088	0.5107558
641.284	0.50996483
641.481	0.50910171
641.677	0.50811086
641.874	0.50711983
642.07	0.5061605
642.267	0.50529727
642.463	0.50433368
642.66	0.50349617
642.856	0.5024963
643.053	0.50155049
643.249	0.50069259
643.445	0.49970558
643.642	0.49866078
643.838	0.49776874
644.034	0.49676648
644.231	0.4957856
644.427	0.49488704
644.623	0.49386679
644.82	0.49293677
645.016	0.49186611
645.212	0.4906846
645.408	0.48959949
645.604	0.48866454
645.801	0.48762797
645.997	0.48652
646.193	0.48545827
646.389	0.48457853
646.585	0.48372107
646.781	0.48276074
646.977	0.48179926
647.173	0.48078561
647.37	0.47991329
647.566	0.47890665
647.762	0.47785981
647.958	0.47689081
648.154	0.47576201
648.35	0.47472118
648.546	0.47364949
648.742	0.47269751
648.937	0.47159988
649.133	0.47065971
649.329	0.46956247
649.525	0.46853635
649.721	0.46738362
649.917	0.46643316
650.113	0.46520159
650.309	0.46425874
650.504	0.4630482
650.7	0.46189581
650.896	0.46081774
651.092	0.45977507
651.287	0.45867615
651.483	0.45768785
651.679	0.4565904
651.875	0.4556832
652.07	0.4547936
652.266	0.45384473
652.462	0.45290117
652.657	0.45189979
652.853	0.45085007
653.048	0.44985217
653.244	0.44867805
653.44	0.44763368
653.635	0.44643181
653.831	0.44538781
654.026	0.44438764
654.222	0.44324888
654.417	0.44214489
654.613	0.44096746
654.808	0.43957977
655.004	0.43848617
655.199	0.43726507
655.394	0.43603813
655.59	0.43499155
655.785	0.43369445
655.98	0.4326663
656.176	0.43171518
656.371	0.43084674
656.566	0.42987501
656.762	0.42885268
656.957	0.42787619
657.152	0.4270018
657.348	0.42602816
657.543	0.42510138
657.738	0.42390762
657.933	0.42276072
658.128	0.42156369
658.324	0.42031092
658.519	0.41916099
658.714	0.41794964
658.909	0.41666319
659.104	0.41556314
659.299	0.41436247
659.494	0.41326377
659.689	0.41222105
659.884	0.41105085
660.079	0.40988388
660.274	0.4087322
660.469	0.40752316
660.664	0.40641673
660.859	0.40526683
661.054	0.40410693
661.249	0.40303339
661.444	0.4019772
661.639	0.40084439
661.834	0.39969371
662.029	0.39859565
662.224	0.39749688
662.418	0.39638114
662.613	0.39524553
662.808	0.39402373
663.003	0.39291718
663.198	0.39171511
663.392	0.39051583
663.587	0.38950841
663.782	0.38831936
663.977	0.38713271
664.171	0.38606766
664.366	0.38495683
664.561	0.38393614
664.755	0.38286491
664.95	0.38176595
665.144	0.38071467
665.339	0.37981656
665.534	0.37890067
665.728	0.37794741
665.923	0.37690724
666.117	0.37582706
666.312	0.37459104
666.506	0.37347638
666.701	0.37222189
666.895	0.37103011
667.09	0.3698213
667.284	0.3688368
667.479	0.36775439
667.673	0.36671187
667.867	0.36564986
668.062	0.36459478
668.256	0.36350909
668.45	0.36254537
668.645	0.36130805
668.839	0.36019149
669.033	0.35900802
669.228	0.35784696
669.422	0.35671788
669.616	0.3555558
669.81	0.35442181
670.004	0.35338034
670.199	0.35240725
670.393	0.35145862
670.587	0.35044274
670.781	0.34940584
670.975	0.34832762
671.169	0.3471276
671.363	0.34590476
671.558	0.34469952
671.752	0.34361182
671.946	0.3426506
672.14	0.34160374
672.334	0.34047965
672.528	0.33947906
672.722	0.33841431
672.916	0.33740682
673.11	0.33620059
673.304	0.33507174
673.497	0.33380142
673.691	0.33277919
673.885	0.33160265
674.079	0.33056726
674.273	0.32929142
674.467	0.32814352
674.661	0.32687744
674.854	0.32575032
675.048	0.32463551
675.242	0.32358906
675.436	0.32246358
675.629	0.32145087
675.823	0.32038904
676.017	0.31944218
676.211	0.31842043
676.404	0.31728462
676.598	0.3161954
676.792	0.3152275
676.985	0.31416839
677.179	0.31307305
677.372	0.31186666
677.566	0.31077236
677.76	0.30962748
677.953	0.30842968
678.147	0.3072539
678.34	0.30624656
678.534	0.30526469
678.727	0.30435996
678.921	0.30354262
679.114	0.30274877
679.307	0.30191851
679.501	0.30099949
679.694	0.29999494
679.888	0.29896231
680.081	0.29798891
680.274	0.29682444
680.468	0.29577078
680.661	0.29472587
680.854	0.29378455
681.048	0.2927669
681.241	0.29170113
681.434	0.29061542
681.627	0.28954245
681.821	0.28834952
682.014	0.28729588
682.207	0.28604377
682.4	0.28492129
682.593	0.28387635
682.786	0.28278652
682.98	0.28172096
683.173	0.2807874
683.366	0.27975544
683.559	0.27888613
683.752	0.27798898
683.945	0.27706078
684.138	0.27615342
684.331	0.27518689
684.524	0.27416932
684.717	0.27311893
684.91	0.27208112
685.103	0.27097633
685.296	0.26983362
685.489	0.26865379
685.682	0.26757685
685.874	0.26653044
686.067	0.26541673
686.26	0.26432358
686.453	0.26332974
686.646	0.26239465
686.839	0.26151443
687.031	0.26059538
687.224	0.25965553
687.417	0.25891126
687.61	0.25797091
687.802	0.2570103
687.995	0.25607906
688.188	0.25521466
688.38	0.25429408
688.573	0.25346583
688.766	0.25255319
688.958	0.25164456
689.151	0.25068994
689.343	0.24985508
689.536	0.24885318
689.729	0.24790284
689.921	0.2468743
690.114	0.24580165
690.306	0.24492827
690.499	0.24413922
690.691	0.24320429
690.884	0.24232208
691.076	0.24143694
691.268	0.24045997
691.461	0.23948919
691.653	0.23856534
691.846	0.23757619
692.038	0.23663833
692.23	0.23564617
692.423	0.23472811
692.615	0.23390348
692.807	0.23310486
692.999	0.23223431
693.192	0.23135531
693.384	0.23044662
693.576	0.22959982
693.768	0.22883647
693.961	0.22793809
694.153	0.22710551
694.345	0.22626232
694.537	0.2254722
694.729	0.22477824
694.921	0.22395715
695.113	0.22300575
695.305	0.22208544
695.498	0.22109279
695.69	0.22016448
695.882	0.21912873
696.074	0.2180998
696.266	0.2171473
696.458	0.21615773
696.65	0.21532269
696.842	0.21456178
697.033	0.21375141
697.225	0.21294258
697.417	0.21218422
697.609	0.21135924
697.801	0.21062469
697.993	0.20982595
698.185	0.20891973
698.376	0.20797171
698.568	0.20712057
698.76	0.20617358
698.952	0.20533009
699.144	0.20446517
699.335	0.20362887
699.527	0.202833
699.719	0.20208499
699.91	0.20131177
700.102	0.2004947
700.294	0.19970027
700.485	0.19894827
700.677	0.1981578
700.869	0.19742772
701.06	0.19669141
701.252	0.1959408
701.443	0.19529561
701.635	0.19458032
701.826	0.19383217
702.018	0.19310453
702.209	0.19244013
702.401	0.19173946
702.592	0.19108092
702.784	0.19039035
702.975	0.18974744
703.166	0.18915481
703.358	0.18844225
703.549	0.18766256
703.741	0.18682411
703.932	0.18594693
704.123	0.18510635
704.315	0.18428228
704.506	0.18348304
704.697	0.1826682
704.888	0.18200617
705.08	0.18134105
705.271	0.18073992
705.462	0.17997414
705.653	0.17916288
705.844	0.17830094
706.035	0.17751083
706.227	0.17654153
706.418	0.17567909
706.609	0.17477934
706.8	0.17394332
706.991	0.17318949
707.182	0.17251828
707.373	0.17188359
707.564	0.17139568
707.755	0.17083312
707.946	0.17030555
708.137	0.16975406
708.328	0.16916013
708.519	0.16847657
708.71	0.16768499
708.901	0.16681204
709.092	0.16607838
709.283	0.16529786
709.473	0.16459349
709.664	0.16396146
709.855	0.16330864
710.046	0.16274391
710.237	0.16215687
710.427	0.16148385
710.618	0.16081257
710.809	0.16014984
711	0.1594355
711.19	0.15875177
711.381	0.15807954
711.572	0.15736063
711.762	0.15666509
711.953	0.15601965
712.144	0.15529541
712.334	0.15463485
712.525	0.15393965
712.715	0.15323578
712.906	0.15250343
713.097	0.15176669
713.287	0.1510168
713.478	0.15037364
713.668	0.1497598
713.859	0.14925725
714.049	0.14877778
714.239	0.14836065
714.43	0.14782558
714.62	0.14732663
714.811	0.14675669
715.001	0.14614827
715.191	0.14550121
715.382	0.14485134
715.572	0.14432793
715.762	0.14396695
715.953	0.14355811
716.143	0.14314882
716.333	0.14265153
716.523	0.14214359
716.714	0.14161691
716.904	0.14097505
717.094	0.14034587
717.284	0.1397017
717.474	0.13903358
717.664	0.13845298
717.855	0.13793995
718.045	0.13743265
718.235	0.13698721
718.425	0.13650816
718.615	0.13604784
718.805	0.135695
718.995	0.13526921
719.185	0.13477901
719.375	0.13429212
719.565	0.13375049
719.755	0.13316022
719.945	0.13264368
720.135	0.1320937
720.325	0.13158053
720.515	0.1310387
720.704	0.13049219
720.894	0.12996689
721.084	0.12942511
721.274	0.12890208
721.464	0.12829774
721.654	0.12783294
721.843	0.12736364
722.033	0.12696414
722.223	0.12657932
722.413	0.12628816
722.602	0.12588316
722.792	0.12547719
722.982	0.12496612
723.171	0.12442927
723.361	0.12380533
723.55	0.12324482
723.74	0.12263192
723.93	0.1220602
724.119	0.1215927
724.309	0.12114281
724.498	0.12078115
724.688	0.1204843
724.877	0.12014656
725.067	0.11975105
725.256	0.11943196
725.446	0.11910992
725.635	0.11872019
725.825	0.11834546
726.014	0.11795926
726.203	0.11750177
726.393	0.11708096
726.582	0.11659773
726.771	0.11612519
726.961	0.11573331
727.15	0.11528901
727.339	0.11482481
727.529	0.11437573
727.718	0.11388275
727.907	0.11339078
728.096	0.11288072
728.286	0.11227515
728.475	0.1117285
728.664	0.11117155
728.853	0.11071999
729.042	0.11029748
729.231	0.10986352
729.42	0.10938837
729.609	0.10888163
729.799	0.10834395
729.988	0.1078691
730.177	0.10731515
730.366	0.1067834
730.555	0.10629128
730.744	0.10582182
730.933	0.10541528
731.122	0.10502174
731.31	0.10458817
731.499	0.10423775
731.688	0.10392939
731.877	0.10358147
732.066	0.10330511
732.255	0.1031519
732.444	0.10294974
732.632	0.10283161
732.821	0.10266153
733.01	0.10237888
733.199	0.10209709
733.388	0.10175061
733.576	0.10130743
733.765	0.10090538
733.954	0.10041042
734.142	0.09986739
734.331	0.09937422
734.52	0.0989676
734.708	0.09857651
734.897	0.09827443
735.086	0.09797601
735.274	0.09768107
735.463	0.09742507
735.651	0.09727618
735.84	0.09709447
736.028	0.096809
736.217	0.09645244
736.405	0.09608104
736.594	0.09574882
736.782	0.09545014
736.971	0.09507066
737.159	0.09466802
737.347	0.09437472
737.536	0.09397123
737.724	0.09353865
737.912	0.09314987
738.101	0.09282591
738.289	0.09247325
738.477	0.09212663
738.666	0.09165141
738.854	0.09132869
739.042	0.09101859
739.23	0.09062979
739.418	0.09024112
739.607	0.08988352
739.795	0.08959153
739.983	0.08941257
740.171	0.08916323
740.359	0.08890132
740.547	0.08876597
740.735	0.08851603
740.923	0.08823387
741.112	0.08798326
741.3	0.08773327
741.488	0.08755725
741.676	0.08736933
741.864	0.08711913
742.052	0.08692298
742.239	0.086679
742.427	0.08632297
742.615	0.08592439
742.803	0.08558584
742.991	0.08527152
743.179	0.08497728
743.367	0.08461638
743.555	0.08435691
743.742	0.08410414
743.93	0.0839464
744.118	0.08369262
744.306	0.08349687
744.494	0.08327596
744.681	0.08314277
744.869	0.08300547
745.057	0.08286303
745.244	0.08262752
745.432	0.08235283
745.62	0.08208701
745.807	0.08184608
745.995	0.08156367
746.182	0.08132062
746.37	0.08107877
746.558	0.08083455
746.745	0.08066867
746.933	0.08048547
747.12	0.08030598
747.308	0.08017565
747.495	0.07993626
747.683	0.07970107
747.87	0.07953682
748.057	0.07932913
748.245	0.07903605
748.432	0.07875483
748.62	0.07846395
748.807	0.07830161
748.994	0.07813835
749.182	0.07790813
749.369	0.07767577
749.556	0.07753719
749.743	0.07741939
749.931	0.07730484
750.118	0.07710211
750.305	0.07688107
750.492	0.07663999
750.68	0.07655824
750.867	0.07651699
751.054	0.07635662
751.241	0.07614116
751.428	0.07589078
751.615	0.07566611
751.802	0.07548562
751.989	0.07512738
752.176	0.07470332
752.363	0.07433309
752.55	0.07401442
752.737	0.0737446
752.924	0.07355375
753.111	0.07346751
753.298	0.07341926
753.485	0.07342524
753.672	0.07339069
753.859	0.07328887
754.046	0.07325177
754.233	0.07315086
754.42	0.07290643
754.606	0.07257535
754.793	0.07223834
754.98	0.07197898
755.167	0.07174278
755.353	0.07152275
755.54	0.0713582
755.727	0.07128646
755.914	0.07126495
756.1	0.07121976
756.287	0.07113411
756.474	0.07102468
756.66	0.07090536
756.847	0.07068911
757.033	0.07042995
757.22	0.07021076
757.407	0.07001409
757.593	0.06983178
757.78	0.06975289
757.966	0.0696273
758.153	0.06948251
758.339	0.06925977
758.526	0.06908844
758.712	0.0689069
758.898	0.06878303
759.085	0.06866996
759.271	0.06861146
759.458	0.06865492
759.644	0.06875984
759.83	0.06876836
760.017	0.06871632
760.203	0.06865857
760.389	0.06846084
760.576	0.06823171
760.762	0.06796171
760.948	0.06774904
761.134	0.06757536
761.32	0.06750553
761.507	0.06739277
761.693	0.06741247
761.879	0.0673707
762.065	0.06736779
762.251	0.06737053
762.437	0.0674572
762.623	0.0674556
762.809	0.06743133
762.995	0.06733493
763.181	0.067247
763.367	0.0671955
763.553	0.06699795
763.739	0.06669208
763.925	0.06637698
764.111	0.06611977
764.297	0.06585855
764.483	0.06563257
764.669	0.06538657
764.855	0.06530731
765.041	0.06524136
765.227	0.06515306
765.412	0.06496812
765.598	0.06491055
765.784	0.06487519
765.97	0.06479326
766.156	0.06469691
766.341	0.0646573
766.527	0.06465991
766.713	0.06474267
766.898	0.06473179
767.084	0.06465491
767.27	0.06452863
767.455	0.06430624
767.641	0.06411324
767.827	0.06396277
768.012	0.06378877
768.198	0.0636324
768.383	0.0635613
768.569	0.0635184
768.754	0.06361531
768.94	0.0636422
769.125	0.063672
769.311	0.06370998
769.496	0.06376993
769.682	0.06380334
769.867	0.06382902
770.052	0.06377389
770.238	0.06368887
770.423	0.06358227
770.608	0.06347829
770.794	0.06330962
770.979	0.0631497
771.164	0.06310434
771.35	0.06294664
771.535	0.06287241
771.72	0.06282956
771.905	0.062851
772.09	0.06277686
772.276	0.06267297
772.461	0.06248365
772.646	0.06240623
772.831	0.06239695
773.016	0.06230925
773.201	0.06215878
773.386	0.06214304
773.571	0.06215009
773.756	0.06219505
773.941	0.06225887
774.126	0.06225922
774.311	0.06232638
774.496	0.06238771
774.681	0.06242775
774.866	0.06250941
775.051	0.06257842
775.236	0.06258976
775.421	0.06252894
775.606	0.06244195
775.791	0.06232964
775.976	0.0622351
776.16	0.06205445
776.345	0.06192149
776.53	0.06183066
776.715	0.0618343
776.899	0.06176571
777.084	0.06173191
777.269	0.06169372
777.454	0.06170984
777.638	0.06174479
777.823	0.06178024
778.008	0.06179349
778.192	0.06185729
778.377	0.06184971
778.561	0.06183467
778.746	0.06178827
778.931	0.06162938
779.115	0.06147862
779.3	0.06128953
779.484	0.06115169
779.669	0.0610764
779.853	0.06098325
780.037	0.06088154
780.222	0.06079463
780.406	0.06066267
780.591	0.06057408
780.775	0.06046158
780.959	0.06035572
781.144	0.06025013
781.328	0.06021913
781.512	0.06022458
781.697	0.0603125
781.881	0.06038241
782.065	0.06048509
782.249	0.06056931
782.434	0.06068298
782.618	0.06076824
782.802	0.06084176
782.986	0.06087605
783.17	0.06087681
783.354	0.06082527
783.539	0.0608594
783.723	0.06084901
783.907	0.06075611
784.091	0.06060306
784.275	0.06039518
784.459	0.06020912
784.643	0.06006741
784.827	0.05989063
785.011	0.05964109
785.195	0.05948352
785.379	0.05936419
785.563	0.05935996
785.747	0.05925333
785.93	0.05915289
786.114	0.05899749
786.298	0.05883834
786.482	0.05863995
786.666	0.05854442
786.85	0.05842719
787.033	0.05846396
787.217	0.0583954
787.401	0.05834487
787.585	0.05836029
787.768	0.0584105
787.952	0.05841267
788.136	0.05839867
788.319	0.05837321
788.503	0.0584495
788.687	0.05852629
788.87	0.0586141
789.054	0.0585989
789.237	0.05860066
789.421	0.0585862
789.605	0.05855122
789.788	0.05842994
789.972	0.05825747
790.155	0.05810167
790.338	0.05802343
790.522	0.05791343
790.705	0.05782549
790.889	0.05776124
791.072	0.05784473
791.256	0.05798742
791.439	0.05814559
791.622	0.05832423
791.806	0.05854544
791.989	0.0587041
792.172	0.05879185
792.355	0.05869292
792.539	0.05856499
792.722	0.05840602
792.905	0.05826304
793.088	0.05813202
793.271	0.05805626
793.455	0.05802109
793.638	0.05806316
793.821	0.05815221
794.004	0.0582128
794.187	0.05829667
794.37	0.0583387
794.553	0.0582768
794.736	0.05813548
794.919	0.05812355
795.102	0.05804951
795.285	0.05810126
795.468	0.05811913
795.651	0.05807905
795.834	0.05814894
796.017	0.05827787
796.2	0.05837123
796.383	0.05844501
796.566	0.05842762
796.749	0.05837005
796.931	0.05831397
797.114	0.05824481
797.297	0.05820089
797.48	0.05806534
797.663	0.05798896
797.845	0.05792819
798.028	0.05791987
798.211	0.05792964
798.393	0.05809231
798.576	0.05821503
798.759	0.05833818
798.941	0.05853016
799.124	0.05868641
799.307	0.05877034
799.489	0.05883116
799.672	0.05873773
799.854	0.05865326
800.037	0.0585849
800.219	0.05850783
800.402	0.05841324
800.584	0.05839741
800.767	0.05843277
800.949	0.05848145
801.132	0.05853542
801.314	0.05855653
801.496	0.05855078
801.679	0.05863031
801.861	0.05860809
802.043	0.05863888
802.226	0.05867917
802.408	0.05859864
802.59	0.05854984
802.772	0.05843822
802.955	0.05839842
803.137	0.05837644
803.319	0.05825022
803.501	0.05807722
803.684	0.0579921
803.866	0.05790062
804.048	0.05796059
804.23	0.05794294
804.412	0.05800109
804.594	0.0581062
804.776	0.05827066
804.958	0.05848053
805.14	0.05873126
805.322	0.05875614
805.504	0.05877357
805.686	0.05865441
805.868	0.05855387
806.05	0.05848735
806.232	0.05838879
806.414	0.05831303
806.596	0.05837028
806.778	0.05833383
806.96	0.0584257
807.141	0.05850965
807.323	0.05842415
807.505	0.05831686
807.687	0.05819177
807.869	0.05805384
808.05	0.0578665
808.232	0.05766266
808.414	0.05742164
808.595	0.05739603
808.777	0.05740294
808.959	0.0573725
809.14	0.05734597
809.322	0.05745621
809.504	0.05767753
809.685	0.0578938
809.867	0.05798261
810.048	0.05800348
810.23	0.05800643
810.411	0.0579935
810.593	0.05792925
810.774	0.05783562
810.956	0.05770408
811.137	0.05758382
811.319	0.05750359
811.5	0.05747898
811.681	0.05749769
811.863	0.05757737
812.044	0.05770751
812.225	0.05795817
812.407	0.05814491
812.588	0.05833454
812.769	0.05843315
812.951	0.05856512
813.132	0.05865407
813.313	0.05860424
813.494	0.05849707
813.675	0.05848803
813.857	0.05849859
814.038	0.05864764
814.219	0.05875634
814.4	0.05894835
814.581	0.0591532
814.762	0.05937205
814.943	0.05949058
815.124	0.05959436
815.305	0.05957844
815.486	0.05954452
815.667	0.05940012
815.848	0.05937723
816.029	0.0593011
816.21	0.05933175
816.391	0.05933498
816.572	0.05934175
816.753	0.05933417
816.934	0.05929685
817.115	0.05911727
817.295	0.05894156
817.476	0.05873896
817.657	0.05865776
817.838	0.05857838
818.019	0.05844649
818.199	0.05844363
818.38	0.05842887
818.561	0.05847205
818.741	0.05846911
818.922	0.05847099
819.103	0.05850419
819.283	0.05858136
819.464	0.05865348
819.645	0.05881945
819.825	0.05892428
820.006	0.05901672
820.186	0.0590418
820.367	0.05906206
820.547	0.05908127
820.728	0.059023
820.908	0.05889813
821.089	0.05888864
821.269	0.0590033
821.45	0.05918695
821.63	0.05926029
821.81	0.05943014
821.991	0.05958198
822.171	0.05971261
822.351	0.05972979
822.532	0.05972752
822.712	0.05965702
822.892	0.05972218
823.072	0.05962964
823.253	0.05963179
823.433	0.05962419
823.613	0.05967318
823.793	0.05961859
823.973	0.05951567
824.154	0.05944393
824.334	0.05942736
824.514	0.05931892
824.694	0.05933192
824.874	0.05939228
825.054	0.05943798
825.234	0.05954104
825.414	0.05958117
825.594	0.05962666
825.774	0.05965357
825.954	0.05968195
826.134	0.05965855
826.314	0.05975181
826.494	0.0598401
826.674	0.05986991
826.854	0.0597965
827.033	0.05988284
827.213	0.05974218
827.393	0.05960451
827.573	0.05930059
827.753	0.05919294
827.932	0.05907042
828.112	0.05908842
828.292	0.05895122
828.472	0.05894051
828.651	0.05889039
828.831	0.0589521
829.011	0.05888467
829.19	0.05894814
829.37	0.0591087
829.549	0.0593076
829.729	0.05952072
829.909	0.05975892
830.088	0.0599635
830.268	0.06010722
830.447	0.06022899
830.627	0.06019141
830.806	0.06011907
830.986	0.0600415
831.165	0.05997522
831.344	0.05994636
831.524	0.0598354
831.703	0.05979994
831.883	0.0597891
832.062	0.0599201
832.241	0.05992453
832.421	0.05989729
832.6	0.05986613
832.779	0.05997503
832.958	0.06004162
833.138	0.06016943
833.317	0.06015418
833.496	0.0603122
833.675	0.06044643
833.854	0.06061927
834.034	0.06069444
834.213	0.06068689
834.392	0.0606333
834.571	0.06059234
834.75	0.0604652
834.929	0.06049165
835.108	0.06034206
835.287	0.06033209
835.466	0.06032801
835.645	0.06025872
835.824	0.06028144
836.003	0.06035636
836.182	0.06024101
836.361	0.06016481
836.54	0.06000847
836.719	0.05991035
836.897	0.05986205
837.076	0.0597927
837.255	0.05969822
837.434	0.05970712
837.613	0.05969334
837.791	0.05972359
837.97	0.05979514
838.149	0.05973505
838.328	0.0596627
838.506	0.05962819
838.685	0.05955547
838.864	0.05963541
839.042	0.05970951
839.221	0.05978452
839.4	0.0599078
839.578	0.06007334
839.757	0.06025935
839.935	0.06051784
840.114	0.06063156
840.292	0.06074759
840.471	0.06087279
840.649	0.06100831
840.828	0.06107033
841.006	0.06102455
841.185	0.06092517
841.363	0.0608446
841.541	0.06081122
841.72	0.06059764
841.898	0.06047335
842.076	0.06031772
842.255	0.06024335
842.433	0.06020792
842.611	0.06031196
842.789	0.06030441
842.968	0.06034437
843.146	0.06038376
843.324	0.06045353
843.502	0.06057702
843.68	0.06058989
843.859	0.0605455
844.037	0.06043348
844.215	0.06025727
844.393	0.0600772
844.571	0.06000882
844.749	0.05981333
844.927	0.05973203
845.105	0.0596083
845.283	0.05962651
845.461	0.05977671
845.639	0.05985498
845.817	0.05994473
845.995	0.06011241
846.173	0.06017614
846.351	0.06018267
846.529	0.060159
846.706	0.06002703
846.884	0.05990119
847.062	0.05958459
847.24	0.05924002
847.418	0.05895099
847.595	0.05882427
847.773	0.05872009
847.951	0.05870241
848.129	0.05880738
848.306	0.05893553
848.484	0.05911988
848.662	0.05936196
848.839	0.05955966
849.017	0.05975796
849.194	0.059921
849.372	0.05996463
849.549	0.06007526
849.727	0.06017478
849.905	0.06024707
850.082	0.06025639
850.26	0.06030669
850.437	0.06035829
850.614	0.06047631
850.792	0.06053617
850.969	0.06052429
851.147	0.06055735
851.324	0.06047028
851.501	0.06027896
851.679	0.06006604
851.856	0.05992552
852.033	0.05978927
852.211	0.05973114
852.388	0.05961325
852.565	0.05976328
852.742	0.05987205
852.92	0.06010624
853.097	0.060358
853.274	0.06061163
853.451	0.06068718
853.628	0.06078299
853.805	0.0607299
853.982	0.06063958
854.159	0.06046158
854.336	0.06019477
854.514	0.06003492
854.691	0.05991799
854.868	0.05982554
855.045	0.05976954
855.221	0.05970659
855.398	0.05974295
855.575	0.05978013
855.752	0.05973794
855.929	0.05980245
856.106	0.05985042
856.283	0.05991491
856.46	0.05999607
856.637	0.06006248
856.813	0.06008837
856.99	0.06015612
857.167	0.06014892
857.344	0.06013191
857.52	0.06011185
857.697	0.06005728
857.874	0.05980587
858.05	0.05973171
858.227	0.05969047
858.404	0.05961513
858.58	0.05958999
858.757	0.05947856
858.933	0.05940466
859.11	0.0593241
859.287	0.05903378
859.463	0.05876281
859.64	0.05867347
859.816	0.05851634
859.993	0.05848028
860.169	0.05847298
860.345	0.05854452
860.522	0.05865894
860.698	0.05860659
860.875	0.05854492
861.051	0.05836922
861.227	0.05819999
861.404	0.05820018
861.58	0.05820895
861.756	0.05832659
861.932	0.05857014
862.109	0.0586486
862.285	0.0588701
862.461	0.05912826
862.637	0.0591909
862.813	0.05938073
862.99	0.05940838
863.166	0.05930031
863.342	0.05930193
863.518	0.05927367
863.694	0.05919178
863.87	0.0591801
864.046	0.05911546
864.222	0.05915066
864.398	0.05918422
864.574	0.05917596
864.75	0.05927
864.926	0.05924653
865.102	0.05931699
865.278	0.05933025
865.454	0.05933378
865.63	0.0593521
865.805	0.05935926
865.981	0.05926975
866.157	0.05936431
866.333	0.05939045
866.509	0.0594399
866.684	0.05951035
866.86	0.05958791
867.036	0.05966675
867.212	0.05970867
867.387	0.05958223
867.563	0.05948703
867.739	0.05932149
867.914	0.05922922
868.09	0.05913087
868.265	0.05907303
868.441	0.05900832
868.617	0.05910324
868.792	0.05898342
868.968	0.05896036
869.143	0.05894941
869.319	0.0590063
869.494	0.05911006
869.67	0.05929876
869.845	0.05934314
870.02	0.05962554
870.196	0.05994555
870.371	0.06000556
870.546	0.06009545
870.722	0.06024592
870.897	0.06029566
871.072	0.06035265
871.248	0.0601985
871.423	0.0600087
871.598	0.05982213
871.773	0.05959668
871.949	0.05916661
872.124	0.05898494
872.299	0.05871026
872.474	0.05855381
872.649	0.05835432
872.824	0.05836108
872.999	0.05826327
873.174	0.05831649
873.349	0.05814872
873.524	0.05805717
873.699	0.0578649
873.874	0.05779137
874.049	0.05763942
874.224	0.05756274
874.399	0.05739628
874.574	0.05724685
874.749	0.05716279
874.924	0.05716316
875.099	0.05716048
875.274	0.0571123
875.449	0.05722395
875.623	0.05730077
875.798	0.05735397
875.973	0.0572711
876.148	0.05723136
876.322	0.05709528
876.497	0.05711722
876.672	0.05694768
876.846	0.0567988
877.021	0.05661127
877.196	0.05662367
877.37	0.05673828
877.545	0.05686968
877.72	0.05684064
877.894	0.05686033
878.069	0.05678486
878.243	0.05684373
878.418	0.05672319
878.592	0.05666044
878.767	0.05654766
878.941	0.0564796
879.116	0.05637814
879.29	0.05652752
879.464	0.05665044
879.639	0.05698607
879.813	0.05715888
879.987	0.0572546
880.162	0.05724474
880.336	0.05739415
880.51	0.05736763
880.685	0.05719702
880.859	0.0570458
881.033	0.05684464
881.207	0.05676437
881.381	0.05682663
881.556	0.05680694
881.73	0.05669995
881.904	0.05676504
882.078	0.05658895
882.252	0.05649644
882.426	0.05636947
882.6	0.05627548
882.774	0.05626835
882.948	0.05647651
883.122	0.05650899
883.296	0.05658869
883.47	0.05658692
883.644	0.0566001
883.818	0.05663489
883.992	0.05649641
884.166	0.05628172
884.34	0.05620086
884.514	0.0562311
884.687	0.05619028
884.861	0.05616375
885.035	0.05608395
885.209	0.05615713
885.382	0.05619107
885.556	0.05619174
885.73	0.05623021
885.904	0.05641883
886.077	0.05653167
886.251	0.0565876
886.425	0.05667877
886.598	0.05677401
886.772	0.05683616
886.945	0.05682222
887.119	0.05680021
887.292	0.05684027
887.466	0.05689883
887.64	0.05682904
887.813	0.05684032
887.986	0.05679096
888.16	0.05678796
888.333	0.05671317
888.507	0.05669523
888.68	0.05672996
888.854	0.05667312
889.027	0.05670853
889.2	0.056771
889.374	0.05675171
889.547	0.05682081
889.72	0.05682165
889.893	0.05668809
890.067	0.05661787
890.24	0.05633364
890.413	0.0561785
890.586	0.05606804
890.759	0.05597695
890.933	0.05588071
891.106	0.05574938
891.279	0.05567296
891.452	0.05573104
891.625	0.05565169
891.798	0.05551869
891.971	0.05529789
892.144	0.05510569
892.317	0.05502032
892.49	0.05498204
892.663	0.05493706
892.836	0.05490105
893.009	0.05482702
893.182	0.05465899
893.355	0.05447141
893.527	0.05434103
893.7	0.05427719
893.873	0.05412705
894.046	0.0540502
894.219	0.05403716
894.391	0.05401685
894.564	0.05411546
894.737	0.05410009
894.91	0.05407151
895.082	0.05390943
895.255	0.05366302
895.428	0.05347954
895.6	0.05350882
895.773	0.05329176
895.945	0.05326368
896.118	0.05303486
896.291	0.05301836
896.463	0.05312291
896.636	0.05315046
896.808	0.05321899
896.981	0.05338247
897.153	0.05332945
897.326	0.0534717
897.498	0.05348683
897.67	0.05348029
897.843	0.05355081
898.015	0.05341357
898.187	0.05326949
898.36	0.05326
898.532	0.05313393
898.704	0.05314675
898.877	0.05315583
899.049	0.05312168
899.221	0.05312641
899.393	0.05331813
899.566	0.05338689
899.738	0.05359016
899.91	0.05354974
900.082	0.05367309
900.254	0.05366872
900.426	0.05371638
900.598	0.05361762
900.77	0.05354409
900.942	0.05336388
901.114	0.05327341
901.286	0.05296333
901.458	0.05293653
901.63	0.05280639
901.802	0.05270321
901.974	0.05266291
902.146	0.05258947
902.318	0.05271174
902.49	0.05273707
902.662	0.05257026
902.834	0.05252777
903.005	0.05243288
903.177	0.05226821
903.349	0.05213679
903.521	0.05183431
903.693	0.05172074
903.864	0.05181608
904.036	0.05176375
904.208	0.05180467
904.379	0.0519711
904.551	0.05204485
904.723	0.05205525
904.894	0.05200634
905.066	0.05180472
905.237	0.05162418
905.409	0.051333
905.58	0.05095794
905.752	0.05081338
905.923	0.05070288
906.095	0.05060713
906.266	0.05058945
906.438	0.05052439
906.609	0.0506071
906.78	0.05056922
906.952	0.05040981
907.123	0.05038814
907.295	0.0502276
907.466	0.04990548
907.637	0.04974679
907.808	0.04949053
907.98	0.04933742
908.151	0.04919057
908.322	0.04897693
908.493	0.04891312
908.665	0.04887523
908.836	0.04886514
909.007	0.04886602
909.178	0.04892361
909.349	0.04890924
909.52	0.04905548
909.691	0.04913222
909.862	0.04914094
910.033	0.0491866
910.204	0.04928894
910.375	0.04933776
910.546	0.04937825
910.717	0.04926838
910.888	0.04929219
911.059	0.04945666
911.23	0.04948001
911.401	0.04948025
911.572	0.04955982
911.742	0.04970307
911.913	0.04992739
912.084	0.05002249
912.255	0.05005315
912.426	0.05004066
912.596	0.04997385
912.767	0.04996464
912.938	0.049866
913.108	0.04972483
913.279	0.04957728
913.45	0.04946497
913.62	0.04949793
913.791	0.04946127
913.962	0.04939681
914.132	0.04944327
914.303	0.04941921
914.473	0.04938921
914.644	0.04935715
914.814	0.04923525
914.985	0.04920175
915.155	0.04905175
915.326	0.04881472
915.496	0.04864161
915.666	0.04853846
915.837	0.04845426
916.007	0.04837853
916.177	0.04815621
916.348	0.04795324
916.518	0.04794762
916.688	0.04781895
916.858	0.04773971
917.029	0.04759525
917.199	0.04747347
917.369	0.04754352
917.539	0.04766774
917.709	0.04763258
917.88	0.04760849
918.05	0.04747174
918.22	0.04753834
918.39	0.04759046
918.56	0.04746479
918.73	0.04746984
918.9	0.04747544
919.07	0.04754591
919.24	0.04774709
919.41	0.04769
919.58	0.04769771
919.75	0.04769584
919.92	0.04755219
920.09	0.04741235
920.26	0.04732551
920.429	0.04713814
920.599	0.04700257
920.769	0.04695221
920.939	0.0469836
921.109	0.04704387
921.278	0.04711506
921.448	0.04710965
921.618	0.04712958
921.787	0.04705502
921.957	0.04695168
922.127	0.0467781
922.296	0.0466822
922.466	0.04657841
922.636	0.04642722
922.805	0.04623029
922.975	0.04606829
923.144	0.04580091
923.314	0.04563254
923.483	0.04538855
923.653	0.04502182
923.822	0.04477429
923.992	0.04459132
924.161	0.04461555
924.331	0.04445995
924.5	0.04429949
924.669	0.04419147
924.839	0.0441716
925.008	0.04419937
925.177	0.0440762
925.347	0.04397492
925.516	0.04406244
925.685	0.04417187
925.854	0.0442132
926.023	0.04438581
926.193	0.04451795
926.362	0.04469503
926.531	0.04477182
926.7	0.04492632
926.869	0.04502149
927.038	0.04498935
927.207	0.04491687
927.376	0.04494513
927.545	0.04498754
927.715	0.04508975
927.884	0.04491509
928.052	0.0448036
928.221	0.04477313
928.39	0.0446611
928.559	0.04445912
928.728	0.04417125
928.897	0.04393161
929.066	0.04374283
929.235	0.04379865
929.404	0.0438448
929.572	0.04385196
929.741	0.04375972
929.91	0.0438627
930.079	0.04373632
930.247	0.04372556
930.416	0.04354045
930.585	0.04326406
930.753	0.04314896
930.922	0.04309687
931.091	0.0430918
931.259	0.04312146
931.428	0.04327129
931.596	0.04341059
931.765	0.04386551
931.934	0.04406764
932.102	0.0442359
932.27	0.04425244
932.439	0.04437042
932.607	0.04443295
932.776	0.04438418
932.944	0.04411248
933.113	0.04400262
933.281	0.0438508
933.449	0.04365886
933.618	0.04352651
933.786	0.04337834
933.954	0.04329162
934.123	0.04316934
934.291	0.04320578
934.459	0.04344892
934.627	0.043827
934.795	0.04393624
934.964	0.04405821
935.132	0.04424254
935.3	0.0442483
935.468	0.04424524
935.636	0.04410937
935.804	0.04388529
935.972	0.04402922
936.14	0.04406467
936.308	0.0440539
936.476	0.04425288
936.644	0.04440169
936.812	0.04447607
936.98	0.04468597
937.148	0.04477729
937.316	0.0450016
937.484	0.04522365
937.652	0.0456943
937.82	0.0460991
937.987	0.04628957
938.155	0.04658258
938.323	0.04680937
938.491	0.04679398
938.658	0.04670933
938.826	0.0466618
938.994	0.04675001
939.162	0.04717322
939.329	0.04737102
939.497	0.0476188
939.665	0.04795748
939.832	0.0484976
940	0.04867327
940.167	0.04877439
940.335	0.04895107
940.502	0.04899318
940.67	0.04937294
940.837	0.0498046
941.005	0.05023837
941.172	0.05110146
941.34	0.05164711
941.507	0.05194675
941.674	0.05263872
941.842	0.05272973
942.009	0.05303485
942.177	0.0528952
942.344	0.05258362
942.511	0.05242866
942.678	0.05300663
942.846	0.05279321
943.013	0.05316302
943.18	0.05287588
943.347	0.05311095
943.514	0.0528297
943.682	0.053364
943.849	0.05330591
944.016	0.05326537
944.183	0.05346672
944.35	0.05415441
944.517	0.05489246
944.684	0.05514194
944.851	0.05381393
945.018	0.0534535
945.185	0.05296249
945.352	0.05182341
945.519	0.05127345
945.686	0.0504111
945.853	0.05048876
946.02	0.05082238
946.187	0.04989703
946.353	0.05030643
946.52	0.05029803
946.687	0.04961443
946.854	0.04952289
947.021	0.04886871
947.187	0.04873055
947.354	0.04847559
947.521	0.04858618
947.687	0.04879841
947.854	0.04851144
948.021	0.04758305
948.187	0.04761238
948.354	0.04746118
948.52	0.04737888
948.687	0.04739863
948.854	0.04690301
949.02	0.04687836
949.187	0.04698324
949.353	0.04661857
949.52	0.04639381
949.686	0.04599371
949.852	0.04523042
950.019	0.04444926
950.185	0.04408948
950.352	0.04379279
950.518	0.04331986
950.684	0.04256832
950.851	0.04247304
951.017	0.0417861
951.183	0.04210983
951.349	0.04180817
951.516	0.04165031
951.682	0.04163734
951.848	0.04138405
952.014	0.04076602
952.18	0.04075887
952.346	0.04012558
952.512	0.03964858
952.679	0.03942863
952.845	0.03912434
953.011	0.03900326
953.177	0.03926855
953.343	0.03920854
953.509	0.0389461
953.675	0.03910904
953.841	0.03931944
954.007	0.03926948
954.172	0.03934554
954.338	0.03891893
954.504	0.03836881
954.67	0.03841764
954.836	0.03826865
955.002	0.03737895
955.167	0.03679543
955.333	0.03604517
955.499	0.03583005
955.665	0.03566447
955.83	0.03508953
955.996	0.0345359
956.162	0.03388623
956.327	0.03348971
956.493	0.03326179
956.659	0.0328877
956.824	0.03255357
956.99	0.03235807
957.155	0.03246244
957.321	0.03235785
957.486	0.03220795
957.652	0.03171405
957.817	0.03156776
957.983	0.03125073
958.148	0.03140683
958.314	0.03092022
958.479	0.03111648
958.644	0.03133005
958.81	0.03208185
958.975	0.03216513
959.14	0.03256443
959.306	0.03236424
959.471	0.03257707
959.636	0.03274846
959.801	0.03287237
959.967	0.03259588
960.132	0.03252438
960.297	0.03216601
960.462	0.03213699
960.627	0.03208481
960.792	0.03175554
960.957	0.03139918
961.123	0.03118437
961.288	0.03093617
961.453	0.03093988
961.618	0.03072599
961.783	0.03057927
961.948	0.03076712
962.113	0.03077032
962.277	0.0306284
962.442	0.03092797
962.607	0.03094195
962.772	0.03108582
962.937	0.03077377
963.102	0.03063233
963.267	0.03042017
963.431	0.03045898
963.596	0.0301253
963.761	0.03022187
963.926	0.03019127
964.09	0.03033083
964.255	0.03029278
964.42	0.03009147
964.584	0.03005014
964.749	0.03006676
964.914	0.02969972
965.078	0.0294323
965.243	0.02949848
965.407	0.0293991
965.572	0.02982714
965.736	0.02986374
965.901	0.03002323
966.065	0.03027378
966.23	0.0304575
966.394	0.03015395
966.559	0.03005411
966.723	0.03005507
966.887	0.03008719
967.052	0.02985749
967.216	0.02975954
967.38	0.02960125
967.545	0.02990633
967.709	0.03013274
967.873	0.02996057
968.037	0.02987288
968.202	0.03020173
968.366	0.03007582
968.53	0.03018227
968.694	0.02992606
968.858	0.02987977
969.022	0.02981264
969.187	0.0298523
969.351	0.02955681
969.515	0.0296325
969.679	0.02951232
969.843	0.02951899
970.007	0.02934114
970.171	0.02946742
970.335	0.02917876
970.499	0.0289768
970.662	0.02904168
970.826	0.02910751
970.99	0.02921456
971.154	0.0292566
971.318	0.02907266
971.482	0.02912958
971.645	0.02922931
971.809	0.02905303
971.973	0.02872383
972.137	0.02866522
972.3	0.02860541
972.464	0.02872794
972.628	0.02867561
972.791	0.02867297
972.955	0.02879256
973.119	0.0289771
973.282	0.02904772
973.446	0.02874384
973.609	0.02842828
973.773	0.02836858
973.936	0.02813037
974.1	0.02775098
974.263	0.02764453
974.427	0.02731028
974.59	0.02724203
974.754	0.02717653
974.917	0.0271639
975.08	0.02680542
975.244	0.02664707
975.407	0.02649101
975.57	0.0262437
975.734	0.02600663
975.897	0.02589857
976.06	0.02571951
976.223	0.02590787
976.387	0.02568686
976.55	0.02544854
976.713	0.02524929
976.876	0.02548759
977.039	0.02538925
977.202	0.0252368
977.365	0.02548719
977.528	0.02570083
977.692	0.02549995
977.855	0.02556655
978.018	0.02521672
978.181	0.02516891
978.344	0.02530821
978.506	0.02534858
978.669	0.02567053
978.832	0.0259201
978.995	0.02604704
979.158	0.02629977
979.321	0.02659418
979.484	0.02676624
979.646	0.02675387
979.809	0.02659044
979.972	0.02677308
980.135	0.0272419
980.297	0.02739352
980.46	0.02727267
980.623	0.02730901
980.786	0.02701899
980.948	0.02678111
981.111	0.02670192
981.273	0.02655044
981.436	0.02649698
981.599	0.02636759
981.761	0.02627164
981.924	0.02631147
982.086	0.02631078
982.249	0.02632364
982.411	0.02601512
982.573	0.02564393
982.736	0.02556745
982.898	0.02530637
983.061	0.02523115
983.223	0.0251789
983.385	0.02499487
983.548	0.02530123
983.71	0.02569536
983.872	0.02599052
984.034	0.02603109
984.197	0.02605407
984.359	0.02624842
984.521	0.02630246
984.683	0.02577022
984.845	0.02578948
985.008	0.02562382
985.17	0.0255427
985.332	0.02555608
985.494	0.02533693
985.656	0.0253372
985.818	0.02551568
985.98	0.02514267
986.142	0.02483844
986.304	0.02449104
986.466	0.02424913
986.628	0.02424944
986.79	0.02414625
986.952	0.02402272
987.113	0.02401458
987.275	0.02402224
987.437	0.02439556
987.599	0.02426207
987.761	0.02424233
987.922	0.02408284
988.084	0.0241915
988.246	0.02430344
988.408	0.02424322
988.569	0.02423269
988.731	0.02443487
988.893	0.02429613
989.054	0.02443981
989.216	0.02472564
989.377	0.02473985
989.539	0.0251374
989.701	0.02512101
989.862	0.02502857
990.024	0.02507424
990.185	0.0251261
990.347	0.02509348
990.508	0.02503899
990.669	0.02462591
990.831	0.02450535
990.992	0.02464072
991.154	0.02452192
991.315	0.02455785
991.476	0.02404692
991.638	0.02405243
991.799	0.02404449
991.96	0.02405592
992.121	0.02412823
992.283	0.02416875
992.444	0.02401823
992.605	0.02413975
992.766	0.02435093
992.927	0.02431839
993.088	0.02417638
993.249	0.02405
993.41	0.02385901
993.572	0.02371759
993.733	0.0236924
993.894	0.02329492
994.055	0.02321694
994.216	0.02328074
994.376	0.02281758
994.537	0.022853
994.698	0.02270518
994.859	0.02228526
995.02	0.02205279
995.181	0.02183923
995.342	0.02149571
995.503	0.02132411
995.663	0.02057962
995.824	0.02039448
995.985	0.02079281
996.146	0.02075043
996.306	0.02090598
996.467	0.02097435
996.628	0.02120826
996.788	0.0220611
996.949	0.02221746
997.11	0.02221
997.27	0.02234634
997.431	0.0223449
997.591	0.02180905
997.752	0.02209036
997.912	0.02219969
998.073	0.02217745
998.233	0.0218612
998.394	0.02184215
998.554	0.02167314
998.714	0.02243042
998.875	0.02209931
999.035	0.02168638
999.196	0.0219019
999.356	0.0223304
999.516	0.02221014
999.676	0.0226251
999.837	0.0223511
999.997	0.02232828
1000.157	0.02218416
1000.317	0.02160224
1000.477	0.02096967
1000.638	0.02083749
1000.798	0.02074103
1000.958	0.02110091
1001.118	0.02164774
1001.278	0.02208034
1001.438	0.02255435
1001.598	0.02295051
1001.758	0.02338131
1001.918	0.02325608
1002.078	0.02288228
1002.238	0.02278185
1002.398	0.02283137
1002.558	0.02286531
1002.718	0.02301601
1002.878	0.02262931
1003.037	0.02209023
1003.197	0.0223022
1003.357	0.02210667
1003.517	0.02244108
1003.677	0.02219309
1003.836	0.02169737
1003.996	0.02219852
1004.156	0.02221844
1004.315	0.02192337
1004.475	0.0212986
1004.635	0.02068319
1004.794	0.02067143
1004.954	0.02046927
1005.114	0.02007108
1005.273	0.02066374
1005.433	0.0205842
1005.592	0.02098311
1005.752	0.02056067
1005.911	0.02050596
1006.071	0.02082009
1006.23	0.02068407
1006.389	0.02058534
1006.549	0.0205823
1006.708	0.02065329
1006.868	0.02091434
1007.027	0.02145216
1007.186	0.02173074
1007.345	0.02230445
1007.505	0.0224777
1007.664	0.02281019
1007.823	0.02274523
1007.982	0.02317282
1008.142	0.02279141
1008.301	0.02295268
1008.46	0.02253011
1008.619	0.02187392
1008.778	0.02212901
1008.937	0.0224292
1009.096	0.02220631
1009.255	0.02223187
1009.414	0.02179372
1009.573	0.0218925
1009.732	0.02276376
1009.891	0.02275653
1010.05	0.02340194
1010.209	0.02381532
1010.368	0.02336171
1010.527	0.02386879
1010.686	0.02399103
1010.845	0.02333029
1011.003	0.02304737
1011.162	0.02244655
1011.321	0.02271997
1011.48	0.02383307
1011.638	0.02332064
1011.797	0.02378326
1011.956	0.0242664
1012.115	0.02467628
1012.273	0.02462005
1012.432	0.02409745
1012.59	0.02382781
1012.749	0.02397676
1012.908	0.0227362
1013.066	0.02254953
1013.225	0.02262341
1013.383	0.02243823
1013.542	0.02228401
1013.7	0.02193378
1013.859	0.02236246
1014.017	0.02326682
1014.175	0.02265591
1014.334	0.02251667
1014.492	0.0229368
1014.65	0.02362354
1014.809	0.02422962
1014.967	0.02315333
1015.125	0.0231432
1015.284	0.02446095
1015.442	0.02459132
1015.6	0.02487397
1015.758	0.02439983
1015.916	0.02443749
1016.075	0.02529751
1016.233	0.0250847
1016.391	0.02472868
1016.549	0.02413056
1016.707	0.02410786
1016.865	0.02411896
1017.023	0.02477139
1017.181	0.02513333
1017.339	0.02517726
1017.497	0.02504463
1017.655	0.02678308
1017.813	0.02762704
1017.971	0.02777283
1018.129	0.02717774
1018.286	0.02729418
1018.444	0.027402
1018.602	0.02811592
1018.76	0.02755981
1018.918	0.02763628
1019.075	0.02723331
1019.233	0.0267444
1019.391	0.0265516
1019.549	0.02703352
1019.706	0.02707986
1019.864	0.02731221
1020.022	0.02693995
1020.179	0.0281292
1020.337	0.03075204
1020.494	0.03101172
1020.652	0.03096823
1020.809	0.03099984
1020.967	0.03038253
1021.124	0.03045106
1021.282	0.0300556
1021.439	0.02975121
1021.597	0.02983612
1021.754	0.03052729
1021.911	0.03148518
1022.069	0.03170753
1022.226	0.02987964
1022.384	0.03191822
1022.541	0.02916192
1022.698	0.02915868
1022.855	0.02837891
1023.013	0.0273257
1023.17	0.0263504
1023.327	0.02864123
1023.484	0.02690396
1023.641	0.02860412
1023.798	0.0287783
1023.956	0.02998595
1024.113	0.03123717
1024.27	0.03322573
1024.427	0.03251368
1024.584	0.03311525
1024.741	0.03246465
1024.898	0.03280522
1025.055	0.03250084
1025.212	0.02992888
1025.369	0.02889022
1025.525	0.02871381
1025.682	0.03047215
1025.839	0.03188877
1025.996	0.03261877
1026.153	0.03311361
1026.31	0.03581825
1026.466	0.03661324
1026.623	0.03767428
1026.78	0.03545556
1026.937	0.03535288
1027.093	0.03647947
1027.25	0.03629434
1027.407	0.03689257
1027.563	0.03918288
1027.72	0.0387822
1027.876	0.0386068
1028.033	0.03807418
1028.19	0.03611843
1028.346	0.03442766
1028.503	0.03362475
1028.659	0.03137857
1028.816	0.02964456
1028.972	0.03257084
1029.128	0.03397797
1029.285	0.03282665
1029.441	0.03491074
1029.598	0.03533066
1029.754	0.03738816
1029.91	0.03834822
1030.067	0.03606435
1030.223	0.0376719
1030.379	0.03801187
1030.535	0.04027689
1030.691	0.04131613
1030.848	0.03941161
1031.004	0.04223356
1031.16	0.0446711
1031.316	0.04343043
1031.472	0.04582359
1031.628	0.04381196
1031.784	0.04460108
1031.94	0.04600298
1032.096	0.04561417
1032.252	0.04448323
1032.408	0.04245074
1032.564	0.04272148
1032.72	0.0437771
1032.876	0.0427562
1033.032	0.04235806
1033.188	0.04318848
1033.344	0.04333768
1033.5	0.04518479
1033.655	0.04595583
1033.811	0.04636001
1033.967	0.04679185
