Data from 0_1_mm_pl_0pc_Absorbance__0__17-47-02-708.txt Node

Date: Wed Mar 01 17:47:02 CET 2023
User: Ange
Spectrometer: FLMT08341
Trigger mode: 0
Integration Time (sec): 1.000000E-2
Scans to average: 400
Electric dark correction enabled: true
Nonlinearity correction enabled: false
Boxcar width: 3
XAxis mode: Wavelengths
Number of Pixels in Spectrum: 3648
>>>>>Begin Spectral Data<<<<<
345.271	-0.00888976
345.487	-0.00415337
345.704	0.00028647
345.921	-0.00274917
346.137	-0.00748262
346.354	-0.00555139
346.571	-0.01546833
346.787	-0.05448834
347.004	0.11087231
347.22	0.10955646
347.437	0.00484387
347.653	-0.28567856
347.87	0.18110024
348.086	0.67219563
348.303	-0.2112349
348.519	0.09312861
348.736	0.07632529
348.952	0.07831073
349.169	0.07771349
349.385	0.08224631
349.601	0.08525838
349.818	0.08668992
350.034	0.08539531
350.251	0.08644392
350.467	0.08616607
350.683	0.08386442
350.9	0.085316
351.116	0.0834998
351.332	0.08161329
351.549	0.08445804
351.765	0.08768981
351.981	0.0890448
352.197	0.0934786
352.414	0.095409
352.63	0.09823802
352.846	0.10224042
353.062	0.10053509
353.278	0.0984643
353.495	0.09861771
353.711	0.09916221
353.927	0.09908502
354.143	0.09736206
354.359	0.09608126
354.575	0.09754298
354.792	0.10003847
355.008	0.10010972
355.224	0.09843565
355.44	0.0984704
355.656	0.09941395
355.872	0.09982315
356.088	0.10251541
356.304	0.10249046
356.52	0.10446372
356.736	0.10604394
356.952	0.10763542
357.168	0.10743958
357.384	0.10876301
357.6	0.10710803
357.816	0.10977941
358.032	0.11010457
358.248	0.11248281
358.464	0.1116912
358.679	0.11366966
358.895	0.11499816
359.111	0.11790687
359.327	0.1173707
359.543	0.11946182
359.759	0.1217178
359.974	0.12349221
360.19	0.12475221
360.406	0.12591091
360.622	0.1248943
360.838	0.12326905
361.053	0.12424728
361.269	0.12428024
361.485	0.12481977
361.701	0.12418169
361.916	0.12211513
362.132	0.12265217
362.348	0.12486209
362.563	0.12432731
362.779	0.12303769
362.995	0.12508704
363.21	0.12759895
363.426	0.12941936
363.641	0.1308895
363.857	0.1332148
364.073	0.13295825
364.288	0.13312962
364.504	0.13301717
364.719	0.13297883
364.935	0.13333129
365.15	0.13362078
365.366	0.13364557
365.581	0.13444825
365.797	0.13579103
366.012	0.13606331
366.228	0.13573568
366.443	0.13777529
366.658	0.13912846
366.874	0.13782535
367.089	0.14107941
367.305	0.1424529
367.52	0.14304828
367.735	0.14394112
367.951	0.14240661
368.166	0.14192413
368.381	0.14455332
368.597	0.14289526
368.812	0.14286323
369.027	0.14291098
369.243	0.14491143
369.458	0.14868007
369.673	0.1506418
369.888	0.15109729
370.104	0.15175669
370.319	0.15229838
370.534	0.15224721
370.749	0.15167033
370.964	0.15190156
371.179	0.15186043
371.395	0.15199052
371.61	0.15290983
371.825	0.15245907
372.04	0.15472956
372.255	0.15437025
372.47	0.15392744
372.685	0.15390022
372.9	0.15357583
373.115	0.15346161
373.33	0.15465525
373.545	0.15501219
373.76	0.1566271
373.975	0.15611564
374.19	0.15520939
374.405	0.1566722
374.62	0.15840656
374.835	0.15953176
375.05	0.15989171
375.265	0.16044946
375.48	0.16276251
375.695	0.16701569
375.91	0.16650057
376.125	0.16681482
376.339	0.16674459
376.554	0.16715599
376.769	0.16790739
376.984	0.16737219
377.199	0.16744369
377.414	0.1680771
377.628	0.16936148
377.843	0.17072364
378.058	0.17114408
378.273	0.17257081
378.487	0.17308637
378.702	0.17320064
378.917	0.17366519
379.131	0.17288602
379.346	0.1722128
379.561	0.17217889
379.775	0.17166745
379.99	0.17077588
380.205	0.17099038
380.419	0.17049494
380.634	0.17003916
380.848	0.17231363
381.063	0.1727848
381.278	0.17417853
381.492	0.17492504
381.707	0.17541082
381.921	0.176987
382.136	0.17930049
382.35	0.17887577
382.565	0.17917347
382.779	0.17951855
382.994	0.18047879
383.208	0.18006575
383.422	0.181773
383.637	0.18129922
383.851	0.1822725
384.066	0.18411697
384.28	0.18489296
384.494	0.18560706
384.709	0.18703881
384.923	0.18668519
385.137	0.18632204
385.352	0.1859705
385.566	0.1864357
385.78	0.18694011
385.995	0.18742575
386.209	0.18716175
386.423	0.18841451
386.637	0.19003389
386.852	0.19069742
387.066	0.19095465
387.28	0.19061236
387.494	0.19165351
387.708	0.19282875
387.923	0.19308458
388.137	0.1939645
388.351	0.19486975
388.565	0.19565329
388.779	0.19604218
388.993	0.19726925
389.207	0.19805252
389.421	0.19887032
389.635	0.19845888
389.85	0.19854438
390.064	0.19833338
390.278	0.19930533
390.492	0.19959403
390.706	0.19988351
390.92	0.1995946
391.134	0.2004841
391.348	0.20236472
391.561	0.20348713
391.775	0.20350403
391.989	0.2032639
392.203	0.20387149
392.417	0.20469222
392.631	0.20594157
392.845	0.2052841
393.059	0.20587584
393.273	0.20609663
393.486	0.20635268
393.7	0.20547469
393.914	0.20654509
394.128	0.20645464
394.342	0.20615504
394.555	0.20524426
394.769	0.20561123
394.983	0.20663713
395.197	0.20791709
395.41	0.20753078
395.624	0.20788072
395.838	0.20866119
396.051	0.21054613
396.265	0.21085087
396.479	0.21082774
396.692	0.21126027
396.906	0.21154183
397.12	0.21207036
397.333	0.21293647
397.547	0.21321302
397.76	0.21392063
397.974	0.21427424
398.187	0.21522674
398.401	0.21602248
398.614	0.21651585
398.828	0.21699181
399.041	0.21663651
399.255	0.21747961
399.468	0.21757309
399.682	0.21723762
399.895	0.21741771
400.109	0.21745914
400.322	0.21692311
400.536	0.21643781
400.749	0.21642489
400.962	0.21673821
401.176	0.21716056
401.389	0.21732376
401.602	0.21635029
401.816	0.21750196
402.029	0.21849588
402.242	0.2187111
402.456	0.21893779
402.669	0.21838805
402.882	0.21753723
403.095	0.21876827
403.309	0.21824029
403.522	0.21839312
403.735	0.21781662
403.948	0.21781722
404.161	0.21907362
404.375	0.21973342
404.588	0.21963143
404.801	0.21986871
405.014	0.21969485
405.227	0.22072335
405.44	0.22137206
405.653	0.22134227
405.866	0.22128408
406.079	0.2213443
406.293	0.22164966
406.506	0.22194561
406.719	0.2216126
406.932	0.22133099
407.145	0.22056007
407.358	0.22154187
407.571	0.22129363
407.784	0.22140229
407.996	0.22161964
408.209	0.22115157
408.422	0.22074915
408.635	0.22065766
408.848	0.22031265
409.061	0.21990515
409.274	0.21955127
409.487	0.2187105
409.7	0.21883424
409.912	0.21893722
410.125	0.21945578
410.338	0.21884403
410.551	0.21884471
410.764	0.21866108
410.976	0.21881015
411.189	0.21881671
411.402	0.21822804
411.615	0.21814699
411.827	0.21812255
412.04	0.21814601
412.253	0.21733064
412.465	0.21690183
412.678	0.21621865
412.891	0.21666855
413.103	0.21588739
413.316	0.21543825
413.529	0.21562477
413.741	0.21635431
413.954	0.21647256
414.166	0.21660536
414.379	0.21602251
414.591	0.21620428
414.804	0.21587909
415.016	0.21529623
415.229	0.21440863
415.441	0.21390736
415.654	0.21385433
415.866	0.21380313
416.079	0.21348707
416.291	0.21322187
416.504	0.21331328
416.716	0.2134775
416.928	0.21352811
417.141	0.2127416
417.353	0.21229152
417.566	0.21143883
417.778	0.21120241
417.99	0.21004473
418.203	0.20920967
418.415	0.20835308
418.627	0.20801539
418.839	0.2073916
419.052	0.20747703
419.264	0.20727104
419.476	0.20718005
419.688	0.20708595
419.901	0.20718714
420.113	0.20665192
420.325	0.2061298
420.537	0.20530085
420.749	0.20498231
420.961	0.20445624
421.174	0.20383254
421.386	0.20264163
421.598	0.20227844
421.81	0.20172594
422.022	0.20118558
422.234	0.20032813
422.446	0.19981421
422.658	0.19906511
422.87	0.19904157
423.082	0.19844758
423.294	0.19804405
423.506	0.19757295
423.718	0.19704439
423.93	0.19653468
424.142	0.19603487
424.354	0.19527326
424.566	0.19474207
424.778	0.19421796
424.99	0.19351845
425.202	0.19282747
425.414	0.19215942
425.625	0.19187864
425.837	0.19099935
426.049	0.1904999
426.261	0.18959827
426.473	0.18888702
426.684	0.18825978
426.896	0.18779851
427.108	0.18686315
427.32	0.18633562
427.531	0.1853999
427.743	0.18499878
427.955	0.1845164
428.167	0.18366617
428.378	0.1827488
428.59	0.18217257
428.802	0.18163309
429.013	0.18102742
429.225	0.18030743
429.436	0.17961833
429.648	0.17905073
429.86	0.17846961
430.071	0.17769944
430.283	0.17691005
430.494	0.17605024
430.706	0.17524048
430.917	0.17435903
431.129	0.17370264
431.34	0.17297234
431.552	0.17225246
431.763	0.17143296
431.975	0.17092557
432.186	0.17004136
432.398	0.16931101
432.609	0.16836061
432.821	0.16761969
433.032	0.16683717
433.243	0.16609907
433.455	0.16525276
433.666	0.16457473
433.877	0.1640195
434.089	0.16304375
434.3	0.16226466
434.511	0.16132072
434.723	0.1604231
434.934	0.15978024
435.145	0.1590256
435.356	0.15821069
435.568	0.15778065
435.779	0.15712978
435.99	0.15623928
436.201	0.1556051
436.412	0.15476085
436.624	0.15416522
436.835	0.15351601
437.046	0.15274757
437.257	0.15188992
437.468	0.15139141
437.679	0.15073706
437.89	0.14992572
438.101	0.14917929
438.312	0.14835724
438.523	0.14758006
438.734	0.14677202
438.945	0.14597275
439.156	0.14495467
439.367	0.14416055
439.578	0.14332923
439.789	0.14236178
440	0.14162044
440.211	0.14072583
440.422	0.13992436
440.633	0.1392457
440.844	0.13827787
441.055	0.13742209
441.266	0.13689014
441.477	0.13593831
441.687	0.13528992
441.898	0.13455113
442.109	0.13372962
442.32	0.13299759
442.531	0.13223639
442.741	0.13104687
442.952	0.13025036
443.163	0.12939594
443.374	0.12849104
443.584	0.12758712
443.795	0.12687746
444.006	0.12600703
444.216	0.12527086
444.427	0.12435637
444.638	0.12336933
444.848	0.12259662
445.059	0.12173079
445.27	0.1206909
445.48	0.11958991
445.691	0.11878887
445.901	0.11800883
446.112	0.11729667
446.323	0.11609452
446.533	0.11533766
446.744	0.11448769
446.954	0.11388608
447.165	0.11297204
447.375	0.11211089
447.586	0.11122531
447.796	0.11054456
448.006	0.10972252
448.217	0.10893818
448.427	0.1081014
448.638	0.10728866
448.848	0.10653104
449.058	0.10570669
449.269	0.10505302
449.479	0.10420732
449.689	0.1035733
449.9	0.10282864
450.11	0.10189357
450.32	0.10122827
450.531	0.10039592
450.741	0.09949602
450.951	0.09878905
451.161	0.09786275
451.372	0.09707871
451.582	0.0966234
451.792	0.0957043
452.002	0.0948569
452.212	0.09407389
452.422	0.09326146
452.633	0.09245255
452.843	0.09166474
453.053	0.09084457
453.263	0.0900796
453.473	0.08942258
453.683	0.08895752
453.893	0.08825268
454.103	0.08776734
454.313	0.08701761
454.523	0.08623887
454.733	0.08566914
454.943	0.08495031
455.153	0.08430873
455.363	0.08357556
455.573	0.08275905
455.783	0.08213016
455.993	0.08150592
456.203	0.08093385
456.413	0.08040378
456.623	0.07963514
456.833	0.07900662
457.042	0.07833509
457.252	0.07776581
457.462	0.07706957
457.672	0.07638536
457.882	0.0758294
458.091	0.0751843
458.301	0.07452024
458.511	0.07398228
458.721	0.07329681
458.931	0.07279171
459.14	0.07225427
459.35	0.07168009
459.56	0.07113082
459.769	0.07079388
459.979	0.07018235
460.189	0.06973858
460.398	0.06918774
460.608	0.06859712
460.817	0.06792755
461.027	0.06736473
461.237	0.06665875
461.446	0.06621388
461.656	0.06577077
461.865	0.06517272
462.075	0.0646119
462.284	0.06416056
462.494	0.0636236
462.703	0.06325823
462.913	0.06262856
463.122	0.0620277
463.332	0.06167405
463.541	0.06122121
463.751	0.0607362
463.96	0.06033049
464.169	0.05963774
464.379	0.05931022
464.588	0.05884989
464.797	0.05829071
465.007	0.05794887
465.216	0.05748722
465.425	0.05698679
465.635	0.05660085
465.844	0.05618933
466.053	0.05588342
466.263	0.05548541
466.472	0.05487165
466.681	0.05456204
466.89	0.05410293
467.099	0.0539144
467.309	0.05341575
467.518	0.05284627
467.727	0.05240456
467.936	0.05205333
468.145	0.05158396
468.354	0.05134717
468.563	0.05086142
468.772	0.05046102
468.982	0.05013961
469.191	0.04971991
469.4	0.04939585
469.609	0.04909974
469.818	0.0485885
470.027	0.04821812
470.236	0.04796552
470.445	0.04753219
470.654	0.0472125
470.863	0.04695001
471.072	0.04652005
471.28	0.0462728
471.489	0.04595227
471.698	0.04562749
471.907	0.04545128
472.116	0.04512794
472.325	0.0447927
472.534	0.04451382
472.743	0.04422272
472.951	0.04386554
473.16	0.0435782
473.369	0.04325204
473.578	0.04304104
473.786	0.04278825
473.995	0.04253444
474.204	0.04228882
474.413	0.0420669
474.621	0.04183511
474.83	0.041579
475.039	0.04135988
475.247	0.04113157
475.456	0.04096169
475.665	0.04069026
475.873	0.04047861
476.082	0.04019947
476.291	0.0400776
476.499	0.03991447
476.708	0.0397091
476.916	0.03955685
477.125	0.03940986
477.333	0.03923887
477.542	0.0391411
477.75	0.03900657
477.959	0.03878886
478.167	0.03864605
478.376	0.03836656
478.584	0.03811345
478.793	0.03795043
479.001	0.03767463
479.209	0.03735819
479.418	0.0371411
479.626	0.03689187
479.834	0.03679988
480.043	0.03673648
480.251	0.03651256
480.459	0.03642634
480.668	0.03634796
480.876	0.03628558
481.084	0.03614952
481.293	0.0360402
481.501	0.0359075
481.709	0.03581794
481.917	0.03573071
482.125	0.03555467
482.334	0.0353846
482.542	0.03528895
482.75	0.03510676
482.958	0.03491986
483.166	0.03480203
483.374	0.03467585
483.583	0.03464741
483.791	0.03456707
483.999	0.03449926
484.207	0.03450706
484.415	0.03452469
484.623	0.03449497
484.831	0.03440678
485.039	0.03434283
485.247	0.03430672
485.455	0.03420625
485.663	0.03405255
485.871	0.03395145
486.079	0.03387505
486.287	0.03375046
486.495	0.03363375
486.702	0.03349091
486.91	0.03342651
487.118	0.03345468
487.326	0.03337367
487.534	0.03334455
487.742	0.03334535
487.95	0.03333282
488.157	0.03334924
488.365	0.03323732
488.573	0.03310237
488.781	0.03307965
488.988	0.0330401
489.196	0.03304699
489.404	0.03300103
489.612	0.0329973
489.819	0.03306619
490.027	0.033067
490.235	0.03311264
490.442	0.03306938
490.65	0.03300498
490.857	0.03297667
491.065	0.03298842
491.273	0.03299566
491.48	0.03302718
491.688	0.0330303
491.895	0.03301611
492.103	0.03309303
492.31	0.033158
492.518	0.0331717
492.725	0.03314313
492.933	0.0331687
493.14	0.03312969
493.348	0.03321605
493.555	0.03316237
493.763	0.03315703
493.97	0.03311745
494.177	0.03320883
494.385	0.03324585
494.592	0.03324572
494.8	0.03320831
495.007	0.03324496
495.214	0.03333214
495.422	0.03338512
495.629	0.03339553
495.836	0.03340398
496.043	0.03348994
496.251	0.03360124
496.458	0.03368979
496.665	0.03370275
496.872	0.03378107
497.08	0.03378656
497.287	0.03383974
497.494	0.03388268
497.701	0.03391726
497.908	0.03397464
498.115	0.03405011
498.322	0.03412386
498.53	0.03422568
498.737	0.03432952
498.944	0.03442424
499.151	0.03445301
499.358	0.03450992
499.565	0.03454604
499.772	0.0346037
499.979	0.03470978
500.186	0.03482324
500.393	0.03483735
500.6	0.03498392
500.807	0.03508184
501.014	0.03518839
501.221	0.03531339
501.427	0.03540915
501.634	0.0354795
501.841	0.03563014
502.048	0.03574414
502.255	0.03587392
502.462	0.03594645
502.669	0.03601941
502.875	0.03613104
503.082	0.03619662
503.289	0.03634445
503.496	0.03637333
503.702	0.03644165
503.909	0.03658771
504.116	0.0366766
504.323	0.03677729
504.529	0.03688032
504.736	0.03691934
504.943	0.03711043
505.149	0.0371843
505.356	0.03729961
505.563	0.03742645
505.769	0.03756869
505.976	0.03770226
506.182	0.03784308
506.389	0.03791614
506.595	0.03807172
506.802	0.03819224
507.008	0.03831987
507.215	0.03843188
507.421	0.0385246
507.628	0.03868012
507.834	0.03879551
508.041	0.03887719
508.247	0.03899647
508.454	0.0391286
508.66	0.03920485
508.866	0.03935192
509.073	0.03947913
509.279	0.03960916
509.486	0.0397841
509.692	0.03996013
509.898	0.04010515
510.105	0.04027378
510.311	0.04043345
510.517	0.04053462
510.723	0.04070253
510.93	0.04088986
511.136	0.04104668
511.342	0.04121231
511.548	0.04137774
511.754	0.04152141
511.961	0.04172365
512.167	0.04190423
512.373	0.04206104
512.579	0.04222504
512.785	0.04236872
512.991	0.04249936
513.197	0.04273017
513.404	0.04289676
513.61	0.04301413
513.816	0.04308839
514.022	0.04322895
514.228	0.04338245
514.434	0.04357638
514.64	0.04366466
514.846	0.04382619
515.052	0.04402966
515.258	0.04426173
515.464	0.04442211
515.669	0.04459548
515.875	0.04478035
516.081	0.04501964
516.287	0.04515446
516.493	0.04532075
516.699	0.04547641
516.905	0.0456214
517.111	0.04582777
517.316	0.04599633
517.522	0.04613577
517.728	0.04634293
517.934	0.04651872
518.139	0.04674595
518.345	0.04696739
518.551	0.04716775
518.757	0.04733441
518.962	0.04756917
519.168	0.04777336
519.374	0.04802833
519.579	0.0482364
519.785	0.04844171
519.991	0.04863817
520.196	0.04887291
520.402	0.04909456
520.607	0.04934116
520.813	0.04954334
521.018	0.04975919
521.224	0.04992702
521.429	0.05012973
521.635	0.05034494
521.84	0.05043639
522.046	0.0506049
522.251	0.05075362
522.457	0.05090009
522.662	0.05113325
522.868	0.0513413
523.073	0.05152573
523.279	0.05176288
523.484	0.05199715
523.689	0.0522228
523.895	0.05252627
524.1	0.05276839
524.305	0.05297692
524.511	0.05321427
524.716	0.05345742
524.921	0.05367077
525.126	0.05389793
525.332	0.05408919
525.537	0.05432084
525.742	0.05455643
525.947	0.05477285
526.153	0.05501359
526.358	0.05532085
526.563	0.0555721
526.768	0.05578743
526.973	0.05598128
527.178	0.05622295
527.383	0.05643499
527.588	0.05666123
527.794	0.05680172
527.999	0.05699524
528.204	0.05721176
528.409	0.05742536
528.614	0.05766661
528.819	0.05791124
529.024	0.0581387
529.229	0.05838597
529.434	0.05866027
529.639	0.05891485
529.843	0.05918012
530.048	0.05937915
530.253	0.05966244
530.458	0.05995819
530.663	0.06019898
530.868	0.06042276
531.073	0.06066964
531.278	0.06094332
531.482	0.0612322
531.687	0.0614847
531.892	0.06170871
532.097	0.06196299
532.302	0.06222164
532.506	0.06244465
532.711	0.06264415
532.916	0.0629364
533.12	0.06315187
533.325	0.0633727
533.53	0.063657
533.734	0.06394676
533.939	0.06423657
534.144	0.06456294
534.348	0.06476768
534.553	0.06505918
534.757	0.06535147
534.962	0.06560156
535.167	0.06583845
535.371	0.06605864
535.576	0.06630773
535.78	0.06661255
535.985	0.06681298
536.189	0.06708354
536.394	0.06731143
536.598	0.06757144
536.803	0.06786912
537.007	0.06809203
537.211	0.06832325
537.416	0.06859947
537.62	0.06883619
537.825	0.06908199
538.029	0.06939281
538.233	0.06969516
538.438	0.06997816
538.642	0.07026089
538.846	0.07059295
539.05	0.07085094
539.255	0.07113263
539.459	0.07135541
539.663	0.07160609
539.867	0.07189244
540.072	0.0721804
540.276	0.07240623
540.48	0.07267856
540.684	0.07296393
540.888	0.07330473
541.092	0.07360092
541.297	0.07390105
541.501	0.07415022
541.705	0.0744387
541.909	0.07475057
542.113	0.07501526
542.317	0.07528843
542.521	0.07556351
542.725	0.07577185
542.929	0.0760406
543.133	0.07636126
543.337	0.07664952
543.541	0.07696251
543.745	0.07723385
543.949	0.07755113
544.153	0.07786365
544.357	0.07817305
544.56	0.07843578
544.764	0.07870776
544.968	0.07897682
545.172	0.07920296
545.376	0.07943366
545.58	0.07975512
545.783	0.0800556
545.987	0.08036742
546.191	0.08068221
546.395	0.08102083
546.598	0.08134513
546.802	0.08163432
547.006	0.08195325
547.21	0.08220565
547.413	0.0824821
547.617	0.08274934
547.821	0.08299085
548.024	0.0833007
548.228	0.0835311
548.431	0.08375927
548.635	0.0840649
548.839	0.08432061
549.042	0.08459791
549.246	0.08486229
549.449	0.08512351
549.653	0.08544343
549.856	0.0857091
550.06	0.08600155
550.263	0.08632508
550.467	0.08659927
550.67	0.08694504
550.874	0.0872507
551.077	0.08758545
551.28	0.0879676
551.484	0.08827291
551.687	0.08854829
551.891	0.0889186
552.094	0.08916965
552.297	0.08946317
552.501	0.08973908
552.704	0.08998591
552.907	0.09022174
553.11	0.09053092
553.314	0.09080875
553.517	0.09109977
553.72	0.09141163
553.923	0.09168113
554.127	0.09193674
554.33	0.09223312
554.533	0.09247838
554.736	0.09269005
554.939	0.09301405
555.142	0.09325367
555.345	0.09358306
555.549	0.09387865
555.752	0.09420812
555.955	0.09452446
556.158	0.09483424
556.361	0.09513443
556.564	0.09543854
556.767	0.0957323
556.97	0.09603872
557.173	0.09629406
557.376	0.09663353
557.579	0.09693351
557.782	0.09719822
557.984	0.09748782
558.187	0.09777121
558.39	0.09804875
558.593	0.09835343
558.796	0.09858099
558.999	0.09887454
559.202	0.09916735
559.404	0.09948325
559.607	0.09975696
559.81	0.10011386
560.013	0.10041609
560.216	0.10073796
560.418	0.10103947
560.621	0.10137829
560.824	0.10163594
561.026	0.10193437
561.229	0.10216511
561.432	0.10246885
561.634	0.10273958
561.837	0.10303483
562.04	0.10327067
562.242	0.10361268
562.445	0.1038505
562.647	0.10413369
562.85	0.10435257
563.053	0.1046736
563.255	0.10493644
563.458	0.1052539
563.66	0.10549669
563.863	0.10588899
564.065	0.10618364
564.268	0.10649444
564.47	0.10676245
564.672	0.10700566
564.875	0.10721197
565.077	0.10745555
565.28	0.10769879
565.482	0.10796575
565.684	0.10823508
565.887	0.10843144
566.089	0.10875642
566.291	0.10904203
566.494	0.10934249
566.696	0.10961789
566.898	0.10992572
567.1	0.11020796
567.303	0.1105122
567.505	0.11075055
567.707	0.11099433
567.909	0.11123657
568.111	0.11147746
568.314	0.11177219
568.516	0.11207506
568.718	0.11234518
568.92	0.11265788
569.122	0.11296007
569.324	0.11325262
569.526	0.11347225
569.728	0.1137194
569.93	0.11392916
570.132	0.11420282
570.334	0.11447088
570.536	0.11474034
570.738	0.11498894
570.94	0.11527265
571.142	0.11549392
571.344	0.11574381
571.546	0.11598138
571.748	0.11621821
571.95	0.11643189
572.152	0.11669548
572.354	0.1169709
572.555	0.11723949
572.757	0.11750543
572.959	0.11777439
573.161	0.11802915
573.363	0.11824577
573.564	0.11852632
573.766	0.11872774
573.968	0.11900553
574.17	0.1192359
574.371	0.11946526
574.573	0.11968505
574.775	0.11996678
574.976	0.12016174
575.178	0.1204245
575.38	0.12061531
575.581	0.12088337
575.783	0.12113491
575.985	0.12137839
576.186	0.12159099
576.388	0.12185875
576.589	0.12210082
576.791	0.12235942
576.992	0.12258972
577.194	0.1227943
577.395	0.12297191
577.597	0.1232229
577.798	0.12340876
578	0.12361653
578.201	0.12385613
578.402	0.12407299
578.604	0.12430853
578.805	0.1246159
579.007	0.12486103
579.208	0.12512628
579.409	0.12529089
579.611	0.12546136
579.812	0.12568566
580.013	0.12589135
580.215	0.12600323
580.416	0.12617606
580.617	0.12635615
580.818	0.12662524
581.019	0.12683347
581.221	0.12702191
581.422	0.12723287
581.623	0.12751627
581.824	0.12769058
582.025	0.12784699
582.226	0.1280087
582.428	0.12825041
582.629	0.12842903
582.83	0.12861043
583.031	0.12877797
583.232	0.12906304
583.433	0.12934556
583.634	0.12955768
583.835	0.12968453
584.036	0.12988851
584.237	0.13006727
584.438	0.13021948
584.639	0.13033429
584.84	0.1304721
585.041	0.13065868
585.242	0.13090608
585.442	0.13106173
585.643	0.13134874
585.844	0.13156406
586.045	0.13179811
586.246	0.13195835
586.447	0.13212402
586.647	0.13227344
586.848	0.13243812
587.049	0.13250676
587.25	0.13267408
587.45	0.13279446
587.651	0.13292221
587.852	0.13308183
588.053	0.13324814
588.253	0.13343936
588.454	0.13361357
588.655	0.13375604
588.855	0.13392721
589.056	0.13412041
589.256	0.13424145
589.457	0.13434195
589.658	0.13447542
589.858	0.13461513
590.059	0.13477391
590.259	0.13494554
590.46	0.13507688
590.66	0.13530128
590.861	0.13549354
591.061	0.13560142
591.262	0.13580943
591.462	0.13593127
591.662	0.13603555
591.863	0.13618763
592.063	0.13626113
592.264	0.13641452
592.464	0.1365551
592.664	0.13663892
592.865	0.13682039
593.065	0.13691332
593.265	0.13705192
593.465	0.13713544
593.666	0.13718801
593.866	0.13729326
594.066	0.13739558
594.266	0.1374231
594.467	0.13753969
594.667	0.13758386
594.867	0.13776456
595.067	0.1378851
595.267	0.1379638
595.467	0.13808231
595.668	0.13823056
595.868	0.13833779
596.068	0.13847522
596.268	0.1384941
596.468	0.13858985
596.668	0.13868219
596.868	0.13870151
597.068	0.13875906
597.268	0.13883528
597.468	0.13887002
597.668	0.13899103
597.868	0.13904191
598.068	0.13913667
598.268	0.1392288
598.467	0.1393936
598.667	0.13942228
598.867	0.13947561
599.067	0.13958336
599.267	0.13964652
599.467	0.139689
599.667	0.1397116
599.866	0.13962332
600.066	0.13968894
600.266	0.13975043
600.466	0.13978363
600.665	0.13983779
600.865	0.13993515
601.065	0.14001693
601.264	0.14010942
601.464	0.14013894
601.664	0.14024777
601.863	0.14027187
602.063	0.14033831
602.263	0.14028478
602.462	0.14034599
602.662	0.14039342
602.861	0.14049759
603.061	0.14051118
603.26	0.14055201
603.46	0.14056289
603.659	0.1406679
603.859	0.14066893
604.058	0.14069255
604.258	0.14075276
604.457	0.14081926
604.657	0.14077421
604.856	0.14074759
605.056	0.14076336
605.255	0.14076703
605.454	0.14081336
605.654	0.14072325
605.853	0.14067185
606.052	0.14066513
606.252	0.14074798
606.451	0.14076793
606.65	0.1408272
606.849	0.14072321
607.049	0.14077154
607.248	0.14076218
607.447	0.14078247
607.646	0.14074864
607.845	0.1407093
608.045	0.14062064
608.244	0.14071484
608.443	0.14068734
608.642	0.14074292
608.841	0.14070247
609.04	0.14062917
609.239	0.14066166
609.438	0.14060112
609.637	0.14057215
609.836	0.1405294
610.035	0.14041561
610.234	0.14042116
610.433	0.14037884
610.632	0.14028731
610.831	0.14035007
611.03	0.14026355
611.229	0.14030928
611.428	0.14033017
611.627	0.14033232
611.826	0.14037706
612.025	0.14042194
612.224	0.14036511
612.422	0.14038094
612.621	0.14032679
612.82	0.14030154
613.019	0.14026501
613.218	0.14018922
613.416	0.14006155
613.615	0.14003224
613.814	0.13990458
614.012	0.13982808
614.211	0.13968833
614.41	0.13958618
614.608	0.13954568
614.807	0.13951326
615.006	0.13948872
615.204	0.13948896
615.403	0.13941791
615.602	0.13940795
615.8	0.13942252
615.999	0.1393146
616.197	0.13926083
616.396	0.13921537
616.594	0.13909343
616.793	0.13906375
616.991	0.13898785
617.19	0.13880222
617.388	0.13880837
617.586	0.1386784
617.785	0.13850059
617.983	0.13841127
618.182	0.13823999
618.38	0.13807615
618.578	0.13801845
618.777	0.1378973
618.975	0.13784635
619.173	0.13777192
619.372	0.1377147
619.57	0.13764512
619.768	0.13757902
619.966	0.13750808
620.165	0.13739735
620.363	0.13729428
620.561	0.13713413
620.759	0.13700323
620.957	0.13694494
621.155	0.13687343
621.354	0.13672898
621.552	0.13663367
621.75	0.13648536
621.948	0.13648248
622.146	0.13639791
622.344	0.13622817
622.542	0.13611468
622.74	0.13597715
622.938	0.13580133
623.136	0.13579843
623.334	0.13571093
623.532	0.13554252
623.73	0.13541576
623.928	0.1353137
624.126	0.13524997
624.324	0.13521297
624.522	0.13497096
624.719	0.13475723
624.917	0.13467839
625.115	0.13453545
625.313	0.13443511
625.511	0.13428028
625.708	0.1340719
625.906	0.1339505
626.104	0.13378326
626.302	0.13370335
626.499	0.13355982
626.697	0.13336288
626.895	0.1331856
627.093	0.13306049
627.29	0.13292643
627.488	0.13283189
627.686	0.13263991
627.883	0.13244986
628.081	0.13225567
628.278	0.13219112
628.476	0.13199337
628.673	0.13181375
628.871	0.13159631
629.068	0.13141609
629.266	0.13133948
629.463	0.13117726
629.661	0.1309687
629.858	0.13082977
630.056	0.13072231
630.253	0.13056652
630.451	0.13044242
630.648	0.13027278
630.845	0.13011725
631.043	0.13001969
631.24	0.12990057
631.438	0.12969831
631.635	0.1295883
631.832	0.12935866
632.029	0.12919158
632.227	0.12909219
632.424	0.12887512
632.621	0.12865325
632.818	0.12843933
633.016	0.12821889
633.213	0.1280363
633.41	0.12788553
633.607	0.12766944
633.804	0.12750341
634.001	0.12730663
634.199	0.12718495
634.396	0.12703754
634.593	0.12684045
634.79	0.12667751
634.987	0.12647844
635.184	0.12624403
635.381	0.12609994
635.578	0.12590558
635.775	0.12571256
635.972	0.12557707
636.169	0.12535117
636.366	0.12514612
636.563	0.12497187
636.76	0.12468545
636.957	0.12447351
637.153	0.1241742
637.35	0.12394544
637.547	0.12373176
637.744	0.12353938
637.941	0.12329316
638.138	0.12314912
638.334	0.12291177
638.531	0.12274578
638.728	0.12249949
638.925	0.12232553
639.121	0.12214044
639.318	0.12194016
639.515	0.12172283
639.711	0.12160701
639.908	0.12138997
640.105	0.12123306
640.301	0.12096193
640.498	0.1207021
640.695	0.12056502
640.891	0.12034552
641.088	0.12008843
641.284	0.11988439
641.481	0.11963356
641.677	0.11940812
641.874	0.11912655
642.07	0.11890286
642.267	0.11876326
642.463	0.11849459
642.66	0.11832739
642.856	0.11807145
643.053	0.11785173
643.249	0.11769526
643.445	0.11741847
643.642	0.11713745
643.838	0.11696663
644.034	0.11669214
644.231	0.11648812
644.427	0.11631075
644.623	0.11607604
644.82	0.11592064
645.016	0.115669
645.212	0.11537297
645.408	0.11518878
645.604	0.11504714
645.801	0.11483282
645.997	0.11469313
646.193	0.11440486
646.389	0.11423703
646.585	0.11410861
646.781	0.11390556
646.977	0.11362406
647.173	0.11332358
647.37	0.11296524
647.566	0.11273198
647.762	0.11243179
647.958	0.11211487
648.154	0.11177279
648.35	0.11150157
648.546	0.11125752
648.742	0.11108456
648.937	0.11079469
649.133	0.11059068
649.329	0.11043749
649.525	0.11027741
649.721	0.11006623
649.917	0.10987144
650.113	0.1096084
650.309	0.1094529
650.504	0.10918206
650.7	0.1088748
650.896	0.10864433
651.092	0.10837977
651.287	0.10814005
651.483	0.10793067
651.679	0.1076292
651.875	0.10741258
652.07	0.10710303
652.266	0.10679974
652.462	0.10659767
652.657	0.10635898
652.853	0.10606036
653.048	0.10579925
653.244	0.1054652
653.44	0.10520065
653.635	0.10489004
653.831	0.10463048
654.026	0.10433881
654.222	0.10410569
654.417	0.10385959
654.613	0.1036702
654.808	0.10344927
655.004	0.1032431
655.199	0.10295334
655.394	0.10267569
655.59	0.1024408
655.785	0.10220474
655.98	0.10196188
656.176	0.10170891
656.371	0.1015011
656.566	0.10125955
656.762	0.10098574
656.957	0.10073111
657.152	0.10045021
657.348	0.10019771
657.543	0.1000011
657.738	0.09980432
657.933	0.09952648
658.128	0.0992593
658.324	0.0989382
658.519	0.09869701
658.714	0.09838768
658.909	0.09800883
659.104	0.09766501
659.299	0.09736606
659.494	0.09713614
659.689	0.0968888
659.884	0.0966274
660.079	0.09636439
660.274	0.09613166
660.469	0.09585538
660.664	0.09567448
660.859	0.09540591
661.054	0.09512461
661.249	0.09484853
661.444	0.09458904
661.639	0.09434487
661.834	0.09403431
662.029	0.0936993
662.224	0.09344176
662.418	0.09323715
662.613	0.09297126
662.808	0.09271582
663.003	0.09245851
663.198	0.09223591
663.392	0.09197032
663.587	0.09177767
663.782	0.09147858
663.977	0.0912209
664.171	0.09096769
664.366	0.09074562
664.561	0.09051334
664.755	0.09029918
664.95	0.08999549
665.144	0.08972168
665.339	0.08946411
665.534	0.08921317
665.728	0.08893461
665.923	0.08864635
666.117	0.0883569
666.312	0.08799028
666.506	0.08777651
666.701	0.08750124
666.895	0.08721627
667.09	0.08696394
667.284	0.08671274
667.479	0.08645256
667.673	0.08623337
667.867	0.0859303
668.062	0.08566503
668.256	0.08537847
668.45	0.08511788
668.645	0.08484141
668.839	0.08457828
669.033	0.08428132
669.228	0.0840084
669.422	0.08370989
669.616	0.08343905
669.81	0.0831446
670.004	0.08285834
670.199	0.08256511
670.393	0.08231105
670.587	0.08205162
670.781	0.08177793
670.975	0.08150833
671.169	0.08121447
671.363	0.08093028
671.558	0.08069824
671.752	0.08054901
671.946	0.08030941
672.14	0.08012928
672.334	0.07987611
672.528	0.07972507
672.722	0.07948167
672.916	0.07919945
673.11	0.07882327
673.304	0.07855052
673.497	0.07818304
673.691	0.07787934
673.885	0.07755619
674.079	0.07730022
674.273	0.0770581
674.467	0.07681496
674.661	0.07655748
674.854	0.0763261
675.048	0.07612263
675.242	0.07584806
675.436	0.07557241
675.629	0.07528978
675.823	0.07497218
676.017	0.07468088
676.211	0.07436831
676.404	0.07407899
676.598	0.0737957
676.792	0.07353671
676.985	0.07328025
677.179	0.07309207
677.372	0.0728268
677.566	0.07263424
677.76	0.07238892
677.953	0.07211008
678.147	0.07188167
678.34	0.07164619
678.534	0.07132128
678.727	0.07110583
678.921	0.07090473
679.114	0.07062921
679.307	0.0704129
679.501	0.07017429
679.694	0.06992637
679.888	0.06971072
680.081	0.06942496
680.274	0.0691056
680.468	0.06887513
680.661	0.06862376
680.854	0.06837173
681.048	0.06811568
681.241	0.06785698
681.434	0.06757019
681.627	0.06733148
681.821	0.06705944
682.014	0.06680981
682.207	0.06650004
682.4	0.06620747
682.593	0.06598419
682.786	0.06577226
682.98	0.06553146
683.173	0.06529501
683.366	0.06496513
683.559	0.06466426
683.752	0.06442561
683.945	0.06417651
684.138	0.063945
684.331	0.06366713
684.524	0.0634639
684.717	0.06322993
684.91	0.06304821
685.103	0.06281043
685.296	0.06257346
685.489	0.06230234
685.682	0.06206799
685.874	0.06177636
686.067	0.06159713
686.26	0.06134357
686.453	0.06110137
686.646	0.0608451
686.839	0.06063221
687.031	0.06034301
687.224	0.06008553
687.417	0.05987701
687.61	0.05963551
687.802	0.05940484
687.995	0.05918276
688.188	0.05895458
688.38	0.05877997
688.573	0.05862764
688.766	0.05838186
688.958	0.05819489
689.151	0.05794494
689.343	0.05770007
689.536	0.05744916
689.729	0.05720329
689.921	0.05691565
690.114	0.05667205
690.306	0.05643102
690.499	0.05624139
690.691	0.05603906
690.884	0.05583577
691.076	0.05563992
691.268	0.05539279
691.461	0.05516778
691.653	0.05495968
691.846	0.0547707
692.038	0.05452449
692.23	0.05428709
692.423	0.05405735
692.615	0.05384567
692.807	0.05359856
692.999	0.0533661
693.192	0.05306374
693.384	0.05286015
693.576	0.05257657
693.768	0.05232037
693.961	0.05208142
694.153	0.05185921
694.345	0.05159255
694.537	0.0513832
694.729	0.05113727
694.921	0.05094458
695.113	0.05070291
695.305	0.05050266
695.498	0.05023625
695.69	0.05002471
695.882	0.04981009
696.074	0.04957757
696.266	0.04934869
696.458	0.04916961
696.65	0.04896712
696.842	0.04880491
697.033	0.04863095
697.225	0.04839972
697.417	0.04824914
697.609	0.04804395
697.801	0.04782485
697.993	0.04761695
698.185	0.04740917
698.376	0.04719368
698.568	0.04698589
698.76	0.04676793
698.952	0.04661862
699.144	0.04645619
699.335	0.04626995
699.527	0.04605695
699.719	0.04582622
699.91	0.04559579
700.102	0.04531191
700.294	0.04505132
700.485	0.04478155
700.677	0.04453232
700.869	0.04435473
701.06	0.0441568
701.252	0.04399985
701.443	0.04383745
701.635	0.04364366
701.826	0.04346487
702.018	0.04328159
702.209	0.04307608
702.401	0.04290294
702.592	0.04266988
702.784	0.04248588
702.975	0.04230868
703.166	0.04217056
703.358	0.0419343
703.549	0.04168258
703.741	0.04149965
703.932	0.04137328
704.123	0.04115175
704.315	0.04093713
704.506	0.0406914
704.697	0.04050364
704.888	0.04032108
705.08	0.0400681
705.271	0.03981761
705.462	0.03963104
705.653	0.03944812
705.844	0.03925022
706.035	0.03908079
706.227	0.03886982
706.418	0.03869497
706.609	0.03850149
706.8	0.03831987
706.991	0.03814179
707.182	0.03791729
707.373	0.03765639
707.564	0.03750769
707.755	0.03732078
707.946	0.03720134
708.137	0.03703069
708.328	0.03683715
708.519	0.03669243
708.71	0.03659599
708.901	0.03638294
709.092	0.036165
709.283	0.03592398
709.473	0.03575073
709.664	0.0355375
709.855	0.03534667
710.046	0.03516953
710.237	0.03503154
710.427	0.03493923
710.618	0.0347897
710.809	0.03461274
711	0.03449304
711.19	0.03437405
711.381	0.03420814
711.572	0.0340418
711.762	0.03386108
711.953	0.03367769
712.144	0.03353588
712.334	0.03336307
712.525	0.0332075
712.715	0.03304362
712.906	0.0329039
713.097	0.03271051
713.287	0.03253617
713.478	0.03236657
713.668	0.03223441
713.859	0.03200766
714.049	0.03184326
714.239	0.03166007
714.43	0.0315008
714.62	0.03139669
714.811	0.03119298
715.001	0.03097066
715.191	0.03083964
715.382	0.03065118
715.572	0.03044349
715.762	0.03029438
715.953	0.03011113
716.143	0.02996053
716.333	0.02984901
716.523	0.02970126
716.714	0.02958025
716.904	0.02947021
717.094	0.02932273
717.284	0.02916947
717.474	0.02902375
717.664	0.0289081
717.855	0.02873295
718.045	0.0285459
718.235	0.02839607
718.425	0.02826151
718.615	0.02808495
718.805	0.02792491
718.995	0.02773518
719.185	0.02764334
719.375	0.02753303
719.565	0.02744318
719.755	0.027287
719.945	0.02716369
720.135	0.02700767
720.325	0.02684181
720.515	0.02672059
720.704	0.02661592
720.894	0.02642974
721.084	0.02627966
721.274	0.02613818
721.464	0.02595916
721.654	0.02580116
721.843	0.02558793
722.033	0.02539169
722.223	0.02525087
722.413	0.02518157
722.602	0.02508657
722.792	0.02504127
722.982	0.02496783
723.171	0.02484673
723.361	0.02474149
723.55	0.02469606
723.74	0.02455
723.93	0.0244135
724.119	0.02431341
724.309	0.02422358
724.498	0.02412753
724.688	0.02401981
724.877	0.02385686
725.067	0.02374163
725.256	0.02363056
725.446	0.02350572
725.635	0.0233365
725.825	0.02322851
726.014	0.0231257
726.203	0.02301556
726.393	0.02287044
726.582	0.02272524
726.771	0.02257942
726.961	0.02248856
727.15	0.02237431
727.339	0.02223236
727.529	0.02206012
727.718	0.02191355
727.907	0.02179989
728.096	0.0216935
728.286	0.02158629
728.475	0.02145868
728.664	0.02128208
728.853	0.02118415
729.042	0.02109506
729.231	0.0209634
729.42	0.02083537
729.609	0.02070165
729.799	0.02052927
729.988	0.02046487
730.177	0.02032172
730.366	0.02017011
730.555	0.02005017
730.744	0.01985982
730.933	0.01967262
731.122	0.01948797
731.31	0.01932352
731.499	0.01915178
731.688	0.01895883
731.877	0.01881953
732.066	0.01876958
732.255	0.01866893
732.444	0.01868097
732.632	0.01861548
732.821	0.01857886
733.01	0.01856124
733.199	0.01850112
733.388	0.01839542
733.576	0.01828989
733.765	0.01818602
733.954	0.01806029
734.142	0.01791347
734.331	0.01780903
734.52	0.01766243
734.708	0.01756865
734.897	0.01747382
735.086	0.0173452
735.274	0.01730906
735.463	0.01727688
735.651	0.01722556
735.84	0.01713036
736.028	0.01701884
736.217	0.01693088
736.405	0.01680103
736.594	0.0166369
736.782	0.01650326
736.971	0.01637761
737.159	0.01631537
737.347	0.01624475
737.536	0.01617982
737.724	0.016115
737.912	0.01604503
738.101	0.01600818
738.289	0.01586821
738.477	0.01573921
738.666	0.01560137
738.854	0.01547873
739.042	0.01539038
739.23	0.01527224
739.418	0.01509914
739.607	0.01502967
739.795	0.01491764
739.983	0.01479845
740.171	0.01468584
740.359	0.01458268
740.547	0.0144934
740.735	0.01445121
740.923	0.01441057
741.112	0.01442778
741.3	0.01440249
741.488	0.01434496
741.676	0.01424498
741.864	0.01415689
742.052	0.01406568
742.239	0.01396709
742.427	0.0138217
742.615	0.01372117
742.803	0.01360483
742.991	0.01350587
743.179	0.01343798
743.367	0.0133526
743.555	0.01330615
743.742	0.0132731
743.93	0.0132042
744.118	0.01316257
744.306	0.01316818
744.494	0.01313005
744.681	0.01301831
744.869	0.01285121
745.057	0.01275426
745.244	0.01263264
745.432	0.01253292
745.62	0.01239862
745.807	0.01225665
745.995	0.01222758
746.182	0.01217455
746.37	0.01207742
746.558	0.01203608
746.745	0.01198531
746.933	0.01191353
747.12	0.01186542
747.308	0.01181055
747.495	0.01176205
747.683	0.01170548
747.87	0.01167517
748.057	0.01163383
748.245	0.01160634
748.432	0.01154075
748.62	0.01143785
748.807	0.01133391
748.994	0.01122625
749.182	0.01111213
749.369	0.01100844
749.556	0.01091691
749.743	0.01082488
749.931	0.01074072
750.118	0.01066996
750.305	0.01062657
750.492	0.01055329
750.68	0.01047474
750.867	0.01040657
751.054	0.01038877
751.241	0.01032061
751.428	0.01024866
751.615	0.01014316
751.802	0.01008068
751.989	0.01007749
752.176	0.01007207
752.363	0.01005661
752.55	0.01005641
752.737	0.01005856
752.924	0.01012053
753.111	0.01011458
753.298	0.01005192
753.485	0.00996563
753.672	0.0098624
753.859	0.00979348
754.046	0.00971725
754.233	0.009565
754.42	0.00944343
754.606	0.00935238
754.793	0.00928198
754.98	0.00916764
755.167	0.00909195
755.353	0.00902901
755.54	0.00899245
755.727	0.00894499
755.914	0.00885889
756.1	0.00880124
756.287	0.00875635
756.474	0.00863993
756.66	0.00857032
756.847	0.00847895
757.033	0.00842401
757.22	0.00836643
757.407	0.00825887
757.593	0.00821975
757.78	0.00820666
757.966	0.00810379
758.153	0.00806451
758.339	0.00798636
758.526	0.00798073
758.712	0.00795369
758.898	0.00792521
759.085	0.00788036
759.271	0.00786165
759.458	0.0078527
759.644	0.00786213
759.83	0.00781029
760.017	0.00775043
760.203	0.00769491
760.389	0.00763631
760.576	0.00757089
760.762	0.0075483
760.948	0.00746355
761.134	0.00740353
761.32	0.00737546
761.507	0.00733656
761.693	0.00736211
761.879	0.00731642
762.065	0.00720242
762.251	0.00713649
762.437	0.00706021
762.623	0.00705496
762.809	0.00700086
762.995	0.00690432
763.181	0.00687772
763.367	0.00688
763.553	0.00686605
763.739	0.00683026
763.925	0.00674085
764.111	0.00667441
764.297	0.00663678
764.483	0.00657879
764.669	0.00649381
764.855	0.00643478
765.041	0.00641239
765.227	0.00639293
765.412	0.00639108
765.598	0.00635023
765.784	0.00631754
765.97	0.00626885
766.156	0.00622703
766.341	0.00613723
766.527	0.00608436
766.713	0.00599892
766.898	0.00592516
767.084	0.0058729
767.27	0.00580533
767.455	0.00578637
767.641	0.00576348
767.827	0.00568999
768.012	0.00564415
768.198	0.00566851
768.383	0.00568518
768.569	0.00573749
768.754	0.00573538
768.94	0.00577254
769.125	0.00577877
769.311	0.00579425
769.496	0.00571867
769.682	0.00563335
769.867	0.00555992
770.052	0.00553834
770.238	0.0054642
770.423	0.00541746
770.608	0.0053491
770.794	0.00528759
770.979	0.00528945
771.164	0.00529202
771.35	0.00519741
771.535	0.0051685
771.72	0.005132
771.905	0.00508549
772.09	0.00506154
772.276	0.00502092
772.461	0.00498265
772.646	0.00494852
772.831	0.00493947
773.016	0.00491555
773.201	0.00496569
773.386	0.00493788
773.571	0.0048757
773.756	0.00480211
773.941	0.00470559
774.126	0.00460312
774.311	0.0045381
774.496	0.00437273
774.681	0.00431906
774.866	0.00431274
775.051	0.00425723
775.236	0.00430867
775.421	0.00431567
775.606	0.00430601
775.791	0.00436294
775.976	0.00434836
776.16	0.0043023
776.345	0.00431618
776.53	0.0043006
776.715	0.00424766
776.899	0.00421857
777.084	0.00416387
777.269	0.0041957
777.454	0.00428235
777.638	0.00423273
777.823	0.00418616
778.008	0.00412013
778.192	0.00410442
778.377	0.00408683
778.561	0.00405009
778.746	0.0039993
778.931	0.00403062
779.115	0.00400303
779.3	0.00400014
779.484	0.00396704
779.669	0.00391042
779.853	0.00385279
780.037	0.00375614
780.222	0.00367903
780.406	0.00363945
780.591	0.00368081
780.775	0.00364369
780.959	0.00369681
781.144	0.00368914
781.328	0.00366678
781.512	0.00364184
781.697	0.00361516
781.881	0.00353557
782.065	0.00348221
782.249	0.00335359
782.434	0.00328674
782.618	0.00330608
782.802	0.0033048
782.986	0.00328419
783.17	0.00326053
783.354	0.00332341
783.539	0.00335996
783.723	0.00334903
783.907	0.0032363
784.091	0.00313633
784.275	0.00310477
784.459	0.00306449
784.643	0.0029816
784.827	0.00294391
785.011	0.00294746
785.195	0.00296457
785.379	0.00300059
785.563	0.00301587
785.747	0.00303457
785.93	0.00302286
786.114	0.0030093
786.298	0.00298735
786.482	0.00294987
786.666	0.002978
786.85	0.0030005
787.033	0.00302905
787.217	0.00303211
787.401	0.00310027
787.585	0.00313582
787.768	0.00320045
787.952	0.0031756
788.136	0.00317274
788.319	0.00314211
788.503	0.00309673
788.687	0.00298765
788.87	0.00288864
789.054	0.00281403
789.237	0.00274181
789.421	0.00266893
789.605	0.0026078
789.788	0.00259749
789.972	0.00261723
790.155	0.00257568
790.338	0.00255668
790.522	0.00251659
790.705	0.00246404
790.889	0.00241584
791.072	0.00237062
791.256	0.00228813
791.439	0.00227452
791.622	0.00222176
791.806	0.00223685
791.989	0.0022477
792.172	0.0023248
792.355	0.00233359
792.539	0.00236619
792.722	0.00238943
792.905	0.00239641
793.088	0.00234303
793.271	0.0023589
793.455	0.00232986
793.638	0.00231804
793.821	0.00227352
794.004	0.0022339
794.187	0.00221869
794.37	0.00221138
794.553	0.00218468
794.736	0.00217781
794.919	0.00220873
795.102	0.00228679
795.285	0.00235373
795.468	0.002342
795.651	0.00236802
795.834	0.00234622
796.017	0.00226029
796.2	0.00223355
796.383	0.0021835
796.566	0.00212537
796.749	0.00217347
796.931	0.00217822
797.114	0.00212129
797.297	0.00212423
797.48	0.00206439
797.663	0.00206087
797.845	0.00199891
798.028	0.00194974
798.211	0.00189802
798.393	0.00189381
798.576	0.00187278
798.759	0.00189831
798.941	0.00186824
799.124	0.00186069
799.307	0.00181331
799.489	0.00173317
799.672	0.00176182
799.854	0.00177835
800.037	0.00165842
800.219	0.00159974
800.402	0.00164292
800.584	0.00166499
800.767	0.00169077
800.949	0.00168
801.132	0.00165352
801.314	0.00172665
801.496	0.00174289
801.679	0.00172457
801.861	0.00169173
802.043	0.001719
802.226	0.00168645
802.408	0.00168627
802.59	0.00168428
802.772	0.00169159
802.955	0.00167731
803.137	0.00166017
803.319	0.00165649
803.501	0.00161369
803.684	0.00158215
803.866	0.00157798
804.048	0.00151345
804.23	0.00155031
804.412	0.00153505
804.594	0.00150059
804.776	0.0015301
804.958	0.00156344
805.14	0.00152022
805.322	0.00157352
805.504	0.00147185
805.686	0.00152499
805.868	0.0015646
806.05	0.00152925
806.232	0.00147352
806.414	0.00147946
806.596	0.00142613
806.778	0.00146949
806.96	0.00148596
807.141	0.00142352
807.323	0.00139969
807.505	0.00133271
807.687	0.00126892
807.869	0.00125731
808.05	0.00125041
808.232	0.00116038
808.414	0.00119766
808.595	0.00116145
808.777	0.00122914
808.959	0.00126436
809.14	0.0012833
809.322	0.00124373
809.504	0.00128378
809.685	0.00122186
809.867	0.00127535
810.048	0.00130409
810.23	0.00131932
810.411	0.00125608
810.593	0.00124985
810.774	0.00115923
810.956	0.00120075
811.137	0.00122125
811.319	0.00118835
811.5	0.00125239
811.681	0.00132845
811.863	0.00134509
812.044	0.00136814
812.225	0.00135771
812.407	0.00127064
812.588	0.00123991
812.769	0.00114597
812.951	0.00106299
813.132	0.00105557
813.313	0.00105638
813.494	0.00112088
813.675	0.00118576
813.857	0.00120355
814.038	0.00120334
814.219	0.00122294
814.4	0.00115562
814.581	0.00111975
814.762	0.00102207
814.943	0.00097554
815.124	0.00093565
815.305	0.00091824
815.486	0.00087197
815.667	0.0008583
815.848	0.000923
816.029	0.00090417
816.21	0.00086928
816.391	0.00086573
816.572	0.00087058
816.753	0.00087919
816.934	0.00093678
817.115	0.00090059
817.295	0.00090557
817.476	0.00096202
817.657	0.00098926
817.838	0.00099289
818.019	0.00111616
818.199	0.00112331
818.38	0.00116476
818.561	0.00117355
818.741	0.00111984
818.922	0.00106621
819.103	0.00106013
819.283	0.00098187
819.464	0.00093547
819.645	0.0009099
819.825	0.00088707
820.006	0.00087391
820.186	0.00084998
820.367	0.00078516
820.547	0.00071621
820.728	0.0007196
820.908	0.00068635
821.089	0.00067917
821.269	0.00075525
821.45	0.00080663
821.63	0.00087902
821.81	0.00090108
821.991	0.00092168
822.171	0.00098729
822.351	0.00099905
822.532	0.00093495
822.712	0.0009333
822.892	0.00094079
823.072	0.00097682
823.253	0.00099548
823.433	0.0009242
823.613	0.00096462
823.793	0.00105924
823.973	0.00106614
824.154	0.00102329
824.334	0.00097343
824.514	0.00093564
824.694	0.00090255
824.874	0.00091026
825.054	0.0008416
825.234	0.0008983
825.414	0.00095224
825.594	0.00099979
825.774	0.00100572
825.954	0.00098307
826.134	0.00086382
826.314	0.00085764
826.494	0.00077163
826.674	0.00073123
826.854	0.00070204
827.033	0.00071041
827.213	0.00069525
827.393	0.00070394
827.573	0.0007215
827.753	0.00070541
827.932	0.00061768
828.112	0.00058113
828.292	0.000533
828.472	0.00053821
828.651	0.00053738
828.831	0.00038621
829.011	0.00027966
829.19	0.00032956
829.37	0.00027699
829.549	0.00025798
829.729	0.00031812
829.909	0.00027118
830.088	0.00032366
830.268	0.00041373
830.447	0.00040485
830.627	0.00043091
830.806	0.000393
830.986	0.00028128
831.165	0.00032728
831.344	0.00034417
831.524	0.00032646
831.703	0.00035298
831.883	0.00040593
832.062	0.0005058
832.241	0.00062399
832.421	0.00070354
832.6	0.00073118
832.779	0.00075126
832.958	0.00070727
833.138	0.00068049
833.317	0.00053331
833.496	0.00040319
833.675	0.00031754
833.854	0.00030663
834.034	0.00033059
834.213	0.00028622
834.392	0.00027816
834.571	0.00027897
834.75	0.00030421
834.929	0.00028694
835.108	0.00024602
835.287	0.0001695
835.466	0.00018093
835.645	0.00012365
835.824	0.00018583
836.003	0.00022131
836.182	0.00026815
836.361	0.00028801
836.54	0.00035109
836.719	0.0004169
836.897	0.00044869
837.076	0.00050821
837.255	0.00049614
837.434	0.0004771
837.613	0.00041806
837.791	0.00036294
837.97	0.00030857
838.149	0.00031429
838.328	0.00030219
838.506	0.00028647
838.685	0.00020954
838.864	0.00026742
839.042	0.0002492
839.221	0.00022922
839.4	0.00023173
839.578	0.00017869
839.757	0.00014822
839.935	0.00021365
840.114	0.00015068
840.292	0.00023106
840.471	0.00022664
840.649	0.00021337
840.828	0.00026258
841.006	0.00033055
841.185	0.00029858
841.363	0.00035697
841.541	0.00033869
841.72	0.00040503
841.898	0.0004793
842.076	0.00042343
842.255	0.00040653
842.433	0.00037248
842.611	0.00037638
842.789	0.00032638
842.968	0.00024653
843.146	0.00015713
843.324	0.00011393
843.502	0.00013926
843.68	0.00016956
843.859	0.00016394
844.037	0.00018433
844.215	0.00022583
844.393	0.00029546
844.571	0.0003642
844.749	0.000293
844.927	0.00021457
845.105	0.00021625
845.283	0.00019059
845.461	0.00024589
845.639	0.00019979
845.817	0.00016281
845.995	0.00018721
846.173	0.00036038
846.351	0.00041292
846.529	0.00049693
846.706	0.00052264
846.884	0.0005457
847.062	0.0005027
847.24	0.00055273
847.418	0.00049425
847.595	0.0004093
847.773	0.00034131
847.951	0.00022915
848.129	0.00010172
848.306	0.0001378
848.484	0.00011389
848.662	0.00012356
848.839	0.00010555
849.017	0.00010878
849.194	0.00009694
849.372	0.00016663
849.549	0.00018801
849.727	0.00021129
849.905	0.00022938
850.082	0.00031268
850.26	0.00032221
850.437	0.00034359
850.614	0.00037837
850.792	0.0004123
850.969	0.00046087
851.147	0.00046957
851.324	0.00049788
851.501	0.00051047
851.679	0.0005364
851.856	0.00054665
852.033	0.00041877
852.211	0.00034131
852.388	0.00028339
852.565	0.00012617
852.742	0.00004618
852.92	0.00007698
853.097	-0.00005318
853.274	-0.00005191
853.451	-0.00012854
853.628	-0.00002208
853.805	0.00007106
853.982	0.0001459
854.159	0.00017432
854.336	0.00032554
854.514	0.0003845
854.691	0.00040681
854.868	0.00032043
855.045	0.00040525
855.221	0.00039816
855.398	0.00038026
855.575	0.00031633
855.752	0.00035049
855.929	0.00036725
856.106	0.00036331
856.283	0.00031853
856.46	0.00026442
856.637	0.00022064
856.813	0.00020258
856.99	0.00016853
857.167	0.00017444
857.344	0.00012991
857.52	0.0000349
857.697	0.00015259
857.874	0.00013324
858.05	0.00014206
858.227	0.00008966
858.404	0.00012165
858.58	0.00016051
858.757	0.00020925
858.933	0.00018181
859.11	0.00012829
859.287	0.0001278
859.463	0.00018769
859.64	0.00014927
859.816	0.00007382
859.993	0.00005087
860.169	-0.00001468
860.345	0.00000621
860.522	-0.00001085
860.698	-0.00008183
860.875	-0.00010653
861.051	0.00001409
861.227	0.00008476
861.404	0.00007844
861.58	0.00016562
861.756	0.00022934
861.932	0.00032845
862.109	0.00044113
862.285	0.00032397
862.461	0.00029594
862.637	0.00033018
862.813	0.00043033
862.99	0.00034418
863.166	0.00027538
863.342	0.00021445
863.518	0.000331
863.694	0.00033286
863.87	0.00047027
864.046	0.00033219
864.222	0.00052554
864.398	0.0007174
864.574	0.00076986
864.75	0.00077992
864.926	0.00082777
865.102	0.00063993
865.278	0.00069025
865.454	0.00066854
865.63	0.00050795
865.805	0.0005237
865.981	0.00045553
866.157	0.0003527
866.333	0.00038695
866.509	0.00031223
866.684	0.00025605
866.86	0.00024833
867.036	0.0001897
867.212	0.00019024
867.387	0.00017719
867.563	0.00014236
867.739	0.00013809
867.914	0.00008911
868.09	0.00016972
868.265	0.00023931
868.441	0.00031394
868.617	0.00045696
868.792	0.00049469
868.968	0.00051473
869.143	0.00054988
869.319	0.00049901
869.494	0.00049291
869.67	0.00043869
869.845	0.0002836
870.02	0.00032281
870.196	0.00026833
870.371	0.00020545
870.546	0.00023718
870.722	0.00021422
870.897	0.00027982
871.072	0.000382
871.248	0.00030883
871.423	0.00035832
871.598	0.00043007
871.773	0.0004487
871.949	0.00042878
872.124	0.00033296
872.299	0.00026266
872.474	0.00028715
872.649	0.00027336
872.824	0.00023118
872.999	0.0001926
873.174	0.00020104
873.349	0.00028225
873.524	0.00034485
873.699	0.00037415
873.874	0.00038597
874.049	0.00040032
874.224	0.0003966
874.399	0.00032867
874.574	0.00024917
874.749	0.00023775
874.924	0.00035419
875.099	0.0004282
875.274	0.00046616
875.449	0.0005015
875.623	0.0005598
875.798	0.00055289
875.973	0.00054692
876.148	0.00041927
876.322	0.00041829
876.497	0.00042695
876.672	0.00042782
876.846	0.00038659
877.021	0.00046171
877.196	0.00043791
877.37	0.00044154
877.545	0.00034534
877.72	0.00030276
877.894	0.00027025
878.069	0.0002717
878.243	0.00023213
878.418	0.00022824
878.592	0.0001961
878.767	0.00025421
878.941	0.00033047
879.116	0.00038752
879.29	0.00044347
879.464	0.0004476
879.639	0.00045057
879.813	0.00043862
879.987	0.00045726
880.162	0.00033606
880.336	0.00023777
880.51	0.00017742
880.685	0.00013538
880.859	0.00011347
881.033	0.00017854
881.207	0.00013242
881.381	0.00014823
881.556	0.00013771
881.73	0.00019333
881.904	0.00014892
882.078	0.00024495
882.252	0.0002048
882.426	0.0002024
882.6	0.00015772
882.774	0.00008124
882.948	0.00010775
883.122	0.00020634
883.296	0.00014981
883.47	0.00014316
883.644	0.00012355
883.818	0.00023831
883.992	0.00040778
884.166	0.0003199
884.34	0.0003129
884.514	0.00033099
884.687	0.0003504
884.861	0.0003399
885.035	0.00037635
885.209	0.00037086
885.382	0.00043245
885.556	0.0003908
885.73	0.00031881
885.904	0.00028322
886.077	0.00022624
886.251	0.00013184
886.425	0.00008211
886.598	0.00012501
886.772	0.00022944
886.945	0.0002786
887.119	0.00036854
887.292	0.00043806
887.466	0.00046352
887.64	0.00052281
887.813	0.00048209
887.986	0.00051973
888.16	0.00051726
888.333	0.00053078
888.507	0.00051584
888.68	0.00043629
888.854	0.00040673
889.027	0.00037208
889.2	0.00028239
889.374	0.00027814
889.547	0.0002961
889.72	0.0004396
889.893	0.00057464
890.067	0.00056659
890.24	0.00061149
890.413	0.00058438
890.586	0.0006172
890.759	0.00057788
890.933	0.00045785
891.106	0.00035336
891.279	0.00030428
891.452	0.00021659
891.625	0.00020951
891.798	0.00016382
891.971	0.0001757
892.144	0.00019592
892.317	0.00022546
892.49	0.00038315
892.663	0.00047538
892.836	0.00044146
893.009	0.0004549
893.182	0.00036673
893.355	0.00035786
893.527	0.00033076
893.7	0.00008813
893.873	0.00001332
894.046	0.00001785
894.219	-0.00006527
894.391	-0.00009768
894.564	-0.00012381
894.737	-0.00015464
894.91	-0.00017665
895.082	-0.00023554
895.255	-0.00027277
895.428	-0.00019521
895.6	-0.00001805
895.773	-0.000044
895.945	-0.00000081
896.118	0.00011415
896.291	0.00025812
896.463	0.00034924
896.636	0.00037383
896.808	0.00022782
896.981	0.00023854
897.153	0.00024207
897.326	0.00039124
897.498	0.00032959
897.67	0.00035233
897.843	0.00036372
898.015	0.00046597
898.187	0.00054324
898.36	0.00065121
898.532	0.00056395
898.704	0.00067834
898.877	0.00075064
899.049	0.00078132
899.221	0.00076011
899.393	0.00069509
899.566	0.00053573
899.738	0.00054466
899.91	0.00045847
900.082	0.00033616
900.254	0.00023477
900.426	0.00022507
900.598	0.0002362
900.77	0.00031067
900.942	0.00039
901.114	0.00047143
901.286	0.00052479
901.458	0.00051574
901.63	0.00037886
901.802	0.00037257
901.974	0.00025005
902.146	0.00012106
902.318	0.00004278
902.49	-0.00001672
902.662	0.00009479
902.834	0.00016146
903.005	0.00016166
903.177	0.00028614
903.349	0.00029121
903.521	0.00031472
903.693	0.00042126
903.864	0.00032387
904.036	0.0003576
904.208	0.00033867
904.379	0.00023513
904.551	0.00028593
904.723	0.00022979
904.894	0.00012474
905.066	0.00019382
905.237	0.00020043
905.409	0.00025603
905.58	0.00024844
905.752	0.00025562
905.923	0.00030508
906.095	0.0003023
906.266	0.00033426
906.438	0.00037326
906.609	0.00030277
906.78	0.00041786
906.952	0.00035273
907.123	0.00033166
907.295	0.0003402
907.466	0.00018779
907.637	0.00015312
907.808	0.00018469
907.98	0.00016912
908.151	0.00020777
908.322	0.00020071
908.493	0.00031977
908.665	0.00041128
908.836	0.00040342
909.007	0.00041556
909.178	0.00050034
909.349	0.00049948
909.52	0.00052285
909.691	0.00036345
909.862	0.00026234
910.033	0.00029482
910.204	0.00027514
910.375	0.00010776
910.546	0.00005555
910.717	0.00011309
910.888	0.00016831
911.059	0.00028912
911.23	0.00031101
911.401	0.00036862
911.572	0.00047616
911.742	0.00042005
911.913	0.00027366
912.084	0.00024671
912.255	0.00019946
912.426	0.00016426
912.596	0.00015962
912.767	0.00018447
912.938	0.00025118
913.108	0.00039868
913.279	0.00040219
913.45	0.00046796
913.62	0.00050257
913.791	0.00048609
913.962	0.00051363
914.132	0.00056813
914.303	0.00054774
914.473	0.0006132
914.644	0.00065159
914.814	0.00065758
914.985	0.00066449
915.155	0.00049039
915.326	0.00033252
915.496	0.00024504
915.666	0.00018383
915.837	0.00001953
916.007	-0.00004698
916.177	-0.00014536
916.348	-0.00014196
916.518	-0.00000674
916.688	-0.00005545
916.858	-0.00004117
917.029	-0.00006276
917.199	-0.00004629
917.369	0.00003879
917.539	0.000236
917.709	0.00031177
917.88	0.0004995
918.05	0.00067391
918.22	0.0007807
918.39	0.00086659
918.56	0.000987
918.73	0.00090028
918.9	0.000821
919.07	0.00069065
919.24	0.00058477
919.41	0.00061982
919.58	0.00057651
919.75	0.00046982
919.92	0.00050298
920.09	0.00047117
920.26	0.00040082
920.429	0.00028347
920.599	0.0002622
920.769	0.00024822
920.939	0.00038493
921.109	0.00042245
921.278	0.00049681
921.448	0.00069171
921.618	0.00080664
921.787	0.00087368
921.957	0.00090849
922.127	0.00087687
922.296	0.00074261
922.466	0.0007488
922.636	0.0007102
922.805	0.00070435
922.975	0.00057662
923.144	0.0003986
923.314	0.00032845
923.483	0.00035558
923.653	0.00033217
923.822	0.00034795
923.992	0.00022841
924.161	0.00025332
924.331	0.00029482
924.5	0.00013174
924.669	0.00021487
924.839	0.00024679
925.008	0.00031526
925.177	0.00036552
925.347	0.00047619
925.516	0.000637
925.685	0.00078369
925.854	0.00081274
926.023	0.00076346
926.193	0.00052751
926.362	0.00061352
926.531	0.00047426
926.7	0.0003704
926.869	0.00037022
927.038	0.00023867
927.207	0.00011832
927.376	0.0000631
927.545	0.00001597
927.715	-0.0000076
927.884	-0.00004177
928.052	-0.00000187
928.221	0.00022043
928.39	0.00018102
928.559	0.00031406
928.728	0.00019573
928.897	0.00012893
929.066	0.00012954
929.235	0.00005955
929.404	-0.00007184
929.572	0.00001759
929.741	-0.00002452
929.91	-0.00002772
930.079	0.00012724
930.247	0.00026855
930.416	0.00033233
930.585	0.00025284
930.753	0.00032076
930.922	0.00037768
931.091	0.0003979
931.259	0.0003909
931.428	0.00030856
931.596	0.00002188
931.765	0.00009724
931.934	0.00011747
932.102	0.00027978
932.27	0.00033681
932.439	0.00040751
932.607	0.00039291
932.776	0.00069919
932.944	0.00068293
933.113	0.0007383
933.281	0.00062884
933.449	0.00088976
933.618	0.00097012
933.786	0.00105351
933.954	0.00093852
934.123	0.00106186
934.291	0.00096434
934.459	0.00106162
934.627	0.00088674
934.795	0.00090382
934.964	0.00093068
935.132	0.00116646
935.3	0.00116718
935.468	0.00133045
935.636	0.00119355
935.804	0.0012918
935.972	0.00122675
936.14	0.0011516
936.308	0.00136809
936.476	0.00122095
936.644	0.00131958
936.812	0.00153211
936.98	0.00169909
937.148	0.00171146
937.316	0.00210868
937.484	0.00187211
937.652	0.00201076
937.82	0.00171873
937.987	0.00165529
938.155	0.0018647
938.323	0.00201519
938.491	0.00199432
938.658	0.00214597
938.826	0.00219381
938.994	0.00263564
939.162	0.00252008
939.329	0.00214326
939.497	0.00213765
939.665	0.0021005
939.832	0.00214578
940	0.00271041
940.167	0.00319446
940.335	0.00345824
940.502	0.00412228
940.67	0.00414152
940.837	0.00448806
941.005	0.00481335
941.172	0.00450448
941.34	0.00429767
941.507	0.00498148
941.674	0.00417445
941.842	0.00525781
942.009	0.00572274
942.177	0.00552745
942.344	0.00573745
942.511	0.00593653
942.678	0.00521964
942.846	0.00535621
943.013	0.00435416
943.18	0.0042299
943.347	0.004006
943.514	0.00405072
943.682	0.00430582
943.849	0.00475996
944.016	0.00574471
944.183	0.006189
944.35	0.00564382
944.517	0.0055585
944.684	0.00586798
944.851	0.00532386
945.018	0.00516606
945.185	0.00440025
945.352	0.00380836
945.519	0.00440319
945.686	0.00470536
945.853	0.00480182
946.02	0.00523899
946.187	0.0055178
946.353	0.00553073
946.52	0.00624592
946.687	0.00566546
946.854	0.00599263
947.021	0.005686
947.187	0.00609989
947.354	0.00656591
947.521	0.00700374
947.687	0.00740175
947.854	0.00819184
948.021	0.0083231
948.187	0.00823867
948.354	0.00830102
948.52	0.00784148
948.687	0.00709872
948.854	0.00717244
949.02	0.00655675
949.187	0.00579817
949.353	0.00588926
949.52	0.00553778
949.686	0.0055575
949.852	0.00594918
950.019	0.00562324
950.185	0.00564295
950.352	0.00597587
950.518	0.00567813
950.684	0.00525947
950.851	0.00515819
951.017	0.00547092
951.183	0.00503058
951.349	0.0043147
951.516	0.00376916
951.682	0.00405745
951.848	0.00379959
952.014	0.00308813
952.18	0.00256908
952.346	0.00240681
952.512	0.00325764
952.679	0.00362901
952.845	0.00311835
953.011	0.00368421
953.177	0.00417636
953.343	0.00420252
953.509	0.00442743
953.675	0.00399869
953.841	0.00354418
954.007	0.00367846
954.172	0.00335166
954.338	0.00340953
954.504	0.00342659
954.67	0.00339677
954.836	0.00319587
955.002	0.00404848
955.167	0.00370715
955.333	0.00307222
955.499	0.00298358
955.665	0.00300502
955.83	0.00263933
955.996	0.00245258
956.162	0.00213933
956.327	0.00257972
956.493	0.00324456
956.659	0.00298164
956.824	0.00303919
956.99	0.00312653
957.155	0.00310409
957.321	0.00300946
957.486	0.00287688
957.652	0.00248086
957.817	0.00283322
957.983	0.00260838
958.148	0.00254603
958.314	0.00317432
958.479	0.00289611
958.644	0.00308402
958.81	0.00328036
958.975	0.0027824
959.14	0.0027372
959.306	0.0031991
959.471	0.0028891
959.636	0.00250571
959.801	0.00233529
959.967	0.00197023
960.132	0.00213745
960.297	0.00218537
960.462	0.00190152
960.627	0.00133317
960.792	0.00165451
960.957	0.0015408
961.123	0.00150913
961.288	0.00167591
961.453	0.00161718
961.618	0.00136259
961.783	0.00180677
961.948	0.00164406
962.113	0.00151572
962.277	0.0016371
962.442	0.00148839
962.607	0.00137387
962.772	0.00168742
962.937	0.00140744
963.102	0.00186528
963.267	0.00208119
963.431	0.00198457
963.596	0.0018726
963.761	0.00188344
963.926	0.00168161
964.09	0.00174257
964.255	0.00162385
964.42	0.00160544
964.584	0.00188808
964.749	0.00205639
964.914	0.00212948
965.078	0.00203736
965.243	0.00213235
965.407	0.00249156
965.572	0.00244383
965.736	0.00253737
965.901	0.00256784
966.065	0.00252705
966.23	0.00281978
966.394	0.00282791
966.559	0.00269417
966.723	0.00232998
966.887	0.00192423
967.052	0.0016898
967.216	0.00158376
967.38	0.00110711
967.545	0.00097321
967.709	0.00053372
967.873	0.00073922
968.037	0.00070745
968.202	0.00075468
968.366	0.00097397
968.53	0.00126212
968.694	0.00145841
968.858	0.00151542
969.022	0.00118087
969.187	0.00138296
969.351	0.00161086
969.515	0.0016429
969.679	0.00199403
969.843	0.00202893
970.007	0.00226357
970.171	0.0026405
970.335	0.00275988
970.499	0.00266441
970.662	0.00279292
970.826	0.00228918
970.99	0.00227796
971.154	0.00242823
971.318	0.00262805
971.482	0.00285003
971.645	0.00270234
971.809	0.00238066
971.973	0.00269845
972.137	0.0022554
972.3	0.0019541
972.464	0.00168879
972.628	0.00141158
972.791	0.00125473
972.955	0.00132633
973.119	0.00129477
973.282	0.00167298
973.446	0.00163471
973.609	0.00197592
973.773	0.00162374
973.936	0.00192344
974.1	0.00181845
974.263	0.00156905
974.427	0.00172799
974.59	0.00198569
974.754	0.00162241
974.917	0.00219632
975.08	0.00195642
975.244	0.00209668
975.407	0.00220521
975.57	0.00195657
975.734	0.00160178
975.897	0.00167134
976.06	0.00130905
976.223	0.00165336
976.387	0.00175127
976.55	0.00175254
976.713	0.0019021
976.876	0.00204015
977.039	0.00205363
977.202	0.00212298
977.365	0.00190221
977.528	0.00177992
977.692	0.00152363
977.855	0.00153326
978.018	0.00150289
978.181	0.00174891
978.344	0.00214188
978.506	0.00250488
978.669	0.00255327
978.832	0.00251366
978.995	0.00301775
979.158	0.00292549
979.321	0.00241681
979.484	0.00188091
979.646	0.00180162
979.809	0.00168142
979.972	0.00160308
980.135	0.0012056
980.297	0.0015887
980.46	0.0018579
980.623	0.00252556
980.786	0.00217696
980.948	0.00194123
981.111	0.00274054
981.273	0.0029406
981.436	0.00231858
981.599	0.0023589
981.761	0.00157344
981.924	0.0019176
982.086	0.0027836
982.249	0.00262963
982.411	0.00264811
982.573	0.00310971
982.736	0.00281145
982.898	0.00330372
983.061	0.00332658
983.223	0.00258794
983.385	0.00231802
983.548	0.00219627
983.71	0.00256673
983.872	0.00310527
984.034	0.00310053
984.197	0.00267375
984.359	0.00258165
984.521	0.00283849
984.683	0.00227793
984.845	0.00161679
985.008	0.00122941
985.17	0.00116618
985.332	0.00182935
985.494	0.00202143
985.656	0.00176546
985.818	0.00218662
985.98	0.00245395
986.142	0.00281523
986.304	0.00264501
986.466	0.00236365
986.628	0.00224926
986.79	0.00237659
986.952	0.00283492
987.113	0.00277465
987.275	0.00286389
987.437	0.00291694
987.599	0.00262505
987.761	0.00322594
987.922	0.00323683
988.084	0.00302105
988.246	0.00301671
988.408	0.00305005
988.569	0.00322199
988.731	0.00321647
988.893	0.00290867
989.054	0.00243013
989.216	0.00194303
989.377	0.00201545
989.539	0.00213196
989.701	0.00201555
989.862	0.0019275
990.024	0.0020342
990.185	0.00275556
990.347	0.0025399
990.508	0.0027887
990.669	0.00246437
990.831	0.0024238
990.992	0.00312222
991.154	0.00267344
991.315	0.00252068
991.476	0.00253837
991.638	0.00224182
991.799	0.00209969
991.96	0.00222144
992.121	0.00180971
992.283	0.0022811
992.444	0.00259341
992.605	0.0032895
992.766	0.0038689
992.927	0.00436332
993.088	0.0045658
993.249	0.00495707
993.41	0.00562525
993.572	0.0051086
993.733	0.00414434
993.894	0.00406823
994.055	0.00403375
994.216	0.00398687
994.376	0.00338129
994.537	0.00301078
994.698	0.00278474
994.859	0.00329907
995.02	0.00288812
995.181	0.00275849
995.342	0.00282449
995.503	0.00286102
995.663	0.00256007
995.824	0.00350134
995.985	0.00413532
996.146	0.00396339
996.306	0.00433937
996.467	0.00478008
996.628	0.00511807
996.788	0.00510916
996.949	0.0047474
997.11	0.0045252
997.27	0.00459642
997.431	0.00399701
997.591	0.00350548
997.752	0.00370704
997.912	0.00351002
998.073	0.00321587
998.233	0.00272149
998.394	0.00361593
998.554	0.0039427
998.714	0.00335412
998.875	0.00353286
999.035	0.00357701
999.196	0.0035405
999.356	0.00375188
999.516	0.00267523
999.676	0.00192142
999.837	0.00335964
999.997	0.00352696
1000.157	0.00401964
1000.317	0.00422661
1000.477	0.00464255
1000.638	0.00461721
1000.798	0.00506219
1000.958	0.00376637
1001.118	0.00424253
1001.278	0.00382828
1001.438	0.00347742
1001.598	0.00351796
1001.758	0.00345192
1001.918	0.00370344
1002.078	0.00403594
1002.238	0.00316269
1002.398	0.00370806
1002.558	0.00418524
1002.718	0.0032063
1002.878	0.00328063
1003.037	0.00312759
1003.197	0.003535
1003.357	0.00349627
1003.517	0.00273488
1003.677	0.00248039
1003.836	0.00328676
1003.996	0.00386704
1004.156	0.00473801
1004.315	0.00432853
1004.475	0.00411382
1004.635	0.00455072
1004.794	0.00405071
1004.954	0.00385556
1005.114	0.00362631
1005.273	0.00341196
1005.433	0.00349922
1005.592	0.00331175
1005.752	0.00338567
1005.911	0.00334349
1006.071	0.00308705
1006.23	0.00336113
1006.389	0.00329829
1006.549	0.00428624
1006.708	0.00492352
1006.868	0.00444395
1007.027	0.00561232
1007.186	0.00584109
1007.345	0.00643201
1007.505	0.00544548
1007.664	0.00377062
1007.823	0.00343145
1007.982	0.00433724
1008.142	0.00425451
1008.301	0.00492509
1008.46	0.00360026
1008.619	0.00430474
1008.778	0.00387588
1008.937	0.00373689
1009.096	0.00341657
1009.255	0.00392165
1009.414	0.00374987
1009.573	0.00471055
1009.732	0.00494041
1009.891	0.00464575
1010.05	0.00639694
1010.209	0.00683261
1010.368	0.00544924
1010.527	0.00470435
1010.686	0.00476084
1010.845	0.00507253
1011.003	0.00556586
1011.162	0.00418497
1011.321	0.00452043
1011.48	0.00690084
1011.638	0.00635093
1011.797	0.00484274
1011.956	0.00348091
1012.115	0.00565289
1012.273	0.00646556
1012.432	0.00672091
1012.59	0.00634031
1012.749	0.00918993
1012.908	0.01010994
1013.066	0.01035519
1013.225	0.00805565
1013.383	0.0052735
1013.542	0.00404661
1013.7	0.00222677
1013.859	-0.00022977
1014.017	0.000355
1014.175	-0.00041609
1014.334	0.0005807
1014.492	0.00286874
1014.65	0.00379567
1014.809	0.00404629
1014.967	0.00554061
1015.125	0.00546912
1015.284	0.0086291
1015.442	0.00788024
1015.6	0.00752539
1015.758	0.00608188
1015.916	0.00493934
1016.075	0.00377189
1016.233	0.00217301
1016.391	0.00160065
1016.549	0.00453129
1016.707	0.0059469
1016.865	0.0061574
1017.023	0.00704054
1017.181	0.00778615
1017.339	0.01060528
1017.497	0.00924079
1017.655	0.00837196
1017.813	0.00752915
1017.971	0.00987267
1018.129	0.00991555
1018.286	0.01027599
1018.444	0.00807875
1018.602	0.00885585
1018.76	0.00852299
1018.918	0.00768608
1019.075	0.00539473
1019.233	0.00726118
1019.391	0.00663918
1019.549	0.00952
1019.706	0.00992266
1019.864	0.01088379
1020.022	0.00998194
1020.179	0.00842859
1020.337	0.00840843
1020.494	0.01021536
1020.652	0.00963122
1020.809	0.00738141
1020.967	0.00748164
1021.124	0.01163287
1021.282	0.01362522
1021.439	0.01496706
1021.597	0.01467948
1021.754	0.01242698
1021.911	0.01580291
1022.069	0.01395878
1022.226	0.01335005
1022.384	0.01250236
1022.541	0.00938321
1022.698	0.01007247
1022.855	0.01006612
1023.013	0.00857179
1023.17	0.0107042
1023.327	0.00733611
1023.484	0.00789312
1023.641	0.00992575
1023.798	0.00629791
1023.956	0.00743219
1024.113	0.0067849
1024.27	0.0023276
1024.427	0.0035483
1024.584	0.00666334
1024.741	0.00628828
1024.898	0.00527538
1025.055	0.00519251
1025.212	0.00549653
1025.369	0.00908155
1025.525	0.00899702
1025.682	0.00894832
1025.839	0.00832688
1025.996	0.01371807
1026.153	0.0136017
1026.31	0.01212264
1026.466	0.01229848
1026.623	0.01420467
1026.78	0.01411359
1026.937	0.01308735
1027.093	0.01272049
1027.25	0.01613362
1027.407	0.01595988
1027.563	0.01166459
1027.72	0.01246783
1027.876	0.01180544
1028.033	0.01569595
1028.19	0.01423363
1028.346	0.01287771
1028.503	0.01666127
1028.659	0.02084061
1028.816	0.01631164
1028.972	0.02091105
1029.128	0.01981733
1029.285	0.02488028
1029.441	0.02333609
1029.598	0.02276794
1029.754	0.02172297
1029.91	0.0264155
1030.067	0.02030646
1030.223	0.02131708
1030.379	0.01833954
1030.535	0.01881771
1030.691	0.0251749
1030.848	0.02662829
1031.004	0.02574397
1031.16	0.03040979
1031.316	0.02796334
1031.472	0.02744177
1031.628	0.02818201
1031.784	0.02347164
1031.94	0.02288982
1032.096	0.02356816
1032.252	0.01775926
1032.408	0.01899342
1032.564	0.01381683
1032.72	0.00964066
1032.876	0.01165205
1033.032	0.01241835
1033.188	0.00622376
1033.344	0.01157153
1033.5	0.01500924
1033.655	0.01851943
1033.811	0.02533769
1033.967	0.0205415
