Data from 0_1_mm_pl_50pc_Absorbance__0__17-52-01-009.txt Node

Date: Wed Mar 01 17:52:01 CET 2023
User: Ange
Spectrometer: FLMT08341
Trigger mode: 0
Integration Time (sec): 1.000000E-2
Scans to average: 400
Electric dark correction enabled: true
Nonlinearity correction enabled: false
Boxcar width: 3
XAxis mode: Wavelengths
Number of Pixels in Spectrum: 3648
>>>>>Begin Spectral Data<<<<<
345.271	0.01652731
345.487	0.00386954
345.704	-0.00473179
345.921	-0.00058936
346.137	0.00004791
346.354	-0.0024471
346.571	0.00216248
346.787	-0.0701417
347.004	-0.00458998
347.22	-0.04132378
347.437	-0.11989186
347.653	-0.34130484
347.87	0.29927185
348.086	-0.19889008
348.303	0.10386018
348.519	0.04997425
348.736	0.05047796
348.952	0.05235646
349.169	0.05459682
349.385	0.05784849
349.601	0.06226172
349.818	0.06144578
350.034	0.06127403
350.251	0.06432434
350.467	0.06555078
350.683	0.06368893
350.9	0.06609074
351.116	0.06640879
351.332	0.06644492
351.549	0.06708146
351.765	0.06827128
351.981	0.06952332
352.197	0.07219988
352.414	0.07382853
352.63	0.07406868
352.846	0.07637331
353.062	0.07584687
353.278	0.07399059
353.495	0.07211543
353.711	0.07297228
353.927	0.07173445
354.143	0.07032141
354.359	0.06988941
354.575	0.07104522
354.792	0.07117978
355.008	0.07149133
355.224	0.0690198
355.44	0.06698702
355.656	0.06730329
355.872	0.06765472
356.088	0.06913449
356.304	0.06987761
356.52	0.07014046
356.736	0.07127564
356.952	0.07313026
357.168	0.07317579
357.384	0.0737685
357.6	0.07277284
357.816	0.07473204
358.032	0.07647929
358.248	0.07789127
358.464	0.07707642
358.679	0.07822378
358.895	0.07820148
359.111	0.078679
359.327	0.07761807
359.543	0.07819084
359.759	0.07787161
359.974	0.07939274
360.19	0.07904273
360.406	0.07908329
360.622	0.07897727
360.838	0.07718063
361.053	0.0778001
361.269	0.07916477
361.485	0.07873641
361.701	0.07891306
361.916	0.07731877
362.132	0.0773498
362.348	0.07856757
362.563	0.07647227
362.779	0.07499402
362.995	0.07559899
363.21	0.07692267
363.426	0.07856065
363.641	0.07918258
363.857	0.08086617
364.073	0.08177763
364.288	0.08268412
364.504	0.08271147
364.719	0.08356274
364.935	0.08375302
365.15	0.08421602
365.366	0.08253571
365.581	0.08275685
365.797	0.08374754
366.012	0.08454962
366.228	0.08227565
366.443	0.08245132
366.658	0.08154875
366.874	0.08182489
367.089	0.08294985
367.305	0.08266055
367.52	0.08241622
367.735	0.08368215
367.951	0.08356546
368.166	0.08331184
368.381	0.08403611
368.597	0.08383392
368.812	0.08388236
369.027	0.08407675
369.243	0.08446772
369.458	0.08640705
369.673	0.08812242
369.888	0.08919234
370.104	0.08877509
370.319	0.08843195
370.534	0.08878485
370.749	0.08871801
370.964	0.0881142
371.179	0.08817627
371.395	0.08815304
371.61	0.08783699
371.825	0.08808898
372.04	0.08866546
372.255	0.08820005
372.47	0.08748409
372.685	0.08688813
372.9	0.08621403
373.115	0.08641294
373.33	0.08625857
373.545	0.08676223
373.76	0.08821945
373.975	0.08785594
374.19	0.0881856
374.405	0.08854635
374.62	0.08982456
374.835	0.09007917
375.05	0.09005205
375.265	0.08915778
375.48	0.0906482
375.695	0.09185767
375.91	0.09178532
376.125	0.09188872
376.339	0.09245189
376.554	0.09189179
376.769	0.09225418
376.984	0.09223542
377.199	0.09227635
377.414	0.09222474
377.628	0.09211181
377.843	0.09287187
378.058	0.09337464
378.273	0.09404655
378.487	0.09410504
378.702	0.0942082
378.917	0.09520393
379.131	0.09549608
379.346	0.09486068
379.561	0.09446667
379.775	0.0951136
379.99	0.09440264
380.205	0.09413833
380.419	0.09352416
380.634	0.09298014
380.848	0.09332259
381.063	0.09399518
381.278	0.09416468
381.492	0.0942534
381.707	0.09473137
381.921	0.09496053
382.136	0.09648932
382.35	0.0967531
382.565	0.09675684
382.779	0.09675172
382.994	0.09766915
383.208	0.09773392
383.422	0.09899751
383.637	0.09807399
383.851	0.0989671
384.066	0.0995139
384.28	0.09947155
384.494	0.10005452
384.709	0.10035025
384.923	0.10024604
385.137	0.10027133
385.352	0.09979415
385.566	0.10021853
385.78	0.10068932
385.995	0.10010889
386.209	0.09984459
386.423	0.10011782
386.637	0.10101214
386.852	0.10078337
387.066	0.10062113
387.28	0.10051735
387.494	0.10150051
387.708	0.10214965
387.923	0.10231707
388.137	0.10258845
388.351	0.10285422
388.565	0.10312454
388.779	0.10316299
388.993	0.10355278
389.207	0.10364557
389.421	0.10371554
389.635	0.10360704
389.85	0.10404093
390.064	0.10396257
390.278	0.10392514
390.492	0.104192
390.706	0.10425801
390.92	0.10388816
391.134	0.10412557
391.348	0.1048338
391.561	0.10556332
391.775	0.10625508
391.989	0.10623941
392.203	0.10691368
392.417	0.10809626
392.631	0.10864943
392.845	0.10804411
393.059	0.10814941
393.273	0.10823047
393.486	0.1077541
393.7	0.10718214
393.914	0.10733109
394.128	0.1076161
394.342	0.10763038
394.555	0.10712332
394.769	0.10707712
394.983	0.10753081
395.197	0.10800437
395.41	0.10718538
395.624	0.10703306
395.838	0.10724552
396.051	0.10862382
396.265	0.10885229
396.479	0.10920478
396.692	0.10987556
396.906	0.11055276
397.12	0.11081143
397.333	0.11151274
397.547	0.11117961
397.76	0.11156684
397.974	0.11162947
398.187	0.11185808
398.401	0.11143984
398.614	0.11100497
398.828	0.11090744
399.041	0.11071125
399.255	0.11102407
399.468	0.11094424
399.682	0.1106216
399.895	0.11124987
400.109	0.11150126
400.322	0.11175375
400.536	0.11131162
400.749	0.11079581
400.962	0.110865
401.176	0.11115574
401.389	0.11122627
401.602	0.11089437
401.816	0.11062791
402.029	0.11134229
402.242	0.11192698
402.456	0.11231804
402.669	0.11209524
402.882	0.11168333
403.095	0.11213788
403.309	0.11246256
403.522	0.11247648
403.735	0.11209647
403.948	0.11220296
404.161	0.11257949
404.375	0.1131188
404.588	0.11337939
404.801	0.11325544
405.014	0.11300882
405.227	0.11357076
405.44	0.11359305
405.653	0.11343126
405.866	0.11311958
406.079	0.11290707
406.293	0.11311374
406.506	0.11311737
406.719	0.11286761
406.932	0.1127205
407.145	0.11266965
407.358	0.11328129
407.571	0.11332278
407.784	0.11336313
407.996	0.11358585
408.209	0.11358991
408.422	0.11287778
408.635	0.11273524
408.848	0.11233936
409.061	0.11204637
409.274	0.11168203
409.487	0.11156034
409.7	0.11096102
409.912	0.11131259
410.125	0.11122945
410.338	0.11099102
410.551	0.11098667
410.764	0.11094859
410.976	0.11054509
411.189	0.11070503
411.402	0.11056182
411.615	0.11075963
411.827	0.11094501
412.04	0.11071962
412.253	0.1102842
412.465	0.11007277
412.678	0.10959958
412.891	0.10949081
413.103	0.1087353
413.316	0.10843576
413.529	0.1084514
413.741	0.10885784
413.954	0.10908877
414.166	0.10929305
414.379	0.10898042
414.591	0.10946647
414.804	0.10916076
415.016	0.10923292
415.229	0.10868234
415.441	0.10836522
415.654	0.108291
415.866	0.10841864
416.079	0.10814921
416.291	0.10780749
416.504	0.10762886
416.716	0.10772754
416.928	0.10763256
417.141	0.10740185
417.353	0.10731833
417.566	0.10688751
417.778	0.10677241
417.99	0.10619212
418.203	0.10573542
418.415	0.10542072
418.627	0.10509996
418.839	0.10470541
419.052	0.10465939
419.264	0.10468005
419.476	0.10454636
419.688	0.10487959
419.901	0.10502172
420.113	0.10483336
420.325	0.1043785
420.537	0.10397524
420.749	0.10375427
420.961	0.10367612
421.174	0.10314067
421.386	0.10253164
421.598	0.10230801
421.81	0.10229059
422.022	0.10208095
422.234	0.10162146
422.446	0.10119853
422.658	0.10091525
422.87	0.10062204
423.082	0.10042351
423.294	0.10005188
423.506	0.09992002
423.718	0.09990915
423.93	0.09958023
424.142	0.09925583
424.354	0.09899819
424.566	0.09853185
424.778	0.09824478
424.99	0.09770596
425.202	0.09718404
425.414	0.09699129
425.625	0.09686697
425.837	0.09645104
426.049	0.09633338
426.261	0.09601348
426.473	0.09583518
426.684	0.09548817
426.896	0.09528393
427.108	0.09477314
427.32	0.09475825
427.531	0.09418018
427.743	0.09390055
427.955	0.09369944
428.167	0.09319486
428.378	0.09277818
428.59	0.09243002
428.802	0.09202654
429.013	0.091703
429.225	0.09127386
429.436	0.0907215
429.648	0.09060854
429.86	0.0902616
430.071	0.08991786
430.283	0.08939191
430.494	0.08904439
430.706	0.08880929
430.917	0.08833993
431.129	0.08791636
431.34	0.08747954
431.552	0.08717025
431.763	0.08672327
431.975	0.08641853
432.186	0.08598967
432.398	0.08566464
432.609	0.08526193
432.821	0.08497468
433.032	0.08443875
433.243	0.08412312
433.455	0.08377069
433.666	0.08342051
433.877	0.08311666
434.089	0.08250828
434.3	0.08218496
434.511	0.08182819
434.723	0.08150002
434.934	0.08120866
435.145	0.08085556
435.356	0.08069706
435.568	0.08058198
435.779	0.08018
435.99	0.07971093
436.201	0.07925334
436.412	0.07891209
436.624	0.07844799
436.835	0.07802628
437.046	0.07777608
437.257	0.07750118
437.468	0.07729956
437.679	0.07702885
437.89	0.07663873
438.101	0.07642864
438.312	0.07596108
438.523	0.07557427
438.734	0.07509302
438.945	0.07473733
439.156	0.07423072
439.367	0.07388476
439.578	0.07341618
439.789	0.07287009
440	0.07231219
440.211	0.07189688
440.422	0.07135438
440.633	0.07096957
440.844	0.07030174
441.055	0.06979515
441.266	0.06942073
441.477	0.06900276
441.687	0.06848911
441.898	0.06813271
442.109	0.0677015
442.32	0.06732972
442.531	0.06705679
442.741	0.06652868
442.952	0.06614386
443.163	0.06582388
443.374	0.06534796
443.584	0.06498308
443.795	0.06455185
444.006	0.06406507
444.216	0.06372853
444.427	0.06331213
444.638	0.06273246
444.848	0.06225229
445.059	0.06170501
445.27	0.06116505
445.48	0.06066733
445.691	0.06021046
445.901	0.05980486
446.112	0.05957679
446.323	0.05914224
446.533	0.05889551
446.744	0.05859907
446.954	0.05809574
447.165	0.05777921
447.375	0.05723042
447.586	0.0567913
447.796	0.05639176
448.006	0.0560202
448.217	0.05573745
448.427	0.05537185
448.638	0.05502619
448.848	0.05475981
449.058	0.0542949
449.269	0.05402884
449.479	0.05350193
449.689	0.05316011
449.9	0.05291732
450.11	0.05237523
450.32	0.05203947
450.531	0.05162267
450.741	0.05117698
450.951	0.05079758
451.161	0.0502773
451.372	0.04973833
451.582	0.04941967
451.792	0.04894581
452.002	0.04855315
452.212	0.04818944
452.422	0.04791206
452.633	0.0475372
452.843	0.04724109
453.053	0.04685901
453.263	0.04653408
453.473	0.04631341
453.683	0.04609086
453.893	0.04566521
454.103	0.04541716
454.313	0.04515065
454.523	0.04477961
454.733	0.04439474
454.943	0.04394801
455.153	0.04366234
455.363	0.04328442
455.573	0.0428894
455.783	0.04252622
455.993	0.04219267
456.203	0.04198987
456.413	0.04159044
456.623	0.04122489
456.833	0.0409663
457.042	0.04054967
457.252	0.04032275
457.462	0.04000121
457.672	0.03964383
457.882	0.03950531
458.091	0.03912431
458.301	0.03880111
458.511	0.03866481
458.721	0.03817429
458.931	0.03801851
459.14	0.03766719
459.35	0.03729338
459.56	0.03699716
459.769	0.03670825
459.979	0.03637496
460.189	0.03625647
460.398	0.03595742
460.608	0.03575669
460.817	0.03550198
461.027	0.03522341
461.237	0.03488104
461.446	0.03465691
461.656	0.0342878
461.865	0.03395552
462.075	0.03360318
462.284	0.03335002
462.494	0.03317348
462.703	0.03301826
462.913	0.03266169
463.122	0.03245771
463.332	0.03224957
463.541	0.03210837
463.751	0.03183093
463.96	0.03148651
464.169	0.03118916
464.379	0.03097187
464.588	0.03076397
464.797	0.03051228
465.007	0.03024
465.216	0.03006928
465.425	0.02978722
465.635	0.02962602
465.844	0.02951775
466.053	0.02933377
466.263	0.0290784
466.472	0.0288424
466.681	0.02871937
466.89	0.02854029
467.099	0.028408
467.309	0.02804997
467.518	0.02766723
467.727	0.02755822
467.936	0.02735675
468.145	0.02714537
468.354	0.02705276
468.563	0.02686545
468.772	0.02674995
468.982	0.02668753
469.191	0.02642
469.4	0.02616562
469.609	0.02595866
469.818	0.02575527
470.027	0.02556093
470.236	0.02548966
470.445	0.02525605
470.654	0.02508486
470.863	0.02500108
471.072	0.02469495
471.28	0.02454769
471.489	0.02443248
471.698	0.02418753
471.907	0.02417544
472.116	0.02402948
472.325	0.02397824
472.534	0.02392979
472.743	0.02373627
472.951	0.02341413
473.16	0.02328181
473.369	0.02309665
473.578	0.0229849
473.786	0.02276159
473.995	0.02264362
474.204	0.02250089
474.413	0.02244544
474.621	0.0223428
474.83	0.02215052
475.039	0.02201204
475.247	0.02188986
475.456	0.02173913
475.665	0.02161987
475.873	0.02154807
476.082	0.02142289
476.291	0.02140831
476.499	0.02136719
476.708	0.02127914
476.916	0.02127776
477.125	0.0212382
477.333	0.02119265
477.542	0.02107332
477.75	0.02103542
477.959	0.02092624
478.167	0.02091361
478.376	0.02075097
478.584	0.02063782
478.793	0.02044544
479.001	0.02032169
479.209	0.0200916
479.418	0.01991288
479.626	0.01977629
479.834	0.01969775
480.043	0.01962656
480.251	0.01961578
480.459	0.0195765
480.668	0.01961881
480.876	0.01963446
481.084	0.01953882
481.293	0.01953404
481.501	0.01948992
481.709	0.01940242
481.917	0.01937666
482.125	0.01931549
482.334	0.01925634
482.542	0.01926656
482.75	0.01915335
482.958	0.01913883
483.166	0.01911366
483.374	0.01904453
483.583	0.01901787
483.791	0.01906304
483.999	0.01902537
484.207	0.01905333
484.415	0.01896543
484.623	0.0189248
484.831	0.0189325
485.039	0.01886937
485.247	0.01883538
485.455	0.01875487
485.663	0.01868015
485.871	0.01870045
486.079	0.01874154
486.287	0.01866744
486.495	0.01862996
486.702	0.0185427
486.91	0.01854069
487.118	0.01855383
487.326	0.0185137
487.534	0.01847888
487.742	0.01845978
487.95	0.01845006
488.157	0.01848354
488.365	0.01848791
488.573	0.01846646
488.781	0.01852001
488.988	0.01845517
489.196	0.01849571
489.404	0.01854854
489.612	0.01852229
489.819	0.01854228
490.027	0.0185196
490.235	0.01853598
490.442	0.01861436
490.65	0.01861094
490.857	0.01857723
491.065	0.01863793
491.273	0.0186894
491.48	0.01868376
491.688	0.01864139
491.895	0.01859848
492.103	0.01863042
492.31	0.01864576
492.518	0.01858046
492.725	0.01851034
492.933	0.01852665
493.14	0.01856519
493.348	0.01863714
493.555	0.01865065
493.763	0.01865687
493.97	0.01867776
494.177	0.0187709
494.385	0.01883601
494.592	0.0188403
494.8	0.01883206
495.007	0.01883792
495.214	0.01888845
495.422	0.01896229
495.629	0.01898904
495.836	0.01911288
496.043	0.01920689
496.251	0.01927588
496.458	0.01936446
496.665	0.01945008
496.872	0.01952318
497.08	0.01955949
497.287	0.01949291
497.494	0.0195209
497.701	0.01955251
497.908	0.01957595
498.115	0.01958107
498.322	0.01961579
498.53	0.01963087
498.737	0.01979845
498.944	0.01984424
499.151	0.01992546
499.358	0.02001912
499.565	0.0201042
499.772	0.02015801
499.979	0.02026608
500.186	0.02031283
500.393	0.02038812
500.6	0.02046508
500.807	0.02056732
501.014	0.0206396
501.221	0.02073973
501.427	0.02085374
501.634	0.0208733
501.841	0.02091464
502.048	0.02093217
502.255	0.02093134
502.462	0.02095594
502.669	0.02099677
502.875	0.02100935
503.082	0.02104478
503.289	0.02109482
503.496	0.02107015
503.702	0.02113429
503.909	0.02123766
504.116	0.02129862
504.323	0.02135831
504.529	0.02146606
504.736	0.02154924
504.943	0.02175773
505.149	0.02183444
505.356	0.02191555
505.563	0.02203889
505.769	0.0221657
505.976	0.02224411
506.182	0.0223184
506.389	0.02237809
506.595	0.02247703
506.802	0.02255314
507.008	0.02266235
507.215	0.02272613
507.421	0.02285901
507.628	0.02299132
507.834	0.02307649
508.041	0.02313132
508.247	0.02324218
508.454	0.02327877
508.66	0.02339849
508.866	0.0234999
509.073	0.02361141
509.279	0.02372813
509.486	0.02384376
509.692	0.02394315
509.898	0.02408806
510.105	0.02418235
510.311	0.02423872
510.517	0.02426134
510.723	0.0243914
510.93	0.02453327
511.136	0.02468225
511.342	0.02476049
511.548	0.02484249
511.754	0.02496615
511.961	0.02519104
512.167	0.0252808
512.373	0.02538476
512.579	0.02550206
512.785	0.02562546
512.991	0.02572547
513.197	0.02585265
513.404	0.02589383
513.61	0.02600616
513.816	0.02609408
514.022	0.02620017
514.228	0.0263031
514.434	0.02645336
514.64	0.02651556
514.846	0.0266342
515.052	0.02676607
515.258	0.02692159
515.464	0.02700609
515.669	0.02707564
515.875	0.02718875
516.081	0.02738033
516.287	0.02753574
516.493	0.02764432
516.699	0.02775203
516.905	0.02786655
517.111	0.02804363
517.316	0.02816144
517.522	0.02827059
517.728	0.02841585
517.934	0.028564
518.139	0.02872014
518.345	0.02891115
518.551	0.02908651
518.757	0.0292007
518.962	0.02934161
519.168	0.02944282
519.374	0.0295823
519.579	0.02971709
519.785	0.02982619
519.991	0.02996581
520.196	0.03011418
520.402	0.03027472
520.607	0.03042949
520.813	0.0305501
521.018	0.03070114
521.224	0.03081654
521.429	0.03095756
521.635	0.0311742
521.84	0.03127799
522.046	0.03146076
522.251	0.03160447
522.457	0.03170198
522.662	0.03187909
522.868	0.03203847
523.073	0.03214588
523.279	0.03230841
523.484	0.03242837
523.689	0.03256183
523.895	0.03277936
524.1	0.0329524
524.305	0.03307264
524.511	0.0332479
524.716	0.03344304
524.921	0.0336001
525.126	0.0337966
525.332	0.03395968
525.537	0.03408489
525.742	0.03426685
525.947	0.03440252
526.153	0.03454711
526.358	0.0348012
526.563	0.03503607
526.768	0.03516846
526.973	0.0353721
527.178	0.03555696
527.383	0.0357374
527.588	0.03588447
527.794	0.03595537
527.999	0.03608796
528.204	0.0362713
528.409	0.03641454
528.614	0.03660128
528.819	0.03679234
529.024	0.03697365
529.229	0.03716973
529.434	0.03735686
529.639	0.03758515
529.843	0.03777193
530.048	0.03788184
530.253	0.0381057
530.458	0.03831463
530.663	0.03850223
530.868	0.03864521
531.073	0.03880893
531.278	0.03897873
531.482	0.03920628
531.687	0.0393681
531.892	0.03956877
532.097	0.03979052
532.302	0.03996243
532.506	0.04012964
532.711	0.04029687
532.916	0.04050937
533.12	0.04071395
533.325	0.04088002
533.53	0.04106916
533.734	0.04130351
533.939	0.04154351
534.144	0.04181989
534.348	0.04202526
534.553	0.04220702
534.757	0.04240126
534.962	0.04261717
535.167	0.04283823
535.371	0.04300054
535.576	0.04320287
535.78	0.043398
535.985	0.04362043
536.189	0.04386566
536.394	0.04402644
536.598	0.04424011
536.803	0.0444698
537.007	0.0446437
537.211	0.04486527
537.416	0.0450322
537.62	0.04523155
537.825	0.04545637
538.029	0.04566247
538.233	0.04585223
538.438	0.04608719
538.642	0.04628826
538.846	0.04655724
539.05	0.0467238
539.255	0.04692144
539.459	0.04712031
539.663	0.0473381
539.867	0.04755872
540.072	0.04781554
540.276	0.04803145
540.48	0.04830301
540.684	0.04856052
540.888	0.04884149
541.092	0.04913061
541.297	0.04938564
541.501	0.04960657
541.705	0.04979315
541.909	0.05000376
542.113	0.05022142
542.317	0.05041592
542.521	0.05061233
542.725	0.05076736
542.929	0.05098112
543.133	0.05128012
543.337	0.05155691
543.541	0.0518491
543.745	0.05204864
543.949	0.05231058
544.153	0.05256859
544.357	0.05277741
544.56	0.05296501
544.764	0.05320505
544.968	0.05336291
545.172	0.05361254
545.376	0.05382237
545.58	0.05404885
545.783	0.05433705
545.987	0.05460868
546.191	0.05481627
546.395	0.05514685
546.598	0.05546151
546.802	0.05574749
547.006	0.05605054
547.21	0.05626354
547.413	0.05653723
547.617	0.05683687
547.821	0.05701759
548.024	0.05724824
548.228	0.05739449
548.431	0.057599
548.635	0.05785712
548.839	0.05804392
549.042	0.05826315
549.246	0.05853247
549.449	0.05877452
549.653	0.05908363
549.856	0.0593856
550.06	0.05965226
550.263	0.05991711
550.467	0.06016275
550.67	0.06042788
550.874	0.06068244
551.077	0.06096854
551.28	0.06126695
551.484	0.06151718
551.687	0.06178593
551.891	0.06208816
552.094	0.06229008
552.297	0.06254601
552.501	0.06281844
552.704	0.0630383
552.907	0.06331402
553.11	0.06360567
553.314	0.06386659
553.517	0.06417415
553.72	0.06446992
553.923	0.06476011
554.127	0.06499753
554.33	0.06523064
554.533	0.06548786
554.736	0.06575307
554.939	0.06606009
555.142	0.06631887
555.345	0.06658876
555.549	0.06687154
555.752	0.06718223
555.955	0.06744004
556.158	0.06771418
556.361	0.06796515
556.564	0.06826158
556.767	0.06854856
556.97	0.06884003
557.173	0.06912909
557.376	0.0694824
557.579	0.06977178
557.782	0.07008063
557.984	0.07033619
558.187	0.07060372
558.39	0.0709135
558.593	0.07122536
558.796	0.07146817
558.999	0.07175194
559.202	0.07203362
559.404	0.07233563
559.607	0.07261015
559.81	0.07292237
560.013	0.07318581
560.216	0.07348033
560.418	0.07376389
560.621	0.07407296
560.824	0.07438137
561.026	0.07466331
561.229	0.07494371
561.432	0.07524371
561.634	0.07558436
561.837	0.07588521
562.04	0.07616396
562.242	0.07649019
562.445	0.07677948
562.647	0.07710099
562.85	0.07739687
563.053	0.07767736
563.255	0.07799569
563.458	0.07833656
563.66	0.07860158
563.863	0.07896391
564.065	0.0791934
564.268	0.07946526
564.47	0.07973731
564.672	0.07995734
564.875	0.08015143
565.077	0.08038408
565.28	0.08062809
565.482	0.0809628
565.684	0.08126236
565.887	0.08151016
566.089	0.08185152
566.291	0.08223504
566.494	0.08257694
566.696	0.08291879
566.898	0.08323838
567.1	0.08353562
567.303	0.08386265
567.505	0.08414006
567.707	0.08434932
567.909	0.08463101
568.111	0.08488993
568.314	0.08514237
568.516	0.08546277
568.718	0.0857802
568.92	0.08611327
569.122	0.08645442
569.324	0.0867679
569.526	0.08705092
569.728	0.08736799
569.93	0.08764149
570.132	0.08797045
570.334	0.08829463
570.536	0.08859541
570.738	0.08887653
570.94	0.08916044
571.142	0.08943756
571.344	0.08974695
571.546	0.09000437
571.748	0.09027923
571.95	0.09059983
572.152	0.09095131
572.354	0.09130572
572.555	0.0916541
572.757	0.09197939
572.959	0.09228382
573.161	0.09258863
573.363	0.09282597
573.564	0.09315123
573.766	0.09344057
573.968	0.09375128
574.17	0.0940605
574.371	0.09440132
574.573	0.0946896
574.775	0.0950146
574.976	0.09522432
575.178	0.09548807
575.38	0.09573945
575.581	0.09600757
575.783	0.09624817
575.985	0.09655415
576.186	0.09682612
576.388	0.09715718
576.589	0.0974786
576.791	0.09783405
576.992	0.09812907
577.194	0.098448
577.395	0.09874946
577.597	0.09908439
577.798	0.09942821
578	0.09971093
578.201	0.10003336
578.402	0.10035729
578.604	0.10067979
578.805	0.1010148
579.007	0.10137956
579.208	0.10171537
579.409	0.10202883
579.611	0.10234342
579.812	0.102652
580.013	0.10295772
580.215	0.10322716
580.416	0.10356054
580.617	0.10382437
580.818	0.10417181
581.019	0.10441831
581.221	0.10471705
581.422	0.10503584
581.623	0.10536081
581.824	0.10557619
582.025	0.10585746
582.226	0.10612629
582.428	0.10648261
582.629	0.10674192
582.83	0.10698647
583.031	0.10721359
583.232	0.10752458
583.433	0.10784007
583.634	0.10813989
583.835	0.10840277
584.036	0.10874972
584.237	0.10907043
584.438	0.10944473
584.639	0.10971344
584.84	0.11004353
585.041	0.11033495
585.242	0.11062706
585.442	0.11087079
585.643	0.11119777
585.844	0.11145474
586.045	0.11178823
586.246	0.11201656
586.447	0.11226565
586.647	0.11252961
586.848	0.11280126
587.049	0.11304681
587.25	0.11337884
587.45	0.11363735
587.651	0.11390799
587.852	0.11422358
588.053	0.11456165
588.253	0.11493532
588.454	0.11523758
588.655	0.11547899
588.855	0.11573639
589.056	0.11605752
589.256	0.11636857
589.457	0.11660859
589.658	0.11689184
589.858	0.11716517
590.059	0.11749155
590.259	0.11782045
590.46	0.11806257
590.66	0.11834557
590.861	0.11861215
591.061	0.1188058
591.262	0.11908819
591.462	0.1193299
591.662	0.11956957
591.863	0.11980775
592.063	0.11999828
592.264	0.12028116
592.464	0.12052823
592.664	0.12077734
592.865	0.12107518
593.065	0.12129884
593.265	0.12162744
593.465	0.12187055
593.666	0.12210825
593.866	0.12239854
594.066	0.12267929
594.266	0.12285375
594.467	0.12315285
594.667	0.12337921
594.867	0.12375736
595.067	0.12403122
595.267	0.1242686
595.467	0.12450613
595.668	0.12475828
595.868	0.12504032
596.068	0.12528153
596.268	0.12544159
596.468	0.1257078
596.668	0.12599788
596.868	0.12623172
597.068	0.12653607
597.268	0.12679524
597.468	0.12704605
597.668	0.12733156
597.868	0.12755919
598.068	0.12780539
598.268	0.12804179
598.467	0.12832497
598.667	0.12850924
598.867	0.12871127
599.067	0.1289661
599.267	0.12919544
599.467	0.12942814
599.667	0.12968955
599.866	0.12984709
600.066	0.13004226
600.266	0.13027098
600.466	0.13047264
600.665	0.13068833
600.865	0.1309091
601.065	0.13111322
601.264	0.13136382
601.464	0.13160704
601.664	0.13188092
601.863	0.13212979
602.063	0.13234692
602.263	0.13252222
602.462	0.13280775
602.662	0.13303645
602.861	0.13331171
603.061	0.13351031
603.26	0.13370301
603.46	0.13392857
603.659	0.13419228
603.859	0.13430739
604.058	0.13448081
604.258	0.13467242
604.457	0.13493621
604.657	0.13508442
604.856	0.13518855
605.056	0.13536629
605.255	0.13554935
605.454	0.13575802
605.654	0.13589533
605.853	0.13602317
606.052	0.13625974
606.252	0.13656911
606.451	0.13683801
606.65	0.13711812
606.849	0.1372732
607.049	0.13752897
607.248	0.13772732
607.447	0.13790569
607.646	0.13807721
607.845	0.13821334
608.045	0.13832493
608.244	0.13854232
608.443	0.13872069
608.642	0.13895414
608.841	0.13912391
609.04	0.13924035
609.239	0.13942541
609.438	0.139588
609.637	0.13978899
609.836	0.13997572
610.035	0.140082
610.234	0.14033392
610.433	0.14050419
610.632	0.14062714
610.831	0.14087229
611.03	0.14101893
611.229	0.14123378
611.428	0.14145543
611.627	0.1415826
611.826	0.14181108
612.025	0.1420958
612.224	0.14223219
612.422	0.14244131
612.621	0.14258225
612.82	0.142765
613.019	0.14291995
613.218	0.14305278
613.416	0.14308944
613.615	0.14333142
613.814	0.14346381
614.012	0.14363177
614.211	0.14370361
614.41	0.14387107
614.608	0.14407084
614.807	0.14429683
615.006	0.1444294
615.204	0.14455064
615.403	0.14465332
615.602	0.14484022
615.8	0.14504737
615.999	0.14513396
616.197	0.14523843
616.396	0.14540304
616.594	0.14557484
616.793	0.14575206
616.991	0.14593268
617.19	0.14598506
617.388	0.14621424
617.586	0.14633782
617.785	0.14637378
617.983	0.14647422
618.182	0.14651303
618.38	0.14654058
618.578	0.14666342
618.777	0.14678304
618.975	0.14693086
619.173	0.14709655
619.372	0.14720343
619.57	0.14734106
619.768	0.14747114
619.966	0.14760643
620.165	0.14763666
620.363	0.14776367
620.561	0.14779414
620.759	0.14790236
620.957	0.14807989
621.155	0.14827785
621.354	0.14837304
621.552	0.14856769
621.75	0.14863907
621.948	0.14885942
622.146	0.14904878
622.344	0.14915895
622.542	0.14928464
622.74	0.14939231
622.938	0.14939201
623.136	0.14958589
623.334	0.1497221
623.532	0.14972689
623.73	0.149801
623.928	0.14992157
624.126	0.15007318
624.324	0.15031264
624.522	0.15029048
624.719	0.15036684
624.917	0.15056479
625.115	0.15066068
625.313	0.15074494
625.511	0.150854
625.708	0.15080636
625.906	0.15095405
626.104	0.1509844
626.302	0.15110444
626.499	0.15124254
626.697	0.15129521
626.895	0.15132459
627.093	0.15146288
627.29	0.15159523
627.488	0.15171904
627.686	0.15175393
627.883	0.15171902
628.081	0.15171753
628.278	0.15188181
628.476	0.15191205
628.673	0.15194337
628.871	0.15198118
629.068	0.15203751
629.266	0.15222262
629.463	0.15233696
629.661	0.15237226
629.858	0.15250688
630.056	0.15258826
630.253	0.15266367
630.451	0.15280819
630.648	0.1528826
630.845	0.15298445
631.043	0.15306027
631.24	0.15316247
631.438	0.15325663
631.635	0.1533759
631.832	0.15333989
632.029	0.15339695
632.227	0.15350709
632.424	0.15358035
632.621	0.15359575
632.818	0.15360067
633.016	0.15367288
633.213	0.153698
633.41	0.15375315
633.607	0.15370687
633.804	0.15373963
634.001	0.15373307
634.199	0.15383598
634.396	0.15384198
634.593	0.15389716
634.79	0.15400463
634.987	0.15411076
635.184	0.15419397
635.381	0.15437611
635.578	0.15447455
635.775	0.15458428
635.972	0.15468248
636.169	0.15466524
636.366	0.15470446
636.563	0.15467028
636.76	0.15452681
636.957	0.1544611
637.153	0.1543722
637.35	0.15441082
637.547	0.15445054
637.744	0.15448892
637.941	0.15454767
638.138	0.15475906
638.334	0.15482466
638.531	0.15491146
638.728	0.15496323
638.925	0.15504117
639.121	0.15508581
639.318	0.1551648
639.515	0.15513854
639.711	0.15519836
639.908	0.15523239
640.105	0.15527249
640.301	0.15523406
640.498	0.1552482
640.695	0.15529843
640.891	0.15530348
641.088	0.15533144
641.284	0.15535745
641.481	0.15536201
641.677	0.15540505
641.874	0.15539565
642.07	0.15542028
642.267	0.15551134
642.463	0.15550066
642.66	0.15558265
642.856	0.15558343
643.053	0.15556466
643.249	0.15561492
643.445	0.15560961
643.642	0.15560501
643.838	0.15568226
644.034	0.15566342
644.231	0.15565499
644.427	0.15571916
644.623	0.15572216
644.82	0.15576251
645.016	0.15576479
645.212	0.15571979
645.408	0.15575687
645.604	0.15585488
645.801	0.15588014
645.997	0.15593462
646.193	0.15586696
646.389	0.15593149
646.585	0.15602187
646.781	0.15608463
646.977	0.15610309
647.173	0.15609921
647.37	0.15606244
647.566	0.15611643
647.762	0.15608963
647.958	0.15607151
648.154	0.1560003
648.35	0.15600914
648.546	0.15603268
648.742	0.15614786
648.937	0.15610155
649.133	0.15615188
649.329	0.15622273
649.525	0.15626272
649.721	0.15625309
649.917	0.15629645
650.113	0.15623168
650.309	0.15634823
650.504	0.15630297
650.7	0.15624204
650.896	0.15627427
651.092	0.15625219
651.287	0.15623913
651.483	0.15629586
651.679	0.15622765
651.875	0.15627617
652.07	0.15627879
652.266	0.15625815
652.462	0.15630152
652.657	0.15631036
652.853	0.15625089
653.048	0.15627489
653.244	0.15616901
653.44	0.15612301
653.635	0.1560102
653.831	0.15601815
654.026	0.15597822
654.222	0.1559987
654.417	0.1560425
654.613	0.1561412
654.808	0.15616809
655.004	0.1562947
655.199	0.15625947
655.394	0.15626862
655.59	0.15636811
655.785	0.1563784
655.98	0.15639242
656.176	0.15637785
656.371	0.15641038
656.566	0.15644381
656.762	0.15639161
656.957	0.15634994
657.152	0.15630009
657.348	0.15632064
657.543	0.15639803
657.738	0.15640547
657.933	0.15634965
658.128	0.15636007
658.324	0.15626164
658.519	0.15621125
658.714	0.15614064
658.909	0.15599981
659.104	0.15589633
659.299	0.1558682
659.494	0.15584491
659.689	0.15586278
659.884	0.15588049
660.079	0.15583818
660.274	0.15590193
660.469	0.15591237
660.664	0.15603788
660.859	0.15608708
661.054	0.15611005
661.249	0.15612826
661.444	0.15619336
661.639	0.15620599
661.834	0.15623043
662.029	0.15617796
662.224	0.15619305
662.418	0.15622129
662.613	0.15621549
662.808	0.15615488
663.003	0.15616413
663.198	0.15611483
663.392	0.15605622
663.587	0.15609722
663.782	0.1560292
663.977	0.15604098
664.171	0.15610141
664.366	0.15613743
664.561	0.15623745
664.755	0.15633943
664.95	0.15633881
665.144	0.15640283
665.339	0.15644831
665.534	0.15646311
665.728	0.15645972
665.923	0.15646707
666.117	0.15645235
666.312	0.15641169
666.506	0.15642532
666.701	0.15637132
666.895	0.15629091
667.09	0.15625256
667.284	0.15623944
667.479	0.15620746
667.673	0.15621321
667.867	0.15615921
668.062	0.15615122
668.256	0.1561675
668.45	0.15619596
668.645	0.15615295
668.839	0.15618564
669.033	0.15619292
669.228	0.15622518
669.422	0.15625452
669.616	0.15624062
669.81	0.15618841
670.004	0.15616064
670.199	0.15608803
670.393	0.15600846
670.587	0.15601423
670.781	0.15602574
670.975	0.15611656
671.169	0.15615128
671.363	0.15619341
671.558	0.15629171
671.752	0.15641709
671.946	0.15644204
672.14	0.15649676
672.334	0.15650386
672.528	0.15661885
672.722	0.15664351
672.916	0.15663845
673.11	0.15658647
673.304	0.15663284
673.497	0.15655702
673.691	0.15655521
673.885	0.1564835
674.079	0.15650784
674.273	0.15652741
674.467	0.15661243
674.661	0.15662817
674.854	0.15670728
675.048	0.15676134
675.242	0.15683849
675.436	0.1568724
675.629	0.15686978
675.823	0.15679744
676.017	0.15680579
676.211	0.15673798
676.404	0.15674304
676.598	0.15674541
676.792	0.15675918
676.985	0.15680635
677.179	0.15689478
677.372	0.15690265
677.566	0.15706446
677.76	0.15713626
677.953	0.15713318
678.147	0.15721887
678.34	0.15730524
678.534	0.15734472
678.727	0.15743351
678.921	0.15747014
679.114	0.15740134
679.307	0.15744321
679.501	0.15746204
679.694	0.15744631
679.888	0.1574453
680.081	0.15743294
680.274	0.15738641
680.468	0.15750792
680.661	0.15753695
680.854	0.1575678
681.048	0.15761044
681.241	0.1576867
681.434	0.15769736
681.627	0.15776358
681.821	0.15776476
682.014	0.1578664
682.207	0.15786107
682.4	0.15785905
682.593	0.15791497
682.786	0.15793641
682.98	0.1579684
683.173	0.15804586
683.366	0.1580166
683.559	0.15797138
683.752	0.15797978
683.945	0.15796149
684.138	0.15806595
684.331	0.15806936
684.524	0.15813206
684.717	0.15815467
684.91	0.15831835
685.103	0.1583753
685.296	0.1585033
685.489	0.15854461
685.682	0.15860744
685.874	0.15859268
686.067	0.15864177
686.26	0.15866983
686.453	0.15870923
686.646	0.15866502
686.839	0.15866997
687.031	0.15871419
687.224	0.15875475
687.417	0.15883783
687.61	0.15880476
687.802	0.15885378
687.995	0.15893364
688.188	0.15901681
688.38	0.15910264
688.573	0.15918183
688.766	0.15922924
688.958	0.15933792
689.151	0.1593849
689.343	0.1594472
689.536	0.15943871
689.729	0.15946308
689.921	0.15947772
690.114	0.15949153
690.306	0.15954418
690.499	0.1596509
690.691	0.15970143
690.884	0.15980788
691.076	0.15990272
691.268	0.15991555
691.461	0.15999649
691.653	0.16011819
691.846	0.16023187
692.038	0.16032243
692.23	0.16036503
692.423	0.16040165
692.615	0.16050407
692.807	0.16057805
692.999	0.16059739
693.192	0.16059907
693.384	0.16065418
693.576	0.16070068
693.768	0.16080706
693.961	0.16087074
694.153	0.16095583
694.345	0.16099827
694.537	0.16105587
694.729	0.16107615
694.921	0.16112226
695.113	0.16114258
695.305	0.16120552
695.498	0.16120279
695.69	0.16124167
695.882	0.16126034
696.074	0.16139335
696.266	0.16147533
696.458	0.16152375
696.65	0.16163386
696.842	0.16183131
697.033	0.16196253
697.225	0.16206244
697.417	0.1621318
697.609	0.1622935
697.801	0.16242907
697.993	0.16252928
698.185	0.16253642
698.376	0.16261191
698.568	0.16265892
698.76	0.16272707
698.952	0.16277538
699.144	0.16280361
699.335	0.16286341
699.527	0.1629224
699.719	0.16296436
699.91	0.16311238
700.102	0.16311891
700.294	0.16320271
700.485	0.16332977
700.677	0.16338713
700.869	0.16346453
701.06	0.16363965
701.252	0.16368502
701.443	0.16382504
701.635	0.16388914
701.826	0.16397671
702.018	0.16412108
702.209	0.16424969
702.401	0.16425123
702.592	0.16435119
702.784	0.16441068
702.975	0.16451328
703.166	0.16459157
703.358	0.1645966
703.549	0.16469471
703.741	0.1648319
703.932	0.1649565
704.123	0.16509502
704.315	0.16517282
704.506	0.1652813
704.697	0.1653251
704.888	0.16531308
705.08	0.16536774
705.271	0.16546808
705.462	0.16550597
705.653	0.1655623
705.844	0.16559256
706.035	0.16579076
706.227	0.16594998
706.418	0.16604297
706.609	0.1660999
706.8	0.16619763
706.991	0.16631792
707.182	0.16639098
707.373	0.16643194
707.564	0.16652318
707.755	0.16660952
707.946	0.16674089
708.137	0.16683745
708.328	0.16693741
708.519	0.16707183
708.71	0.16720648
708.901	0.16727226
709.092	0.16735634
709.283	0.16739247
709.473	0.1675161
709.664	0.16759589
709.855	0.1676739
710.046	0.16776953
710.237	0.16790325
710.427	0.16808243
710.618	0.16823475
710.809	0.16830454
711	0.16843658
711.19	0.16853252
711.381	0.16867102
711.572	0.16875314
711.762	0.16882337
711.953	0.16885807
712.144	0.16893206
712.334	0.16896348
712.525	0.16909671
712.715	0.16914462
712.906	0.16924204
713.097	0.16926696
713.287	0.16938805
713.478	0.16955583
713.668	0.16976514
713.859	0.16983683
714.049	0.16989882
714.239	0.16999225
714.43	0.17006425
714.62	0.17016135
714.811	0.17017076
715.001	0.1701687
715.191	0.1702646
715.382	0.17034096
715.572	0.17051713
715.762	0.17067049
715.953	0.17082852
716.143	0.17098951
716.333	0.17112182
716.523	0.17125582
716.714	0.17148612
716.904	0.17154449
717.094	0.17172491
717.284	0.17179951
717.474	0.17189725
717.664	0.17204871
717.855	0.17213666
718.045	0.17213227
718.235	0.17224594
718.425	0.17233872
718.615	0.17240659
718.805	0.17253948
718.995	0.17267105
719.185	0.17282977
719.375	0.17303708
719.565	0.17314882
719.755	0.17326435
719.945	0.17342285
720.135	0.17355854
720.325	0.17360398
720.515	0.17373855
720.704	0.17386451
720.894	0.17403179
721.084	0.17416677
721.274	0.17430068
721.464	0.17441312
721.654	0.17459167
721.843	0.17467913
722.033	0.17478887
722.223	0.17486498
722.413	0.17499702
722.602	0.17514752
722.792	0.17531781
722.982	0.17547589
723.171	0.175638
723.361	0.17582495
723.55	0.17610205
723.74	0.17621907
723.93	0.17636317
724.119	0.17656936
724.309	0.17673398
724.498	0.17686163
724.688	0.17691812
724.877	0.17692453
725.067	0.17698246
725.256	0.17703502
725.446	0.17699937
725.635	0.17698077
725.825	0.17705297
726.014	0.17717264
726.203	0.17725032
726.393	0.1773634
726.582	0.17751081
726.771	0.17765723
726.961	0.17778194
727.15	0.17782157
727.339	0.17784885
727.529	0.1779415
727.718	0.17800367
727.907	0.1780445
728.096	0.17810767
728.286	0.17818341
728.475	0.17833636
728.664	0.17848105
728.853	0.1785892
729.042	0.17868559
729.231	0.17872298
729.42	0.17875953
729.609	0.17883903
729.799	0.17883505
729.988	0.17892929
730.177	0.17894483
730.366	0.1789765
730.555	0.17907351
730.744	0.17913715
730.933	0.17922945
731.122	0.17934202
731.31	0.17934697
731.499	0.17939816
731.688	0.17946586
731.877	0.17943455
732.066	0.17955636
732.255	0.17958553
732.444	0.17967792
732.632	0.17975946
732.821	0.17985639
733.01	0.18003117
733.199	0.18024525
733.388	0.18034585
733.576	0.18039952
733.765	0.18048
733.954	0.18054751
734.142	0.18062622
734.331	0.18068123
734.52	0.18072502
734.708	0.18083236
734.897	0.18096168
735.086	0.1809973
735.274	0.1811045
735.463	0.18123481
735.651	0.18131612
735.84	0.18136406
736.028	0.1813656
736.217	0.18144384
736.405	0.18151673
736.594	0.18154203
736.782	0.18161285
736.971	0.18168647
737.159	0.18181292
737.347	0.18191725
737.536	0.18203195
737.724	0.1821168
737.912	0.18220509
738.101	0.18224254
738.289	0.18228559
738.477	0.18232242
738.666	0.18234972
738.854	0.18233155
739.042	0.18243563
739.23	0.18252391
739.418	0.18257908
739.607	0.18263099
739.795	0.18272616
739.983	0.18283505
740.171	0.1829563
740.359	0.18299878
740.547	0.18303627
740.735	0.18313256
740.923	0.18321787
741.112	0.18329649
741.3	0.1833282
741.488	0.18331617
741.676	0.18337746
741.864	0.18344956
742.052	0.1835095
742.239	0.18354444
742.427	0.18359579
742.615	0.18363732
742.803	0.18374178
742.991	0.18372787
743.179	0.18374224
743.367	0.18372116
743.555	0.18384256
743.742	0.18384382
743.93	0.18393074
744.118	0.18399681
744.306	0.18413783
744.494	0.1842216
744.681	0.18431666
744.869	0.18426461
745.057	0.18432005
745.244	0.18429433
745.432	0.18431219
745.62	0.18430532
745.807	0.18433831
745.995	0.18439853
746.182	0.18451239
746.37	0.18456682
746.558	0.18466147
746.745	0.1847327
746.933	0.18481388
747.12	0.18487792
747.308	0.18493383
747.495	0.18497306
747.683	0.1850245
747.87	0.18505466
748.057	0.18513418
748.245	0.18523412
748.432	0.18537127
748.62	0.18545242
748.807	0.18548543
748.994	0.18557417
749.182	0.18561948
749.369	0.18565346
749.556	0.18571001
749.743	0.18571095
749.931	0.18572784
750.118	0.18584187
750.305	0.1859406
750.492	0.18604906
750.68	0.18607054
750.867	0.186081
751.054	0.18613268
751.241	0.1861891
751.428	0.18616729
751.615	0.18612679
751.802	0.18612053
751.989	0.18613053
752.176	0.18617409
752.363	0.1861623
752.55	0.18621964
752.737	0.18626832
752.924	0.18635054
753.111	0.18644524
753.298	0.18655275
753.485	0.18657037
753.672	0.18657604
753.859	0.1865018
754.046	0.18651636
754.233	0.1864531
754.42	0.18650783
754.606	0.1864772
754.793	0.18650596
754.98	0.18654263
755.167	0.1865252
755.353	0.18651858
755.54	0.18654278
755.727	0.1864145
755.914	0.18639395
756.1	0.18628486
756.287	0.18626355
756.474	0.18636173
756.66	0.1864347
756.847	0.18648071
757.033	0.18655343
757.22	0.18660939
757.407	0.18675962
757.593	0.18681946
757.78	0.18680977
757.966	0.18678348
758.153	0.18679538
758.339	0.18677231
758.526	0.18681234
758.712	0.18684006
758.898	0.186928
759.085	0.18701546
759.271	0.18705846
759.458	0.18710385
759.644	0.18722621
759.83	0.18721911
760.017	0.18718043
760.203	0.18710879
760.389	0.18704524
760.576	0.1870115
760.762	0.18705388
760.948	0.18699284
761.134	0.18696984
761.32	0.18696444
761.507	0.18699274
761.693	0.18705837
761.879	0.18704982
762.065	0.18690017
762.251	0.18688934
762.437	0.18689682
762.623	0.18689959
762.809	0.18681019
762.995	0.1867745
763.181	0.18679731
763.367	0.18693229
763.553	0.18693509
763.739	0.1869437
763.925	0.18691656
764.111	0.18691084
764.297	0.18686816
764.483	0.18678969
764.669	0.18666744
764.855	0.18662838
765.041	0.18662037
765.227	0.18659417
765.412	0.18671016
765.598	0.18666462
765.784	0.18669074
765.97	0.18675361
766.156	0.18675605
766.341	0.18665787
766.527	0.18662647
766.713	0.1864903
766.898	0.18643588
767.084	0.18630762
767.27	0.18619047
767.455	0.18608754
767.641	0.18602183
767.827	0.18593564
768.012	0.18584745
768.198	0.18585709
768.383	0.18591174
768.569	0.18591825
768.754	0.1860029
768.94	0.18606851
769.125	0.18609878
769.311	0.18614613
769.496	0.18615963
769.682	0.18608251
769.867	0.18597288
770.052	0.18580322
770.238	0.18562731
770.423	0.18555447
770.608	0.18545048
770.794	0.18531227
770.979	0.18520926
771.164	0.18514127
771.35	0.18510931
771.535	0.18516801
771.72	0.18507064
771.905	0.18506205
772.09	0.18498295
772.276	0.18498194
772.461	0.18496157
772.646	0.18496642
772.831	0.18489185
773.016	0.18493083
773.201	0.18484758
773.386	0.18480876
773.571	0.18475585
773.756	0.18466401
773.941	0.18447823
774.126	0.18445248
774.311	0.18437578
774.496	0.18430102
774.681	0.18433114
774.866	0.18435006
775.051	0.18434445
775.236	0.18438945
775.421	0.18432194
775.606	0.18415156
775.791	0.18403843
775.976	0.18385337
776.16	0.183716
776.345	0.18368671
776.53	0.18360569
776.715	0.18351321
776.899	0.18345606
777.084	0.18345062
777.269	0.18346171
777.454	0.18344565
777.638	0.18332235
777.823	0.18327459
778.008	0.18318339
778.192	0.18318828
778.377	0.18307103
778.561	0.18303766
778.746	0.18291692
778.931	0.18290311
779.115	0.18281812
779.3	0.18274507
779.484	0.18264239
779.669	0.18260885
779.853	0.18243301
780.037	0.18232055
780.222	0.18210576
780.406	0.18193221
780.591	0.18188282
780.775	0.1818265
780.959	0.18178434
781.144	0.18170184
781.328	0.1815982
781.512	0.18151753
781.697	0.18144519
781.881	0.1812573
782.065	0.18106562
782.249	0.18079954
782.434	0.18063494
782.618	0.18052414
782.802	0.18046959
782.986	0.18040086
783.17	0.18031237
783.354	0.18030343
783.539	0.18028051
783.723	0.18020215
783.907	0.18004564
784.091	0.17988565
784.275	0.17970105
784.459	0.17951409
784.643	0.17930769
784.827	0.17919044
785.011	0.17911672
785.195	0.17907094
785.379	0.1790045
785.563	0.17896971
785.747	0.17892791
785.93	0.17891012
786.114	0.17879538
786.298	0.17869274
786.482	0.1785166
786.666	0.17839385
786.85	0.17820599
787.033	0.17809509
787.217	0.17785262
787.401	0.17776792
787.585	0.17765439
787.768	0.17764809
787.952	0.177502
788.136	0.17744778
788.319	0.17732479
788.503	0.17713757
788.687	0.17689409
788.87	0.17665613
789.054	0.17640935
789.237	0.17619868
789.421	0.17605087
789.605	0.17584879
789.788	0.17575846
789.972	0.17569956
790.155	0.17556422
790.338	0.17541152
790.522	0.17530743
790.705	0.1750946
790.889	0.17494461
791.072	0.17484895
791.256	0.17462817
791.439	0.17451974
791.622	0.17438935
791.806	0.17438001
791.989	0.17431825
792.172	0.17420754
792.355	0.17403377
792.539	0.17396671
792.722	0.17380664
792.905	0.17364216
793.088	0.173348
793.271	0.17309144
793.455	0.17282667
793.638	0.17262429
793.821	0.17234588
794.004	0.17214617
794.187	0.17194487
794.37	0.17170378
794.553	0.17158755
794.736	0.17156253
794.919	0.17143905
795.102	0.17140141
795.285	0.17133914
795.468	0.17125483
795.651	0.17119928
795.834	0.17105852
796.017	0.17088548
796.2	0.17072322
796.383	0.17048373
796.566	0.17035105
796.749	0.17023481
796.931	0.17005799
797.114	0.16981456
797.297	0.16958916
797.48	0.16942426
797.663	0.16935829
797.845	0.16913888
798.028	0.16900965
798.211	0.1688426
798.393	0.16878426
798.576	0.16866199
798.759	0.16856234
798.941	0.16842673
799.124	0.16829448
799.307	0.16807194
799.489	0.16793097
799.672	0.16774871
799.854	0.16759049
800.037	0.16732584
800.219	0.1670906
800.402	0.16687404
800.584	0.166636
800.767	0.1664099
800.949	0.1661426
801.132	0.16595183
801.314	0.16583608
801.496	0.16562601
801.679	0.16551045
801.861	0.1653909
802.043	0.1652744
802.226	0.16516121
802.408	0.16500421
802.59	0.16479077
802.772	0.16450538
802.955	0.16421108
803.137	0.16397169
803.319	0.16380681
803.501	0.16359562
803.684	0.1633482
803.866	0.16317894
804.048	0.16314135
804.23	0.16304215
804.412	0.16296314
804.594	0.16270063
804.776	0.16254426
804.958	0.16236255
805.14	0.16216389
805.322	0.16197921
805.504	0.16175219
805.686	0.16148962
805.868	0.16134685
806.05	0.16116036
806.232	0.16098143
806.414	0.16080497
806.596	0.16054727
806.778	0.1603032
806.96	0.16011948
807.141	0.15988644
807.323	0.15957074
807.505	0.15932484
807.687	0.15912051
807.869	0.1589082
808.05	0.1587597
808.232	0.15848348
808.414	0.15831188
808.595	0.15812679
808.777	0.15797685
808.959	0.15785146
809.14	0.1577477
809.322	0.15756451
809.504	0.15744492
809.685	0.15730118
809.867	0.15720377
810.048	0.15705766
810.23	0.15677443
810.411	0.15641974
810.593	0.15612909
810.774	0.15585498
810.956	0.1556283
811.137	0.15537353
811.319	0.15509929
811.5	0.1549025
811.681	0.15477175
811.863	0.15457971
812.044	0.15432978
812.225	0.15406299
812.407	0.15379791
812.588	0.15356825
812.769	0.15335765
812.951	0.15311652
813.132	0.15292231
813.313	0.15284415
813.494	0.15273118
813.675	0.15259707
813.857	0.15250042
814.038	0.15239311
814.219	0.15229087
814.4	0.1521023
814.581	0.1518739
814.762	0.15154533
814.943	0.15134233
815.124	0.15107796
815.305	0.15086035
815.486	0.1506189
815.667	0.15037628
815.848	0.15013149
816.029	0.14990158
816.21	0.14959708
816.391	0.14935052
816.572	0.14903808
816.753	0.14877045
816.934	0.14850632
817.115	0.14817366
817.295	0.14790716
817.476	0.1476676
817.657	0.14740791
817.838	0.14713459
818.019	0.14689483
818.199	0.14664584
818.38	0.14643081
818.561	0.14621223
818.741	0.14594267
818.922	0.14556835
819.103	0.14530152
819.283	0.14502729
819.464	0.14480125
819.645	0.14467293
819.825	0.14450628
820.006	0.14435805
820.186	0.1442442
820.367	0.14402459
820.547	0.14378605
820.728	0.1435766
820.908	0.14326953
821.089	0.14297765
821.269	0.14269319
821.45	0.14242853
821.63	0.14216783
821.81	0.14194597
821.991	0.14174904
822.171	0.1415954
822.351	0.14138471
822.532	0.14120415
822.712	0.14108564
822.892	0.14097083
823.072	0.14077121
823.253	0.14056464
823.433	0.14026395
823.613	0.14004946
823.793	0.13983464
823.973	0.13956989
824.154	0.13931625
824.334	0.13902802
824.514	0.13873121
824.694	0.13845938
824.874	0.13823098
825.054	0.1380337
825.234	0.13784314
825.414	0.13763567
825.594	0.13756506
825.774	0.13739341
825.954	0.13723174
826.134	0.13697536
826.314	0.13672408
826.494	0.13643514
826.674	0.1361806
826.854	0.13582673
827.033	0.1355692
827.213	0.13534294
827.393	0.13505148
827.573	0.13477297
827.753	0.13451254
827.932	0.13422698
828.112	0.13393206
828.292	0.13367262
828.472	0.13338289
828.651	0.13317336
828.831	0.13282612
829.011	0.13247577
829.19	0.13218519
829.37	0.13192652
829.549	0.13167608
829.729	0.13149185
829.909	0.13123914
830.088	0.131058
830.268	0.13084483
830.447	0.13059997
830.627	0.13039139
830.806	0.13005164
830.986	0.12969639
831.165	0.12942287
831.344	0.12919799
831.524	0.12901195
831.703	0.12881141
831.883	0.128574
832.062	0.12841321
832.241	0.12820347
832.421	0.12799651
832.6	0.12769757
832.779	0.12744575
832.958	0.12713028
833.138	0.12683774
833.317	0.12653552
833.496	0.1262406
833.675	0.12600183
833.854	0.12593767
834.034	0.12579421
834.213	0.12563745
834.392	0.12552139
834.571	0.12530067
834.75	0.12513032
834.929	0.12491371
835.108	0.12455717
835.287	0.1241686
835.466	0.12382798
835.645	0.12344744
835.824	0.1231514
836.003	0.12291712
836.182	0.12268775
836.361	0.12251755
836.54	0.12235766
836.719	0.12224901
836.897	0.12196992
837.076	0.12188717
837.255	0.121564
837.434	0.12120897
837.613	0.12080379
837.791	0.12048858
837.97	0.12013428
838.149	0.12000058
838.328	0.1197272
838.506	0.11956605
838.685	0.11936476
838.864	0.11917546
839.042	0.11886725
839.221	0.11852149
839.4	0.11816806
839.578	0.11776227
839.757	0.117318
839.935	0.11705905
840.114	0.11677866
840.292	0.11667325
840.471	0.11650064
840.649	0.11624822
840.828	0.11600554
841.006	0.11582964
841.185	0.11552046
841.363	0.1152644
841.541	0.11495976
841.72	0.11482608
841.898	0.11469625
842.076	0.11452309
842.255	0.11432068
842.433	0.11415617
842.611	0.11398915
842.789	0.1137354
842.968	0.11337296
843.146	0.11298316
843.324	0.11262949
843.502	0.1123394
843.68	0.11202398
843.859	0.11170267
844.037	0.11143141
844.215	0.11117593
844.393	0.11096526
844.571	0.11081644
844.749	0.11058523
844.927	0.11033629
845.105	0.11001054
845.283	0.10966493
845.461	0.1094209
845.639	0.10917876
845.817	0.10881677
845.995	0.10856087
846.173	0.1083957
846.351	0.10827343
846.529	0.10816726
846.706	0.10798097
846.884	0.10776255
847.062	0.10754457
847.24	0.10732762
847.418	0.10697505
847.595	0.10665923
847.773	0.10630677
847.951	0.105971
848.129	0.10556485
848.306	0.10536302
848.484	0.10511366
848.662	0.10492988
848.839	0.1046961
849.017	0.10452071
849.194	0.10426064
849.372	0.10413544
849.549	0.10393222
849.727	0.10366462
849.905	0.10337057
850.082	0.10319136
850.26	0.10296071
850.437	0.10274211
850.614	0.10253548
850.792	0.10229014
850.969	0.10217928
851.147	0.10202261
851.324	0.10174034
851.501	0.10150824
851.679	0.10127442
851.856	0.10094882
852.033	0.10062105
852.211	0.10017885
852.388	0.09984847
852.565	0.09952487
852.742	0.09921526
852.92	0.09899823
853.097	0.0987534
853.274	0.0984192
853.451	0.0981865
853.628	0.0979918
853.805	0.09782922
853.982	0.09761673
854.159	0.09728625
854.336	0.09703135
854.514	0.09683905
854.691	0.09663087
854.868	0.09634229
855.045	0.09608466
855.221	0.09575962
855.398	0.0954885
855.575	0.09528983
855.752	0.09511249
855.929	0.09487708
856.106	0.09460944
856.283	0.09436911
856.46	0.09420323
856.637	0.09413098
856.813	0.09384714
856.99	0.09356143
857.167	0.09324274
857.344	0.09287936
857.52	0.09250685
857.697	0.09219783
857.874	0.09176554
858.05	0.09151883
858.227	0.09120198
858.404	0.0910309
858.58	0.09097146
858.757	0.09083391
858.933	0.09060269
859.11	0.09042022
859.287	0.09017064
859.463	0.08994745
859.64	0.08977857
859.816	0.08947838
859.993	0.08922789
860.169	0.08908954
860.345	0.08886257
860.522	0.08874431
860.698	0.08865982
860.875	0.08843799
861.051	0.0883937
861.227	0.08827193
861.404	0.08808441
861.58	0.08798101
861.756	0.0877505
861.932	0.08759312
862.109	0.08732226
862.285	0.08698493
862.461	0.08673703
862.637	0.08641764
862.813	0.08613522
862.99	0.08578266
863.166	0.08538351
863.342	0.08516998
863.518	0.08490934
863.694	0.08457521
863.87	0.08438164
864.046	0.08409186
864.222	0.08393475
864.398	0.08383544
864.574	0.08363976
864.75	0.08350592
864.926	0.08339141
865.102	0.08322552
865.278	0.08308657
865.454	0.08298509
865.63	0.08266947
865.805	0.08242173
865.981	0.08215251
866.157	0.08191386
866.333	0.08161153
866.509	0.08131251
866.684	0.08092233
866.86	0.08070253
867.036	0.08041366
867.212	0.080071
867.387	0.07978639
867.563	0.07954857
867.739	0.07934366
867.914	0.07927681
868.09	0.07911566
868.265	0.07899082
868.441	0.07885547
868.617	0.07864422
868.792	0.07841878
868.968	0.07819092
869.143	0.07785692
869.319	0.07751556
869.494	0.07723453
869.67	0.07697225
869.845	0.07672598
870.02	0.07648256
870.196	0.07629711
870.371	0.07613751
870.546	0.0760648
870.722	0.07594336
870.897	0.07584323
871.072	0.07572095
871.248	0.07555719
871.423	0.07527369
871.598	0.07509003
871.773	0.07482935
871.949	0.07468064
872.124	0.07446845
872.299	0.07418626
872.474	0.07396544
872.649	0.0736925
872.824	0.0734288
872.999	0.07316752
873.174	0.07291157
873.349	0.07266038
873.524	0.07248327
873.699	0.07220993
873.874	0.07201371
874.049	0.07173565
874.224	0.07155023
874.399	0.07119403
874.574	0.07088915
874.749	0.07068217
874.924	0.07056174
875.099	0.07049096
875.274	0.07039758
875.449	0.07029076
875.623	0.07016553
875.798	0.06993399
875.973	0.06969765
876.148	0.06938718
876.322	0.06906652
876.497	0.0687513
876.672	0.06841789
876.846	0.0680124
877.021	0.06779653
877.196	0.06738795
877.37	0.06721821
877.545	0.06701422
877.72	0.06681899
877.894	0.06667081
878.069	0.0665683
878.243	0.06632108
878.418	0.0662328
878.592	0.06598153
878.767	0.06578247
878.941	0.06568174
879.116	0.0654089
879.29	0.06527899
879.464	0.06514055
879.639	0.06502589
879.813	0.06492106
879.987	0.06482544
880.162	0.06458978
880.336	0.06439439
880.51	0.06419567
880.685	0.06399206
880.859	0.06386862
881.033	0.06359845
881.207	0.06335143
881.381	0.06306819
881.556	0.06285792
881.73	0.06247758
881.904	0.06222873
882.078	0.06204627
882.252	0.0619129
882.426	0.06167303
882.6	0.06145626
882.774	0.06114323
882.948	0.06102524
883.122	0.06096146
883.296	0.06058041
883.47	0.0603431
883.644	0.06017995
883.818	0.06004224
883.992	0.06003058
884.166	0.05997254
884.34	0.0598071
884.514	0.05979964
884.687	0.05974158
884.861	0.05956149
885.035	0.05943148
885.209	0.05934458
885.382	0.05920471
885.556	0.05903779
885.73	0.05881993
885.904	0.05846423
886.077	0.058205
886.251	0.05797227
886.425	0.05764336
886.598	0.05733522
886.772	0.05714529
886.945	0.05693453
887.119	0.05688365
887.292	0.0568455
887.466	0.05662059
887.64	0.0564332
887.813	0.05632988
887.986	0.0560743
888.16	0.05572741
888.333	0.05545188
888.507	0.0551144
888.68	0.05482587
888.854	0.05467392
889.027	0.05441351
889.2	0.05419609
889.374	0.05415309
889.547	0.05400563
889.72	0.05397195
889.893	0.05399608
890.067	0.05393184
890.24	0.05388034
890.413	0.05374114
890.586	0.05355543
890.759	0.05347103
890.933	0.05335923
891.106	0.05314714
891.279	0.05296984
891.452	0.05267387
891.625	0.05247522
891.798	0.05223979
891.971	0.05205467
892.144	0.05186646
892.317	0.05175197
892.49	0.05157081
892.663	0.05150876
892.836	0.05135862
893.009	0.05125021
893.182	0.05096597
893.355	0.05073459
893.527	0.05054794
893.7	0.05025964
893.873	0.04996205
894.046	0.04973278
894.219	0.04950404
894.391	0.04921961
894.564	0.04897305
894.737	0.04870029
894.91	0.04852191
895.082	0.04838501
895.255	0.04822178
895.428	0.0480928
895.6	0.04809057
895.773	0.04788614
895.945	0.04770134
896.118	0.04761571
896.291	0.04750601
896.463	0.0473924
896.636	0.04720804
896.808	0.04698161
896.981	0.04679841
897.153	0.04651725
897.326	0.04630461
897.498	0.04604809
897.67	0.04591567
897.843	0.04583976
898.015	0.04584359
898.187	0.04584858
898.36	0.04583097
898.532	0.04567999
898.704	0.04570129
898.877	0.04559848
899.049	0.04549779
899.221	0.04526556
899.393	0.044976
899.566	0.04475809
899.738	0.04455576
899.91	0.0443007
900.082	0.04410084
900.254	0.04379489
900.426	0.04369972
900.598	0.04372321
900.77	0.04373074
900.942	0.04374298
901.114	0.04357617
901.286	0.04336906
901.458	0.04314156
901.63	0.04269601
901.802	0.04230905
901.974	0.04197951
902.146	0.04160322
902.318	0.0413575
902.49	0.04125138
902.662	0.04132973
902.834	0.04140081
903.005	0.04139263
903.177	0.04141349
903.349	0.041438
903.521	0.04153128
903.693	0.04152803
903.864	0.04140881
904.036	0.04127907
904.208	0.04118185
904.379	0.04098214
904.551	0.04100616
904.723	0.04079209
904.894	0.04050124
905.066	0.04017581
905.237	0.03994752
905.409	0.03969845
905.58	0.03947754
905.752	0.03910531
905.923	0.03898102
906.095	0.0388695
906.266	0.03891548
906.438	0.03881681
906.609	0.03876142
906.78	0.03873336
906.952	0.03869487
907.123	0.03858
907.295	0.03848405
907.466	0.03825713
907.637	0.0382067
907.808	0.03815243
907.98	0.0381426
908.151	0.03813525
908.322	0.03795431
908.493	0.03780901
908.665	0.03779325
908.836	0.03763042
909.007	0.03754691
909.178	0.03736487
909.349	0.03710643
909.52	0.03694616
909.691	0.03676632
909.862	0.03654186
910.033	0.03641796
910.204	0.03609482
910.375	0.03584438
910.546	0.03567601
910.717	0.0356458
910.888	0.03555322
911.059	0.03542523
911.23	0.03533797
911.401	0.03539706
911.572	0.03534039
911.742	0.03520143
911.913	0.03495822
912.084	0.0348625
912.255	0.03475301
912.426	0.03461796
912.596	0.03437703
912.767	0.03431677
912.938	0.03420915
913.108	0.0341778
913.279	0.03392979
913.45	0.03381178
913.62	0.03370966
913.791	0.03370874
913.962	0.03364918
914.132	0.03343789
914.303	0.03324529
914.473	0.03324533
914.644	0.03311923
914.814	0.03296085
914.985	0.03267473
915.155	0.0323088
915.326	0.03224334
915.496	0.03217417
915.666	0.03202341
915.837	0.03193067
916.007	0.03178399
916.177	0.03165569
916.348	0.03166407
916.518	0.03158155
916.688	0.0313551
916.858	0.03122575
917.029	0.03104526
917.199	0.0310066
917.369	0.03107864
917.539	0.03115235
917.709	0.03119547
917.88	0.03123859
918.05	0.0312213
918.22	0.03110638
918.39	0.03086393
918.56	0.03065156
918.73	0.03040337
918.9	0.03008316
919.07	0.02972822
919.24	0.02946893
919.41	0.02932114
919.58	0.02919749
919.75	0.02891914
919.92	0.028694
920.09	0.02849408
920.26	0.02836769
920.429	0.0282312
920.599	0.02812695
920.769	0.02813326
920.939	0.02816141
921.109	0.02812381
921.278	0.02819132
921.448	0.0282906
921.618	0.02829375
921.787	0.02828346
921.957	0.02820892
922.127	0.02816954
922.296	0.02803377
922.466	0.02791805
922.636	0.02784689
922.805	0.02786076
922.975	0.02776458
923.144	0.0276056
923.314	0.02759688
923.483	0.02742393
923.653	0.02733452
923.822	0.02713789
923.992	0.02686926
924.161	0.02671829
924.331	0.02653494
924.5	0.02621676
924.669	0.02619879
924.839	0.0261645
925.008	0.02625302
925.177	0.02620435
925.347	0.02628069
925.516	0.02635651
925.685	0.02633559
925.854	0.02640829
926.023	0.02610423
926.193	0.02585056
926.362	0.02570254
926.531	0.02544989
926.7	0.02524149
926.869	0.02511257
927.038	0.02490059
927.207	0.02500125
927.376	0.02494416
927.545	0.02489956
927.715	0.02478501
927.884	0.02481652
928.052	0.02485377
928.221	0.02483744
928.39	0.02473172
928.559	0.02474025
928.728	0.02465801
928.897	0.02468246
929.066	0.02464358
929.235	0.0244058
929.404	0.0243593
929.572	0.02424811
929.741	0.02409373
929.91	0.02409861
930.079	0.02392411
930.247	0.02366881
930.416	0.0237825
930.585	0.02358407
930.753	0.0235389
930.922	0.02348287
931.091	0.02324305
931.259	0.02317359
931.428	0.02318434
931.596	0.022863
931.765	0.02285279
931.934	0.02295113
932.102	0.02280997
932.27	0.02285959
932.439	0.02279455
932.607	0.02271625
932.776	0.02282672
932.944	0.02265408
933.113	0.02213371
933.281	0.02203889
933.449	0.02199387
933.618	0.02199697
933.786	0.02191253
933.954	0.02178996
934.123	0.02182171
934.291	0.02200445
934.459	0.02206575
934.627	0.02213083
934.795	0.02188534
934.964	0.02154057
935.132	0.02159499
935.3	0.02160761
935.468	0.02158852
935.636	0.02145855
935.804	0.02133147
935.972	0.02140175
936.14	0.02167689
936.308	0.02175859
936.476	0.02151523
936.644	0.0215045
936.812	0.0216345
936.98	0.0218611
937.148	0.02204239
937.316	0.02240877
937.484	0.02226715
937.652	0.02247816
937.82	0.02249921
937.987	0.02247771
938.155	0.0222463
938.323	0.02214155
938.491	0.02141061
938.658	0.02154786
938.826	0.02117627
938.994	0.02141509
939.162	0.02147466
939.329	0.02124583
939.497	0.02142748
939.665	0.02194285
939.832	0.0220334
940	0.0230459
940.167	0.02318171
940.335	0.02333145
940.502	0.02393011
940.67	0.02398666
940.837	0.02455422
941.005	0.02481854
941.172	0.02379977
941.34	0.02378013
941.507	0.02407759
941.674	0.02378106
941.842	0.02435435
942.009	0.02493446
942.177	0.02414353
942.344	0.0250156
942.511	0.02522133
942.678	0.02481007
942.846	0.02454568
943.013	0.02438983
943.18	0.02394497
943.347	0.02412394
943.514	0.02480097
943.682	0.0251902
943.849	0.02577853
944.016	0.02684528
944.183	0.02667985
944.35	0.02635266
944.517	0.02736737
944.684	0.02765375
944.851	0.02682041
945.018	0.02555634
945.185	0.02541491
945.352	0.02546624
945.519	0.02576575
945.686	0.02530041
945.853	0.02417471
946.02	0.02415199
946.187	0.02490571
946.353	0.02419549
946.52	0.02441385
946.687	0.02326085
946.854	0.02346067
947.021	0.0238644
947.187	0.02433025
947.354	0.02458455
947.521	0.02465992
947.687	0.02346928
947.854	0.02436112
948.021	0.02401932
948.187	0.02393729
948.354	0.02372168
948.52	0.02337784
948.687	0.02311332
948.854	0.02427583
949.02	0.02373663
949.187	0.02270351
949.353	0.02204162
949.52	0.02163388
949.686	0.02116679
949.852	0.02100087
950.019	0.02033246
950.185	0.01946044
950.352	0.01994768
950.518	0.01931247
950.684	0.01937752
950.851	0.01934484
951.017	0.01981619
951.183	0.01963462
951.349	0.01938226
951.516	0.01919567
951.682	0.01936038
951.848	0.01898006
952.014	0.01855056
952.18	0.01739294
952.346	0.01732702
952.512	0.01840221
952.679	0.01844491
952.845	0.01844925
953.011	0.01845924
953.177	0.01873429
953.343	0.01887201
953.509	0.01898252
953.675	0.0183484
953.841	0.0178887
954.007	0.01778315
954.172	0.01755633
954.338	0.01722536
954.504	0.0169998
954.67	0.01633884
954.836	0.01583716
955.002	0.01601701
955.167	0.01596083
955.333	0.01576414
955.499	0.01599854
955.665	0.01651632
955.83	0.01655121
955.996	0.01685827
956.162	0.01670493
956.327	0.01707732
956.493	0.0171599
956.659	0.01664781
956.824	0.01641825
956.99	0.0163144
957.155	0.01604347
957.321	0.0164364
957.486	0.01623819
957.652	0.01612112
957.817	0.01620417
957.983	0.01580736
958.148	0.01574744
958.314	0.01575581
958.479	0.01536003
958.644	0.01534811
958.81	0.01562886
958.975	0.01566045
959.14	0.01555362
959.306	0.01577238
959.471	0.01588332
959.636	0.01519436
959.801	0.01487963
959.967	0.0144527
960.132	0.01441702
960.297	0.01444635
960.462	0.01439677
960.627	0.01394082
960.792	0.01442343
960.957	0.01456929
961.123	0.01464402
961.288	0.01459621
961.453	0.01474665
961.618	0.01416818
961.783	0.01472617
961.948	0.0147525
962.113	0.01435709
962.277	0.01408929
962.442	0.01386833
962.607	0.01384159
962.772	0.01368515
962.937	0.01348329
963.102	0.01342521
963.267	0.01314219
963.431	0.01296952
963.596	0.01296781
963.761	0.01247231
963.926	0.01259456
964.09	0.01201121
964.255	0.01171758
964.42	0.01187907
964.584	0.01226978
964.749	0.01224259
964.914	0.01270621
965.078	0.01255008
965.243	0.0129006
965.407	0.01310628
965.572	0.01289195
965.736	0.01269782
965.901	0.0125524
966.065	0.01236249
966.23	0.0125644
966.394	0.012031
966.559	0.01166298
966.723	0.01161787
966.887	0.01124425
967.052	0.0108144
967.216	0.01031473
967.38	0.01003077
967.545	0.01043416
967.709	0.01036561
967.873	0.01027706
968.037	0.01002662
968.202	0.01009985
968.366	0.0105014
968.53	0.0107046
968.694	0.01098654
968.858	0.01105269
969.022	0.01105486
969.187	0.01141133
969.351	0.01169001
969.515	0.01155321
969.679	0.0117969
969.843	0.01151133
970.007	0.01115103
970.171	0.01133414
970.335	0.01101793
970.499	0.01080449
970.662	0.0104877
970.826	0.01013173
970.99	0.00976577
971.154	0.01025534
971.318	0.01018845
971.482	0.01066992
971.645	0.01056019
971.809	0.01056353
971.973	0.01057047
972.137	0.01076115
972.3	0.01057058
972.464	0.01071523
972.628	0.01061541
972.791	0.0109652
972.955	0.0111908
973.119	0.0110715
973.282	0.01091494
973.446	0.01101505
973.609	0.01077651
973.773	0.01038774
973.936	0.0101399
974.1	0.00953529
974.263	0.00983188
974.427	0.0097105
974.59	0.00979529
974.754	0.0092484
974.917	0.00967082
975.08	0.00940872
975.244	0.00992708
975.407	0.00941769
975.57	0.00934031
975.734	0.00914288
975.897	0.00975472
976.06	0.00945152
976.223	0.00970837
976.387	0.00986534
976.55	0.00986532
976.713	0.01020527
976.876	0.01007357
977.039	0.0094916
977.202	0.00902782
977.365	0.00901713
977.528	0.0088707
977.692	0.00905894
977.855	0.0091347
978.018	0.00904435
978.181	0.00959725
978.344	0.0104112
978.506	0.01040214
978.669	0.01029391
978.832	0.01024948
978.995	0.01007608
979.158	0.0103079
979.321	0.01010253
979.484	0.00973711
979.646	0.01006575
979.809	0.00999258
979.972	0.00991835
980.135	0.00989094
980.297	0.00964625
980.46	0.00968393
980.623	0.01002888
980.786	0.00946684
980.948	0.00919158
981.111	0.00973971
981.273	0.00958325
981.436	0.00955829
981.599	0.00946667
981.761	0.00856496
981.924	0.00868304
982.086	0.0092883
982.249	0.00873327
982.411	0.0089757
982.573	0.00898246
982.736	0.00908632
982.898	0.0094558
983.061	0.00950249
983.223	0.00872704
983.385	0.00879531
983.548	0.00894376
983.71	0.00948706
983.872	0.00963347
984.034	0.00985783
984.197	0.00987304
984.359	0.0103362
984.521	0.01039271
984.683	0.00970785
984.845	0.0095352
985.008	0.00937935
985.17	0.00962556
985.332	0.00970796
985.494	0.00987849
985.656	0.00941832
985.818	0.00994334
985.98	0.00929794
986.142	0.00948024
986.304	0.00905702
986.466	0.00901121
986.628	0.0080906
986.79	0.00840241
986.952	0.0088016
987.113	0.00897829
987.275	0.0088329
987.437	0.00912715
987.599	0.00890075
987.761	0.00994726
987.922	0.01023769
988.084	0.0096783
988.246	0.00951638
988.408	0.01014484
988.569	0.01009698
988.731	0.01042017
988.893	0.01015571
989.054	0.00952172
989.216	0.00952231
989.377	0.00971348
989.539	0.00929633
989.701	0.00918542
989.862	0.00913188
990.024	0.00939212
990.185	0.0100869
990.347	0.00946415
990.508	0.00990142
990.669	0.00982609
990.831	0.00997695
990.992	0.00953853
991.154	0.00920395
991.315	0.00941856
991.476	0.00914111
991.638	0.00824996
991.799	0.00819068
991.96	0.00777303
992.121	0.00819426
992.283	0.00815596
992.444	0.00777626
992.605	0.0086791
992.766	0.00930068
992.927	0.00873122
993.088	0.00908589
993.249	0.00908891
993.41	0.00935564
993.572	0.00945026
993.733	0.00879175
993.894	0.00899008
994.055	0.00962264
994.216	0.00958214
994.376	0.00900494
994.537	0.00873436
994.698	0.00868585
994.859	0.00867078
995.02	0.00806094
995.181	0.00767019
995.342	0.00751828
995.503	0.00763036
995.663	0.00714659
995.824	0.00711127
995.985	0.00788094
996.146	0.00789536
996.306	0.00821218
996.467	0.00813291
996.628	0.00868328
996.788	0.00974661
996.949	0.00986888
997.11	0.00996326
997.27	0.00945352
997.431	0.00931181
997.591	0.00932276
997.752	0.00920628
997.912	0.0084018
998.073	0.0077861
998.233	0.00708321
998.394	0.00776456
998.554	0.0081883
998.714	0.0076771
998.875	0.00844192
999.035	0.00827013
999.196	0.008399
999.356	0.00875526
999.516	0.00854287
999.676	0.00737818
999.837	0.00843191
999.997	0.00738346
1000.157	0.00797893
1000.317	0.00820175
1000.477	0.0089832
1000.638	0.00913334
1000.798	0.00958727
1000.958	0.00931868
1001.118	0.0100089
1001.278	0.00924039
1001.438	0.00936432
1001.598	0.00778065
1001.758	0.00869755
1001.918	0.00934677
1002.078	0.00871291
1002.238	0.00835297
1002.398	0.00983721
1002.558	0.00947828
1002.718	0.01043154
1002.878	0.00928623
1003.037	0.008519
1003.197	0.00944183
1003.357	0.00989491
1003.517	0.00861579
1003.677	0.00891353
1003.836	0.00890351
1003.996	0.0100442
1004.156	0.01091353
1004.315	0.00998797
1004.475	0.00928034
1004.635	0.01025716
1004.794	0.01009539
1004.954	0.00999769
1005.114	0.00927639
1005.273	0.00936425
1005.433	0.01015011
1005.592	0.01057401
1005.752	0.01056375
1005.911	0.01107819
1006.071	0.01115398
1006.23	0.01212931
1006.389	0.01212353
1006.549	0.0123454
1006.708	0.01179573
1006.868	0.01096151
1007.027	0.01118584
1007.186	0.01149784
1007.345	0.01161959
1007.505	0.01048912
1007.664	0.00931585
1007.823	0.01028819
1007.982	0.01143409
1008.142	0.01111064
1008.301	0.01119691
1008.46	0.01017671
1008.619	0.01177579
1008.778	0.01294473
1008.937	0.01312616
1009.096	0.01171896
1009.255	0.01215441
1009.414	0.01308444
1009.573	0.01291809
1009.732	0.01287955
1009.891	0.01187484
1010.05	0.01227413
1010.209	0.01349084
1010.368	0.01193842
1010.527	0.01086639
1010.686	0.01280346
1010.845	0.01218432
1011.003	0.01205216
1011.162	0.01100413
1011.321	0.0115012
1011.48	0.01474846
1011.638	0.0148542
1011.797	0.01286078
1011.956	0.01217568
1012.115	0.01419091
1012.273	0.01554781
1012.432	0.01638028
1012.59	0.01528459
1012.749	0.01673836
1012.908	0.017131
1013.066	0.01775857
1013.225	0.01586372
1013.383	0.01371735
1013.542	0.01101543
1013.7	0.01026026
1013.859	0.00730728
1014.017	0.00564897
1014.175	0.00589586
1014.334	0.00644162
1014.492	0.00745565
1014.65	0.01016972
1014.809	0.00991465
1014.967	0.01316275
1015.125	0.01503574
1015.284	0.01620826
1015.442	0.0149144
1015.6	0.01522652
1015.758	0.01210828
1015.916	0.01352352
1016.075	0.01196937
1016.233	0.01131345
1016.391	0.01023381
1016.549	0.01280658
1016.707	0.01223679
1016.865	0.01320989
1017.023	0.01078286
1017.181	0.0081289
1017.339	0.00971176
1017.497	0.00966535
1017.655	0.01050244
1017.813	0.0117448
1017.971	0.0142924
1018.129	0.01681247
1018.286	0.02249274
1018.444	0.01943347
1018.602	0.02002255
1018.76	0.01863782
1018.918	0.01718422
1019.075	0.01646472
1019.233	0.01529163
1019.391	0.01212318
1019.549	0.01538507
1019.706	0.01637068
1019.864	0.01704762
1020.022	0.01701142
1020.179	0.01635566
1020.337	0.01698488
1020.494	0.01646569
1020.652	0.01653416
1020.809	0.01456552
1020.967	0.01526092
1021.124	0.01749288
1021.282	0.01891624
1021.439	0.02209748
1021.597	0.0248258
1021.754	0.02627044
1021.911	0.0293526
1022.069	0.02883694
1022.226	0.02829221
1022.384	0.02547205
1022.541	0.01965759
1022.698	0.02067822
1022.855	0.01819914
1023.013	0.01694753
1023.17	0.01656935
1023.327	0.01520081
1023.484	0.01561338
1023.641	0.01813058
1023.798	0.01347991
1023.956	0.01285984
1024.113	0.01313501
1024.27	0.00954764
1024.427	0.01207879
1024.584	0.01298285
1024.741	0.01293307
1024.898	0.01318429
1025.055	0.01700994
1025.212	0.01625966
1025.369	0.0218874
1025.525	0.01886756
1025.682	0.02168842
1025.839	0.02402646
1025.996	0.02793287
1026.153	0.0266052
1026.31	0.02524843
1026.466	0.02407017
1026.623	0.02769489
1026.78	0.02626129
1026.937	0.02233946
1027.093	0.02106123
1027.25	0.02192611
1027.407	0.0232832
1027.563	0.01731806
1027.72	0.01788499
1027.876	0.01848289
1028.033	0.02253238
1028.19	0.02478161
1028.346	0.02343792
1028.503	0.02570129
1028.659	0.03092634
1028.816	0.02839485
1028.972	0.02914008
1029.128	0.03094714
1029.285	0.0300246
1029.441	0.03035523
1029.598	0.0328594
1029.754	0.03747475
1029.91	0.03803649
1030.067	0.03344391
1030.223	0.03134225
1030.379	0.03406239
1030.535	0.03253128
1030.691	0.03099247
1030.848	0.02626163
1031.004	0.03398212
1031.16	0.04395352
1031.316	0.04064321
1031.472	0.03703294
1031.628	0.03906693
1031.784	0.03854781
1031.94	0.04489562
1032.096	0.03951462
1032.252	0.03171892
1032.408	0.03762108
1032.564	0.03772796
1032.72	0.03427812
1032.876	0.0380311
1033.032	0.03379251
1033.188	0.03326884
1033.344	0.03842339
1033.5	0.03906511
1033.655	0.03947314
1033.811	0.0474555
1033.967	0.04705156
