Data from 0_1_mm_pl_90pc_Absorbance__0__17-56-47-159.txt Node

Date: Wed Mar 01 17:56:47 CET 2023
User: Ange
Spectrometer: FLMT08341
Trigger mode: 0
Integration Time (sec): 1.000000E-2
Scans to average: 400
Electric dark correction enabled: true
Nonlinearity correction enabled: false
Boxcar width: 3
XAxis mode: Wavelengths
Number of Pixels in Spectrum: 3648
>>>>>Begin Spectral Data<<<<<
345.271	-0.02690284
345.487	-0.02536889
345.704	-0.02927492
345.921	-0.02943494
346.137	-0.03074104
346.354	-0.03032836
346.571	-0.03968533
346.787	-0.02809907
347.004	-0.08979593
347.22	-0.13755518
347.437	-0.21767744
347.653	-0.22914556
347.87	0.16794802
348.086	0.06414392
348.303	-0.22286278
348.519	0.04976043
348.736	0.04762881
348.952	0.05189839
349.169	0.05289415
349.385	0.05189647
349.601	0.05426437
349.818	0.05322916
350.034	0.05165634
350.251	0.05179676
350.467	0.05122375
350.683	0.05152643
350.9	0.051821
351.116	0.04994927
351.332	0.048285
351.549	0.04901218
351.765	0.04856669
351.981	0.04828738
352.197	0.04876979
352.414	0.05076349
352.63	0.05151712
352.846	0.05189801
353.062	0.05055772
353.278	0.04991894
353.495	0.05070633
353.711	0.04860932
353.927	0.04669583
354.143	0.04587357
354.359	0.046538
354.575	0.04652366
354.792	0.04605918
355.008	0.0438486
355.224	0.0434945
355.44	0.04301762
355.656	0.04264561
355.872	0.04211425
356.088	0.04370869
356.304	0.04319802
356.52	0.04281089
356.736	0.0430166
356.952	0.04393638
357.168	0.04356918
357.384	0.04389562
357.6	0.04079541
357.816	0.0414988
358.032	0.0441919
358.248	0.04414965
358.464	0.04285847
358.679	0.04351203
358.895	0.04258079
359.111	0.04349791
359.327	0.04162274
359.543	0.03949486
359.759	0.039339
359.974	0.04015594
360.19	0.03975084
360.406	0.03915505
360.622	0.03911779
360.838	0.03919452
361.053	0.03995464
361.269	0.03969007
361.485	0.03840202
361.701	0.03728279
361.916	0.03685624
362.132	0.03686995
362.348	0.03754115
362.563	0.03588896
362.779	0.03583693
362.995	0.03621101
363.21	0.03687623
363.426	0.03642725
363.641	0.03625444
363.857	0.03648027
364.073	0.03658418
364.288	0.03586888
364.504	0.03547037
364.719	0.03488818
364.935	0.03496364
365.15	0.03545241
365.366	0.03397276
365.581	0.03386269
365.797	0.03471694
366.012	0.03367164
366.228	0.03420953
366.443	0.03549715
366.658	0.03432972
366.874	0.0339568
367.089	0.03439033
367.305	0.03361342
367.52	0.0344614
367.735	0.03465427
367.951	0.03374186
368.166	0.03458505
368.381	0.03606719
368.597	0.03638005
368.812	0.03672534
369.027	0.03699109
369.243	0.03623883
369.458	0.03514655
369.673	0.03537353
369.888	0.03474924
370.104	0.03409813
370.319	0.03402739
370.534	0.03343081
370.749	0.03344265
370.964	0.03499334
371.179	0.03453982
371.395	0.03419665
371.61	0.03399337
371.825	0.03390745
372.04	0.03382242
372.255	0.03388972
372.47	0.03271272
372.685	0.03206519
372.9	0.0319369
373.115	0.0321614
373.33	0.03172832
373.545	0.03141988
373.76	0.03060535
373.975	0.03064817
374.19	0.03048687
374.405	0.02963886
374.62	0.02988996
374.835	0.02954643
375.05	0.03023381
375.265	0.03019613
375.48	0.02998281
375.695	0.02966333
375.91	0.0299278
376.125	0.02952155
376.339	0.0292884
376.554	0.0285204
376.769	0.02840497
376.984	0.02832402
377.199	0.02847741
377.414	0.02904719
377.628	0.02889933
377.843	0.02908538
378.058	0.02934692
378.273	0.02996707
378.487	0.03040875
378.702	0.03047911
378.917	0.03048383
379.131	0.03008141
379.346	0.03039602
379.561	0.03024183
379.775	0.02950808
379.99	0.02896903
380.205	0.02943685
380.419	0.02897037
380.634	0.02872808
380.848	0.02826324
381.063	0.02828381
381.278	0.0291486
381.492	0.02910443
381.707	0.0286683
381.921	0.02853692
382.136	0.0288204
382.35	0.02936364
382.565	0.02954475
382.779	0.02913448
382.994	0.02899308
383.208	0.02840828
383.422	0.02881856
383.637	0.02883816
383.851	0.02912467
384.066	0.02889078
384.28	0.02818484
384.494	0.02867021
384.709	0.02914657
384.923	0.02860708
385.137	0.02809358
385.352	0.02739803
385.566	0.02681211
385.78	0.0273405
385.995	0.02713819
386.209	0.02721899
386.423	0.02751253
386.637	0.02773647
386.852	0.02813289
387.066	0.02885368
387.28	0.02841107
387.494	0.0282932
387.708	0.02810704
387.923	0.0277591
388.137	0.02812057
388.351	0.0275398
388.565	0.02720217
388.779	0.026922
388.993	0.02744103
389.207	0.02715541
389.421	0.02680723
389.635	0.02644902
389.85	0.0266851
390.064	0.02678894
390.278	0.02750476
390.492	0.0273697
390.706	0.02783698
390.92	0.02827656
391.134	0.02795636
391.348	0.02829625
391.561	0.02821035
391.775	0.02770203
391.989	0.02725919
392.203	0.02679548
392.417	0.02638422
392.631	0.02687371
392.845	0.02648388
393.059	0.02671123
393.273	0.02695167
393.486	0.02669983
393.7	0.02646713
393.914	0.02671201
394.128	0.02675703
394.342	0.02678549
394.555	0.02642084
394.769	0.02606453
394.983	0.02573538
395.197	0.02616953
395.41	0.02657507
395.624	0.02643103
395.838	0.02625586
396.051	0.02639849
396.265	0.02646604
396.479	0.02685674
396.692	0.02691246
396.906	0.02683528
397.12	0.026835
397.333	0.02716841
397.547	0.02683461
397.76	0.02736359
397.974	0.02756502
398.187	0.02737806
398.401	0.02703314
398.614	0.02703427
398.828	0.02678473
399.041	0.02710079
399.255	0.02668513
399.468	0.026429
399.682	0.02648491
399.895	0.02659807
400.109	0.02663749
400.322	0.02672102
400.536	0.02655706
400.749	0.02648003
400.962	0.0265979
401.176	0.02643706
401.389	0.02647435
401.602	0.02601317
401.816	0.02591766
402.029	0.02562841
402.242	0.0253219
402.456	0.0252243
402.669	0.02510051
402.882	0.02510118
403.095	0.02509783
403.309	0.02486678
403.522	0.0249971
403.735	0.02548568
403.948	0.02553664
404.161	0.02582932
404.375	0.02577313
404.588	0.02607198
404.801	0.02629037
405.014	0.02613541
405.227	0.02607747
405.44	0.02595771
405.653	0.02556416
405.866	0.02534644
406.079	0.02547528
406.293	0.02522449
406.506	0.02535434
406.719	0.0256555
406.932	0.02568324
407.145	0.02602714
407.358	0.02629967
407.571	0.02606482
407.784	0.02607199
407.996	0.02623891
408.209	0.02541328
408.422	0.02529962
408.635	0.02508428
408.848	0.02479476
409.061	0.02428222
409.274	0.02436584
409.487	0.02389879
409.7	0.02397448
409.912	0.02401453
410.125	0.02398046
410.338	0.02398354
410.551	0.02429852
410.764	0.02407738
410.976	0.02433123
411.189	0.02425535
411.402	0.02419743
411.615	0.02398395
411.827	0.02407203
412.04	0.0238991
412.253	0.02403897
412.465	0.02395872
412.678	0.02441642
412.891	0.02447967
413.103	0.02461836
413.316	0.02457287
413.529	0.02489874
413.741	0.02500894
413.954	0.02524058
414.166	0.02493493
414.379	0.0246559
414.591	0.02454842
414.804	0.02429279
415.016	0.02401859
415.229	0.02351587
415.441	0.0235333
415.654	0.02360027
415.866	0.02359511
416.079	0.02343503
416.291	0.02360069
416.504	0.02355496
416.716	0.02373016
416.928	0.02335581
417.141	0.02289529
417.353	0.02297847
417.566	0.02312195
417.778	0.02297271
417.99	0.0228087
418.203	0.02264523
418.415	0.0227541
418.627	0.02301834
418.839	0.02286867
419.052	0.02289814
419.264	0.02269026
419.476	0.0228102
419.688	0.02277298
419.901	0.02236764
420.113	0.02226683
420.325	0.02238469
420.537	0.02217293
420.749	0.02230763
420.961	0.02213977
421.174	0.02218881
421.386	0.02236206
421.598	0.02251541
421.81	0.02243691
422.022	0.02221614
422.234	0.02219394
422.446	0.02221645
422.658	0.02207308
422.87	0.0219042
423.082	0.02156256
423.294	0.02127428
423.506	0.0213384
423.718	0.02087518
423.93	0.02064716
424.142	0.02050569
424.354	0.02043048
424.566	0.0205077
424.778	0.02056949
424.99	0.0205605
425.202	0.0207387
425.414	0.02070544
425.625	0.0208169
425.837	0.02074365
426.049	0.02063244
426.261	0.02044789
426.473	0.02025308
426.684	0.0200346
426.896	0.01993626
427.108	0.01985563
427.32	0.01982334
427.531	0.01979141
427.743	0.01974909
427.955	0.0198497
428.167	0.01994212
428.378	0.01970747
428.59	0.01961952
428.802	0.01960237
429.013	0.01953839
429.225	0.01944877
429.436	0.01925812
429.648	0.0189496
429.86	0.01916443
430.071	0.01899259
430.283	0.01885746
430.494	0.01881089
430.706	0.01888935
430.917	0.0187254
431.129	0.01885919
431.34	0.01865859
431.552	0.0186058
431.763	0.01848265
431.975	0.01832494
432.186	0.0180243
432.398	0.01799856
432.609	0.01793566
432.821	0.01802279
433.032	0.0179464
433.243	0.01806284
433.455	0.01799302
433.666	0.01799267
433.877	0.01808189
434.089	0.01805728
434.3	0.01793243
434.511	0.01785374
434.723	0.01764308
434.934	0.01757346
435.145	0.01765756
435.356	0.01749414
435.568	0.01739998
435.779	0.01715766
435.99	0.01721162
436.201	0.01718465
436.412	0.01694189
436.624	0.01681443
436.835	0.01668068
437.046	0.01667249
437.257	0.01676485
437.468	0.01660659
437.679	0.01632084
437.89	0.01622843
438.101	0.01612458
438.312	0.01599463
438.523	0.01573155
438.734	0.01562603
438.945	0.01551971
439.156	0.01564485
439.367	0.0156957
439.578	0.01571434
439.789	0.01561046
440	0.01570382
440.211	0.01550601
440.422	0.01527145
440.633	0.0151828
440.844	0.01504207
441.055	0.01476948
441.266	0.01479134
441.477	0.01465528
441.687	0.01460742
441.898	0.0145765
442.109	0.01427849
442.32	0.01429864
442.531	0.01436988
442.741	0.01416986
442.952	0.01406172
443.163	0.01393776
443.374	0.01381111
443.584	0.013804
443.795	0.01364954
444.006	0.013406
444.216	0.01329454
444.427	0.01331342
444.638	0.01328427
444.848	0.01329176
445.059	0.01326216
445.27	0.01313943
445.48	0.01311117
445.691	0.01309077
445.901	0.01283652
446.112	0.01279539
446.323	0.01274255
446.533	0.01273066
446.744	0.01279468
446.954	0.01270541
447.165	0.01262934
447.375	0.0125194
447.586	0.01241297
447.796	0.01230604
448.006	0.01216979
448.217	0.01201541
448.427	0.01189269
448.638	0.01176058
448.848	0.01169762
449.058	0.01167602
449.269	0.01159068
449.479	0.01162014
449.689	0.01158298
449.9	0.01158077
450.11	0.01156455
450.32	0.01152121
450.531	0.01139321
450.741	0.01144712
450.951	0.01121474
451.161	0.01117301
451.372	0.01102226
451.582	0.0110086
451.792	0.01095004
452.002	0.01082821
452.212	0.01068414
452.422	0.01066631
452.633	0.01054147
452.843	0.01049114
453.053	0.01050672
453.263	0.01041712
453.473	0.01043299
453.683	0.01027861
453.893	0.01015888
454.103	0.01012289
454.313	0.01003616
454.523	0.00991276
454.733	0.00987254
454.943	0.0097513
455.153	0.00972701
455.363	0.00957734
455.573	0.00947254
455.783	0.0094881
455.993	0.00943353
456.203	0.00945683
456.413	0.0094378
456.623	0.00932571
456.833	0.0094505
457.042	0.00931939
457.252	0.0091757
457.462	0.00911742
457.672	0.00892435
457.882	0.0089137
458.091	0.00893036
458.301	0.00879558
458.511	0.00874347
458.721	0.00876763
458.931	0.00854701
459.14	0.00858196
459.35	0.00851976
459.56	0.00854748
459.769	0.00852826
459.979	0.00864036
460.189	0.00845337
460.398	0.00839286
460.608	0.00840261
460.817	0.00834156
461.027	0.00817615
461.237	0.00827236
461.446	0.00806056
461.656	0.00815499
461.865	0.00825171
462.075	0.00818218
462.284	0.00810504
462.494	0.00809613
462.703	0.00786315
462.913	0.00785507
463.122	0.0078763
463.332	0.00782035
463.541	0.00785992
463.751	0.00782519
463.96	0.00779471
464.169	0.00770222
464.379	0.0076793
464.588	0.00745332
464.797	0.00738429
465.007	0.00717871
465.216	0.00719691
465.425	0.00715174
465.635	0.00716728
465.844	0.007108
466.053	0.00714777
466.263	0.00710356
466.472	0.00719642
466.681	0.00713768
466.89	0.00718552
467.099	0.00720149
467.309	0.00717091
467.518	0.00723838
467.727	0.0073189
467.936	0.00712126
468.145	0.0070987
468.354	0.0069967
468.563	0.00689712
468.772	0.0068185
468.982	0.00671657
469.191	0.00664651
469.4	0.00661544
469.609	0.00646446
469.818	0.0064541
470.027	0.00642891
470.236	0.0063915
470.445	0.00633985
470.654	0.0062565
470.863	0.00626616
471.072	0.00633456
471.28	0.00625886
471.489	0.00627876
471.698	0.00621785
471.907	0.00620616
472.116	0.00613732
472.325	0.00612558
472.534	0.00615449
472.743	0.00621141
472.951	0.00621209
473.16	0.00623099
473.369	0.00626032
473.578	0.00632005
473.786	0.00635142
473.995	0.00621194
474.204	0.00615841
474.413	0.00616874
474.621	0.00621779
474.83	0.00616466
475.039	0.00611525
475.247	0.00599968
475.456	0.00611438
475.665	0.00608404
475.873	0.00605085
476.082	0.00607786
476.291	0.00609222
476.499	0.00616025
476.708	0.00630899
476.916	0.00622607
477.125	0.0061642
477.333	0.00611499
477.542	0.00599141
477.75	0.00586471
477.959	0.00580939
478.167	0.00572478
478.376	0.00567511
478.584	0.00574704
478.793	0.0057891
479.001	0.00586335
479.209	0.00599129
479.418	0.00600756
479.626	0.00606046
479.834	0.0060816
480.043	0.00605595
480.251	0.00607785
480.459	0.00606842
480.668	0.00601774
480.876	0.00599106
481.084	0.00590652
481.293	0.00599957
481.501	0.0060564
481.709	0.00606065
481.917	0.00610593
482.125	0.00606755
482.334	0.00608232
482.542	0.00619086
482.75	0.00610331
482.958	0.00604505
483.166	0.00600896
483.374	0.0060391
483.583	0.00613104
483.791	0.00611235
483.999	0.00608747
484.207	0.00613398
484.415	0.00618886
484.623	0.00623536
484.831	0.00620338
485.039	0.00624894
485.247	0.00630523
485.455	0.00630261
485.663	0.00637997
485.871	0.00641473
486.079	0.00643576
486.287	0.00650101
486.495	0.0064801
486.702	0.00657103
486.91	0.006571
487.118	0.00653505
487.326	0.00651055
487.534	0.00655
487.742	0.00647527
487.95	0.00646396
488.157	0.00634238
488.365	0.0064189
488.573	0.00646683
488.781	0.00650561
488.988	0.00647086
489.196	0.00652839
489.404	0.00658154
489.612	0.00667853
489.819	0.00673857
490.027	0.00671816
490.235	0.00674999
490.442	0.0067723
490.65	0.00684482
490.857	0.00684635
491.065	0.00681024
491.273	0.00668033
491.48	0.00673847
491.688	0.00676643
491.895	0.0068704
492.103	0.00686371
492.31	0.00694925
492.518	0.00704207
492.725	0.00715195
492.933	0.00713162
493.14	0.00718105
493.348	0.00711992
493.555	0.00717004
493.763	0.00713867
493.97	0.00718204
494.177	0.00722055
494.385	0.00728239
494.592	0.00734187
494.8	0.00745125
495.007	0.00746459
495.214	0.00752122
495.422	0.00754638
495.629	0.00756329
495.836	0.00765379
496.043	0.00766708
496.251	0.0077061
496.458	0.00776643
496.665	0.00787353
496.872	0.00791282
497.08	0.00802439
497.287	0.00807226
497.494	0.00813699
497.701	0.00817496
497.908	0.00818695
498.115	0.00823884
498.322	0.00831597
498.53	0.0082879
498.737	0.00830587
498.944	0.00836853
499.151	0.00837148
499.358	0.00849593
499.565	0.00848446
499.772	0.00853218
499.979	0.00864569
500.186	0.00863106
500.393	0.00866049
500.6	0.0087729
500.807	0.00873729
501.014	0.0088477
501.221	0.00886871
501.427	0.00889042
501.634	0.00899661
501.841	0.00903934
502.048	0.00910787
502.255	0.0092185
502.462	0.00923967
502.669	0.00927702
502.875	0.00934151
503.082	0.009418
503.289	0.00948348
503.496	0.00949884
503.702	0.00955491
503.909	0.00958651
504.116	0.00965141
504.323	0.00965774
504.529	0.0096863
504.736	0.00978436
504.943	0.00987771
505.149	0.00987994
505.356	0.00993355
505.563	0.01004331
505.769	0.01018486
505.976	0.01022011
506.182	0.01018626
506.389	0.01024611
506.595	0.01036639
506.802	0.01041075
507.008	0.01047598
507.215	0.01053293
507.421	0.01064719
507.628	0.01074417
507.834	0.01076593
508.041	0.01082019
508.247	0.01095829
508.454	0.01099773
508.66	0.01106646
508.866	0.01111799
509.073	0.01123645
509.279	0.01133695
509.486	0.01140453
509.692	0.01149573
509.898	0.01160228
510.105	0.01167086
510.311	0.01173255
510.517	0.01175021
510.723	0.01185339
510.93	0.01200418
511.136	0.01200801
511.342	0.01205821
511.548	0.01212068
511.754	0.01227518
511.961	0.01242376
512.167	0.01247945
512.373	0.01247925
512.579	0.01255433
512.785	0.01264081
512.991	0.0127022
513.197	0.01268632
513.404	0.01272258
513.61	0.01278421
513.816	0.0129042
514.022	0.01299
514.228	0.01304776
514.434	0.01316606
514.64	0.0132963
514.846	0.01339245
515.052	0.0134898
515.258	0.01354857
515.464	0.01366291
515.669	0.01379112
515.875	0.01384023
516.081	0.01393148
516.287	0.01401517
516.493	0.01407466
516.699	0.01416626
516.905	0.0142435
517.111	0.01431089
517.316	0.01444385
517.522	0.01456586
517.728	0.01471528
517.934	0.01485325
518.139	0.01493888
518.345	0.01502365
518.551	0.01516921
518.757	0.01524717
518.962	0.0153368
519.168	0.01540345
519.374	0.01545046
519.579	0.01560099
519.785	0.01573921
519.991	0.01581553
520.196	0.01589872
520.402	0.01600949
520.607	0.01610159
520.813	0.01627031
521.018	0.01632301
521.224	0.01644326
521.429	0.01655685
521.635	0.01669194
521.84	0.01674249
522.046	0.01681588
522.251	0.01690132
522.457	0.01699471
522.662	0.01708782
522.868	0.01720743
523.073	0.01731234
523.279	0.01746179
523.484	0.01762411
523.689	0.01775295
523.895	0.01791406
524.1	0.01802165
524.305	0.01806338
524.511	0.01816169
524.716	0.01827052
524.921	0.01835176
525.126	0.01839563
525.332	0.01849645
525.537	0.01864509
525.742	0.01883918
525.947	0.0189885
526.153	0.01911531
526.358	0.01928041
526.563	0.0194654
526.768	0.01960763
526.973	0.01972873
527.178	0.01985684
527.383	0.01998889
527.588	0.02011496
527.794	0.02015221
527.999	0.02026656
528.204	0.02037816
528.409	0.02047456
528.614	0.02055597
528.819	0.02067668
529.024	0.02080318
529.229	0.0210211
529.434	0.02112428
529.639	0.0212305
529.843	0.02136844
530.048	0.02152647
530.253	0.0216893
530.458	0.02188433
530.663	0.02205405
530.868	0.02226841
531.073	0.0224427
531.278	0.0226149
531.482	0.0227483
531.687	0.02285498
531.892	0.02295343
532.097	0.02304401
532.302	0.02313994
532.506	0.02332182
532.711	0.02344323
532.916	0.02360121
533.12	0.02376079
533.325	0.023901
533.53	0.02410627
533.734	0.02429316
533.939	0.02443284
534.144	0.02457244
534.348	0.02475728
534.553	0.02493076
534.757	0.0250813
534.962	0.02520368
535.167	0.02534876
535.371	0.02549752
535.576	0.02569868
535.78	0.02584371
535.985	0.02602223
536.189	0.02620966
536.394	0.02637031
536.598	0.02660165
536.803	0.02680328
537.007	0.02700928
537.211	0.02720385
537.416	0.02734688
537.62	0.02757809
537.825	0.02775319
538.029	0.02787116
538.233	0.02800638
538.438	0.02813661
538.642	0.02828277
538.846	0.02849936
539.05	0.02862823
539.255	0.02880508
539.459	0.02899447
539.663	0.02920177
539.867	0.02939738
540.072	0.02960218
540.276	0.02978355
540.48	0.02996353
540.684	0.03013824
540.888	0.03030059
541.092	0.03049862
541.297	0.03067571
541.501	0.03088533
541.705	0.03105301
541.909	0.03127736
542.113	0.03146405
542.317	0.03165448
542.521	0.03180479
542.725	0.03204344
542.929	0.03222083
543.133	0.03244314
543.337	0.03263235
543.541	0.03285225
543.745	0.03309243
543.949	0.03330993
544.153	0.03346176
544.357	0.0337008
544.56	0.03393503
544.764	0.03413372
544.968	0.03435584
545.172	0.03457794
545.376	0.0348097
545.58	0.03503519
545.783	0.03516453
545.987	0.03531865
546.191	0.0355175
546.395	0.03574276
546.598	0.03596007
546.802	0.03616274
547.006	0.03636583
547.21	0.03662747
547.413	0.03689435
547.617	0.03715364
547.821	0.03733729
548.024	0.03754187
548.228	0.03773487
548.431	0.03794095
548.635	0.03817734
548.839	0.0384108
549.042	0.03865278
549.246	0.03891789
549.449	0.03919205
549.653	0.03946025
549.856	0.03974272
550.06	0.04002801
550.263	0.0402576
550.467	0.04046745
550.67	0.0406709
550.874	0.04084737
551.077	0.04106749
551.28	0.04131767
551.484	0.04149308
551.687	0.04170509
551.891	0.04195516
552.094	0.04224496
552.297	0.04253112
552.501	0.04283947
552.704	0.04311195
552.907	0.04338236
553.11	0.04364229
553.314	0.04390012
553.517	0.04414637
553.72	0.04439732
553.923	0.04461367
554.127	0.04482329
554.33	0.04507238
554.533	0.04533176
554.736	0.04558363
554.939	0.04582053
555.142	0.04605476
555.345	0.04631694
555.549	0.04657669
555.752	0.04682832
555.955	0.04710126
556.158	0.04737578
556.361	0.0476721
556.564	0.04795082
556.767	0.04829328
556.97	0.04860214
557.173	0.04886487
557.376	0.04912741
557.579	0.0493819
557.782	0.04961655
557.984	0.04993315
558.187	0.05015197
558.39	0.05042844
558.593	0.05073164
558.796	0.05099434
558.999	0.0512774
559.202	0.05160493
559.404	0.05184442
559.607	0.0521434
559.81	0.0524186
560.013	0.05271543
560.216	0.05303243
560.418	0.05333381
560.621	0.05364815
560.824	0.0539881
561.026	0.05428201
561.229	0.05461575
561.432	0.05494271
561.634	0.05526432
561.837	0.0555412
562.04	0.05580299
562.242	0.05608582
562.445	0.05636866
562.647	0.05665121
562.85	0.05689505
563.053	0.0571894
563.255	0.05754961
563.458	0.05783483
563.66	0.05816198
563.863	0.05849398
564.065	0.05880102
564.268	0.05914665
564.47	0.05947942
564.672	0.05977702
564.875	0.06011652
565.077	0.06041577
565.28	0.06074203
565.482	0.06109812
565.684	0.06135635
565.887	0.06157643
566.089	0.06190076
566.291	0.06220906
566.494	0.06250947
566.696	0.06277976
566.898	0.06307077
567.1	0.06342964
567.303	0.06382166
567.505	0.06414282
567.707	0.06444048
567.909	0.06477195
568.111	0.06515166
568.314	0.06547997
568.516	0.06578727
568.718	0.06609815
568.92	0.06641592
569.122	0.06671583
569.324	0.06708051
569.526	0.06740147
569.728	0.06773089
569.93	0.06809983
570.132	0.06845249
570.334	0.06877257
570.536	0.06918291
570.738	0.06948097
570.94	0.06974975
571.142	0.07007151
571.344	0.07043614
571.546	0.0707528
571.748	0.07111387
571.95	0.07140433
572.152	0.07176403
572.354	0.07216793
572.555	0.07250693
572.757	0.07280023
572.959	0.07316796
573.161	0.07351625
573.363	0.07388268
573.564	0.0742705
573.766	0.07459165
573.968	0.0749794
574.17	0.07535535
574.371	0.07572677
574.573	0.07607304
574.775	0.07644916
574.976	0.07673671
575.178	0.07711201
575.38	0.07739971
575.581	0.07770342
575.783	0.07804399
575.985	0.07840321
576.186	0.07874774
576.388	0.07911118
576.589	0.07944419
576.791	0.07987556
576.992	0.08029858
577.194	0.08062175
577.395	0.0809935
577.597	0.0813594
577.798	0.0817471
578	0.08212952
578.201	0.08251526
578.402	0.08284606
578.604	0.08318591
578.805	0.08348692
579.007	0.0838072
579.208	0.08417237
579.409	0.08450001
579.611	0.08479484
579.812	0.08518656
580.013	0.08563136
580.215	0.08600358
580.416	0.08640136
580.617	0.08673809
580.818	0.08711418
581.019	0.08748019
581.221	0.08781667
581.422	0.08815596
581.623	0.08859238
581.824	0.08894428
582.025	0.08936815
582.226	0.08976926
582.428	0.09018377
582.629	0.09057447
582.83	0.0910123
583.031	0.09135901
583.232	0.09175828
583.433	0.09211457
583.634	0.09250045
583.835	0.09283435
584.036	0.09319132
584.237	0.09350509
584.438	0.09389419
584.639	0.09428821
584.84	0.09468968
585.041	0.09506984
585.242	0.09544935
585.442	0.0958577
585.643	0.09625706
585.844	0.0966177
586.045	0.09697871
586.246	0.09727183
586.447	0.09761586
586.647	0.09800211
586.848	0.09833589
587.049	0.09869075
587.25	0.09906694
587.45	0.09943817
587.651	0.09987793
587.852	0.10028872
588.053	0.10067514
588.253	0.10110125
588.454	0.10151866
588.655	0.10187261
588.855	0.10224149
589.056	0.10263533
589.256	0.10301659
589.457	0.10339114
589.658	0.10376653
589.858	0.10408272
590.059	0.10445813
590.259	0.10484201
590.46	0.10519028
590.66	0.10556925
590.861	0.10597984
591.061	0.10634653
591.262	0.10676993
591.462	0.10719444
591.662	0.10761939
591.863	0.10799799
592.063	0.10835517
592.264	0.10872673
592.464	0.10908497
592.664	0.10946016
592.865	0.10985221
593.065	0.11017252
593.265	0.11056546
593.465	0.11093811
593.666	0.11134343
593.866	0.11172851
594.066	0.11215276
594.266	0.11248385
594.467	0.1128963
594.667	0.11325871
594.867	0.11370049
595.067	0.11399773
595.267	0.11435854
595.467	0.11467781
595.668	0.11507726
595.868	0.11544685
596.068	0.11582065
596.268	0.11608545
596.468	0.11650058
596.668	0.11688381
596.868	0.11728115
597.068	0.11761247
597.268	0.11800601
597.468	0.11835357
597.668	0.11877542
597.868	0.11912355
598.068	0.11954741
598.268	0.11988474
598.467	0.12031777
598.667	0.12064038
598.867	0.12097531
599.067	0.12136834
599.267	0.12171331
599.467	0.12205347
599.667	0.12239737
599.866	0.12275235
600.066	0.12312131
600.266	0.12353733
600.466	0.12390379
600.665	0.12427244
600.865	0.12463797
601.065	0.12501708
601.264	0.12533315
601.464	0.12571489
601.664	0.12606908
601.863	0.12639761
602.063	0.1267848
602.263	0.12706131
602.462	0.12739989
602.662	0.12776561
602.861	0.12816607
603.061	0.12852072
603.26	0.12890295
603.46	0.12916586
603.659	0.12958242
603.859	0.12993113
604.058	0.13030672
604.258	0.13062296
604.457	0.13101015
604.657	0.13125537
604.856	0.13162275
605.056	0.13200385
605.255	0.13235856
605.454	0.13270939
605.654	0.13299858
605.853	0.13332994
606.052	0.13375406
606.252	0.13416579
606.451	0.13450625
606.65	0.13487112
606.849	0.13518062
607.049	0.13555971
607.248	0.13587622
607.447	0.13622242
607.646	0.13653804
607.845	0.1368578
608.045	0.1371596
608.244	0.13755084
608.443	0.1378581
608.642	0.13823348
608.841	0.13852178
609.04	0.13882222
609.239	0.13915499
609.438	0.13946872
609.637	0.13977109
609.836	0.14012974
610.035	0.14040275
610.234	0.14076915
610.433	0.14108115
610.632	0.14137149
610.831	0.14176855
611.03	0.14206165
611.229	0.14244156
611.428	0.14275585
611.627	0.14309706
611.826	0.14351484
612.025	0.14393357
612.224	0.14424113
612.422	0.14462962
612.621	0.14492545
612.82	0.14528449
613.019	0.14561901
613.218	0.14595315
613.416	0.14618546
613.615	0.14654335
613.814	0.1468431
614.012	0.14718552
614.211	0.14749082
614.41	0.14781503
614.608	0.14809214
614.807	0.14842525
615.006	0.14872117
615.204	0.14897523
615.403	0.14927977
615.602	0.14961659
615.8	0.14994391
615.999	0.15023124
616.197	0.15058797
616.396	0.15093373
616.594	0.1512651
616.793	0.15159911
616.991	0.15191463
617.19	0.15214466
617.388	0.15252871
617.586	0.15282805
617.785	0.15311597
617.983	0.15344211
618.182	0.15370836
618.38	0.15399351
618.578	0.1543333
618.777	0.15465865
618.975	0.15494065
619.173	0.1552801
619.372	0.15558237
619.57	0.15584473
619.768	0.15615133
619.966	0.15649928
620.165	0.15671344
620.363	0.15702398
620.561	0.15722247
620.759	0.15752193
620.957	0.15787729
621.155	0.15820645
621.354	0.15842593
621.552	0.15876384
621.75	0.15906451
621.948	0.15943882
622.146	0.15972888
622.344	0.16001
622.542	0.16029542
622.74	0.16060928
622.938	0.16082396
623.136	0.1611479
623.334	0.16145131
623.532	0.16162799
623.73	0.1618341
623.928	0.16207194
624.126	0.16235961
624.324	0.16270015
624.522	0.16285489
624.719	0.16304843
624.917	0.16341805
625.115	0.16369083
625.313	0.16401302
625.511	0.16435738
625.708	0.16454861
625.906	0.16487718
626.104	0.16515324
626.302	0.16548873
626.499	0.16582053
626.697	0.16608068
626.895	0.16628749
627.093	0.16660979
627.29	0.16692432
627.488	0.16721223
627.686	0.16745062
627.883	0.16763869
628.081	0.16782311
628.278	0.16816154
628.476	0.16840938
628.673	0.16863044
628.871	0.16890915
629.068	0.16916976
629.266	0.1695477
629.463	0.16978235
629.661	0.16999627
629.858	0.17020183
630.056	0.17043748
630.253	0.17063207
630.451	0.17084432
630.648	0.1710596
630.845	0.17135606
631.043	0.17157279
631.24	0.17189
631.438	0.17222821
631.635	0.17250954
631.832	0.1727219
632.029	0.1730146
632.227	0.17326902
632.424	0.17353996
632.621	0.17375885
632.818	0.17395144
633.016	0.17428936
633.213	0.17455397
633.41	0.17478223
633.607	0.17504704
633.804	0.17526664
634.001	0.17548104
634.199	0.17572816
634.396	0.17593846
634.593	0.17614113
634.79	0.17634405
634.987	0.17660369
635.184	0.17685656
635.381	0.17718718
635.578	0.17743459
635.775	0.17765011
635.972	0.17794838
636.169	0.17821319
636.366	0.17842301
636.563	0.17867674
636.76	0.1788421
636.957	0.17909129
637.153	0.17925616
637.35	0.17951491
637.547	0.17975672
637.744	0.18000521
637.941	0.18020691
638.138	0.18049352
638.334	0.18067234
638.531	0.18097438
638.728	0.18119039
638.925	0.18146697
639.121	0.1817057
639.318	0.1819314
639.515	0.18210569
639.711	0.18238998
639.908	0.18253298
640.105	0.18274357
640.301	0.18289821
640.498	0.18311324
640.695	0.18339393
640.891	0.18366212
641.088	0.18384552
641.284	0.18413568
641.481	0.18434173
641.677	0.18457977
641.874	0.1847663
642.07	0.18495224
642.267	0.18519902
642.463	0.18545997
642.66	0.18570109
642.856	0.18589778
643.053	0.18604391
643.249	0.18628958
643.445	0.18653097
643.642	0.18670021
643.838	0.18690168
644.034	0.18712848
644.231	0.18739503
644.427	0.18763157
644.623	0.18785329
644.82	0.18805496
645.016	0.18826171
645.212	0.18841199
645.408	0.18863135
645.604	0.18890709
645.801	0.18913236
645.997	0.18934716
646.193	0.18949472
646.389	0.18975154
646.585	0.18999816
646.781	0.1902072
646.977	0.1903614
647.173	0.19057431
647.37	0.19071879
647.566	0.19098126
647.762	0.19112238
647.958	0.19134955
648.154	0.19151505
648.35	0.19171637
648.546	0.19192572
648.742	0.19223629
648.937	0.19238148
649.133	0.192652
649.329	0.19290753
649.525	0.19314189
649.721	0.19337043
649.917	0.19362709
650.113	0.19374017
650.309	0.194039
650.504	0.1942383
650.7	0.19435498
650.896	0.19455769
651.092	0.1947527
651.287	0.19493979
651.483	0.19521087
651.679	0.19534047
651.875	0.19556712
652.07	0.19580102
652.266	0.19598991
652.462	0.19618936
652.657	0.19638012
652.853	0.1965623
653.048	0.19680605
653.244	0.19694937
653.44	0.19713354
653.635	0.19725215
653.831	0.19746439
654.026	0.19769012
654.222	0.19790823
654.417	0.19814531
654.613	0.19840924
654.808	0.19863432
655.004	0.19896095
655.199	0.19915175
655.394	0.19931336
655.59	0.19955211
655.785	0.19971856
655.98	0.19994142
656.176	0.20012949
656.371	0.20038294
656.566	0.20062475
656.762	0.20081451
656.957	0.20100909
657.152	0.2011658
657.348	0.20133524
657.543	0.20153447
657.738	0.20169686
657.933	0.20186058
658.128	0.20207181
658.324	0.20223241
658.519	0.20252015
658.714	0.20271268
658.909	0.20295724
659.104	0.20315181
659.299	0.20336069
659.494	0.20357727
659.689	0.20378539
659.884	0.20395169
660.079	0.20412792
660.274	0.20430864
660.469	0.20450064
660.664	0.20474681
660.859	0.20497213
661.054	0.20521657
661.249	0.20542853
661.444	0.20567285
661.639	0.20586283
661.834	0.20605912
662.029	0.20631853
662.224	0.20657286
662.418	0.20679092
662.613	0.20700618
662.808	0.20719856
663.003	0.20744917
663.198	0.20768119
663.392	0.2078121
663.587	0.2080475
663.782	0.20821589
663.977	0.20844731
664.171	0.20865089
664.366	0.20885936
664.561	0.2090659
664.755	0.20935743
664.95	0.20952849
665.144	0.2097681
665.339	0.20998544
665.534	0.21023023
665.728	0.2104711
665.923	0.21075186
666.117	0.21094427
666.312	0.21112884
666.506	0.21140785
666.701	0.21161275
666.895	0.21185365
667.09	0.21206462
667.284	0.2122872
667.479	0.21244615
667.673	0.21270929
667.867	0.21295026
668.062	0.21317017
668.256	0.21335704
668.45	0.21362262
668.645	0.21380561
668.839	0.2140811
669.033	0.2142793
669.228	0.21447384
669.422	0.21475592
669.616	0.21503726
669.81	0.21527392
670.004	0.21544254
670.199	0.21565456
670.393	0.21589594
670.587	0.21612336
670.781	0.21627806
670.975	0.2165261
671.169	0.21671227
671.363	0.21701434
671.558	0.21726204
671.752	0.21749256
671.946	0.21773564
672.14	0.21805755
672.334	0.21823632
672.528	0.21854969
672.722	0.21871762
672.916	0.21894869
673.11	0.21919646
673.304	0.21948549
673.497	0.21963747
673.691	0.21991002
673.885	0.22007018
674.079	0.22040936
674.273	0.2206436
674.467	0.22093648
674.661	0.22112708
674.854	0.22139058
675.048	0.22166454
675.242	0.22193723
675.436	0.22213105
675.629	0.22235457
675.823	0.22252548
676.017	0.22277758
676.211	0.22299045
676.404	0.22316674
676.598	0.22338584
676.792	0.22362458
676.985	0.22392727
677.179	0.22417998
677.372	0.2243625
677.566	0.22471941
677.76	0.22500556
677.953	0.22527506
678.147	0.22559354
678.34	0.22588255
678.534	0.22614295
678.727	0.22650792
678.921	0.22679024
679.114	0.22703216
679.307	0.22728058
679.501	0.22751705
679.694	0.22776777
679.888	0.22807731
680.081	0.22825625
680.274	0.22841107
680.468	0.22867532
680.661	0.2289299
680.854	0.22925551
681.048	0.22950187
681.241	0.2297429
681.434	0.22999304
681.627	0.23030678
681.821	0.23057693
682.014	0.23091322
682.207	0.23103111
682.4	0.23127045
682.593	0.23155437
682.786	0.23183418
682.98	0.23206311
683.173	0.23239658
683.366	0.23262058
683.559	0.23294088
683.752	0.23321535
683.945	0.23348644
684.138	0.23379945
684.331	0.23408422
684.524	0.23438234
684.717	0.23460809
684.91	0.23496142
685.103	0.23522891
685.296	0.23546517
685.489	0.23571809
685.682	0.23599308
685.874	0.23623518
686.067	0.23655623
686.26	0.23675024
686.453	0.23699254
686.646	0.23727885
686.839	0.23756
687.031	0.23787799
687.224	0.23808745
687.417	0.23843478
687.61	0.2387188
687.802	0.23903272
687.995	0.23937036
688.188	0.23969748
688.38	0.23996855
688.573	0.24027894
688.766	0.24047755
688.958	0.24080211
689.151	0.2410691
689.343	0.24134703
689.536	0.24160635
689.729	0.2418682
689.921	0.24219192
690.114	0.2424254
690.306	0.24268462
690.499	0.24301963
690.691	0.24328301
690.884	0.24357395
691.076	0.2439377
691.268	0.2441891
691.461	0.24448261
691.653	0.24482108
691.846	0.24507624
692.038	0.24536766
692.23	0.24564907
692.423	0.24591293
692.615	0.24621508
692.807	0.24654866
692.999	0.24681209
693.192	0.2471105
693.384	0.24747527
693.576	0.24772164
693.768	0.24804837
693.961	0.24834427
694.153	0.24869051
694.345	0.24899226
694.537	0.24930101
694.729	0.24953326
694.921	0.24981694
695.113	0.25008452
695.305	0.25033967
695.498	0.25057594
695.69	0.25088928
695.882	0.25117524
696.074	0.25152622
696.266	0.25186928
696.458	0.25211741
696.65	0.25246229
696.842	0.25283143
697.033	0.25308722
697.225	0.25335026
697.417	0.25365245
697.609	0.25394935
697.801	0.25428983
697.993	0.25462975
698.185	0.25492928
698.376	0.25528056
698.568	0.25562904
698.76	0.25589259
698.952	0.25618446
699.144	0.25649342
699.335	0.2567738
699.527	0.25710226
699.719	0.25739112
699.91	0.25776608
700.102	0.25805072
700.294	0.25840608
700.485	0.25868274
700.677	0.25895125
700.869	0.25926661
701.06	0.2596029
701.252	0.25982426
701.443	0.26017842
701.635	0.26044959
701.826	0.26082985
702.018	0.2611751
702.209	0.26150258
702.401	0.26176665
702.592	0.26212107
702.784	0.2623918
702.975	0.26275079
703.166	0.26301794
703.358	0.26330729
703.549	0.26359821
703.741	0.26389929
703.932	0.26416519
704.123	0.26444042
704.315	0.26469722
704.506	0.26503699
704.697	0.26530273
704.888	0.26562762
705.08	0.26598314
705.271	0.26638406
705.462	0.26669029
705.653	0.26701775
705.844	0.26725508
706.035	0.26760405
706.227	0.26783138
706.418	0.26809718
706.609	0.26838576
706.8	0.2687771
706.991	0.2690624
707.182	0.26940519
707.373	0.26972704
707.564	0.27008965
707.755	0.27040133
707.946	0.27068666
708.137	0.27094139
708.328	0.27123585
708.519	0.27157171
708.71	0.27188518
708.901	0.27217452
709.092	0.27251328
709.283	0.27282281
709.473	0.27315724
709.664	0.27350949
709.855	0.27380664
710.046	0.27415394
710.237	0.27443509
710.427	0.27473358
710.618	0.27507926
710.809	0.2753915
711	0.2757164
711.19	0.27598939
711.381	0.27630351
711.572	0.27661867
711.762	0.27697294
711.953	0.27723832
712.144	0.27754473
712.334	0.27782588
712.525	0.27826132
712.715	0.27856174
712.906	0.27892239
713.097	0.27912631
713.287	0.27943577
713.478	0.27973804
713.668	0.28011154
713.859	0.28030636
714.049	0.28060795
714.239	0.28089823
714.43	0.2812605
714.62	0.28157292
714.811	0.28188898
715.001	0.28217338
715.191	0.28254614
715.382	0.28286892
715.572	0.28320687
715.762	0.28349378
715.953	0.28381218
716.143	0.28415061
716.333	0.28440438
716.523	0.28469111
716.714	0.28501516
716.904	0.28527919
717.094	0.28566184
717.284	0.28592789
717.474	0.28621523
717.664	0.28656667
717.855	0.28679481
718.045	0.28704011
718.235	0.28741676
718.425	0.28774115
718.615	0.28810456
718.805	0.2884757
718.995	0.28885574
719.185	0.28929069
719.375	0.2896595
719.565	0.28997482
719.755	0.29024945
719.945	0.29050159
720.135	0.29081221
720.325	0.29115728
720.515	0.29145259
720.704	0.29178746
720.894	0.29209911
721.084	0.29238345
721.274	0.29279772
721.464	0.29311043
721.654	0.29335723
721.843	0.29363499
722.033	0.29395228
722.223	0.29421978
722.413	0.29463265
722.602	0.29490911
722.792	0.2952027
722.982	0.29549125
723.171	0.29585309
723.361	0.29614328
723.55	0.29654542
723.74	0.2968408
723.93	0.29715195
724.119	0.29748592
724.309	0.29782332
724.498	0.29809242
724.688	0.29840864
724.877	0.29868523
725.067	0.29888667
725.256	0.29914782
725.446	0.29942666
725.635	0.29967086
725.825	0.29993383
726.014	0.30021672
726.203	0.30048067
726.393	0.30070323
726.582	0.30097358
726.771	0.30123527
726.961	0.30154309
727.15	0.3017983
727.339	0.30200145
727.529	0.30221221
727.718	0.30252072
727.907	0.30273126
728.096	0.30297156
728.286	0.30315156
728.475	0.30342914
728.664	0.30366362
728.853	0.30385743
729.042	0.30412929
729.231	0.30435845
729.42	0.30458925
729.609	0.30488343
729.799	0.30507101
729.988	0.30531674
730.177	0.30554252
730.366	0.30577671
730.555	0.30600987
730.744	0.30622609
730.933	0.30644356
731.122	0.30671419
731.31	0.30695997
731.499	0.30717836
731.688	0.30739258
731.877	0.30766686
732.066	0.30786632
732.255	0.30806383
732.444	0.30824415
732.632	0.30843769
732.821	0.30870771
733.01	0.30898904
733.199	0.30911311
733.388	0.30929527
733.576	0.30951265
733.765	0.30976252
733.954	0.31003794
734.142	0.31023727
734.331	0.310404
734.52	0.31070673
734.708	0.31101053
734.897	0.31121713
735.086	0.31142084
735.274	0.311591
735.463	0.31179682
735.651	0.31197361
735.84	0.31219621
736.028	0.3124426
736.217	0.31267927
736.405	0.31290374
736.594	0.31314004
736.782	0.31341568
736.971	0.31365233
737.159	0.31380637
737.347	0.3139632
737.536	0.31411546
737.724	0.31430187
737.912	0.314451
738.101	0.3145608
738.289	0.31472033
738.477	0.31492259
738.666	0.31508656
738.854	0.31528152
739.042	0.31545415
739.23	0.31567873
739.418	0.31589518
739.607	0.31605295
739.795	0.316266
739.983	0.3165233
740.171	0.31673103
740.359	0.31693977
740.547	0.31706333
740.735	0.31725326
740.923	0.31752325
741.112	0.31777474
741.3	0.31790614
741.488	0.31804127
741.676	0.3182685
741.864	0.31847534
742.052	0.31868697
742.239	0.31873707
742.427	0.31883121
742.615	0.31894356
742.803	0.31913117
742.991	0.3192426
743.179	0.31941916
743.367	0.31958331
743.555	0.31988774
743.742	0.32006925
743.93	0.32028985
744.118	0.32050381
744.306	0.3206687
744.494	0.32079587
744.681	0.32093129
744.869	0.32102175
745.057	0.32113378
745.244	0.32127775
745.432	0.32142904
745.62	0.32160969
745.807	0.32180522
745.995	0.32197811
746.182	0.32214955
746.37	0.32235093
746.558	0.32247921
746.745	0.32259153
746.933	0.32265465
747.12	0.32278787
747.308	0.32295181
747.495	0.32306561
747.683	0.32321023
747.87	0.32332531
748.057	0.32351367
748.245	0.32374406
748.432	0.32389036
748.62	0.32391063
748.807	0.32402327
748.994	0.32418053
749.182	0.32428483
749.369	0.32431951
749.556	0.32439164
749.743	0.32448813
749.931	0.32461931
750.118	0.32479983
750.305	0.32484013
750.492	0.32491719
750.68	0.32511947
750.867	0.32523206
751.054	0.32532139
751.241	0.32544202
751.428	0.32552282
751.615	0.32562358
751.802	0.32579815
751.989	0.32585903
752.176	0.32600144
752.363	0.326193
752.55	0.32631907
752.737	0.32647333
752.924	0.32658369
753.111	0.32666321
753.298	0.32674416
753.485	0.32683529
753.672	0.32681996
753.859	0.32697096
754.046	0.3270096
754.233	0.32706464
754.42	0.32721335
754.606	0.32732486
754.793	0.32727934
754.98	0.32743998
755.167	0.32741852
755.353	0.32755517
755.54	0.32767717
755.727	0.32768566
755.914	0.32769463
756.1	0.32784395
756.287	0.32780007
756.474	0.32787582
756.66	0.3278974
756.847	0.32802997
757.033	0.32802892
757.22	0.32809547
757.407	0.32822151
757.593	0.3283487
757.78	0.32842117
757.966	0.32843732
758.153	0.32839763
758.339	0.32851864
758.526	0.32856025
758.712	0.32847766
758.898	0.32856224
759.085	0.32849949
759.271	0.32851176
759.458	0.32847244
759.644	0.32855173
759.83	0.32860118
760.017	0.32871235
760.203	0.32869447
760.389	0.3288158
760.576	0.32886296
760.762	0.32900065
760.948	0.32889395
761.134	0.32888921
761.32	0.3288831
761.507	0.32886915
761.693	0.32900124
761.879	0.32900703
762.065	0.3290642
762.251	0.3291504
762.437	0.32926007
762.623	0.32926476
762.809	0.32933931
762.995	0.32921903
763.181	0.32926755
763.367	0.32926967
763.553	0.32934472
763.739	0.32931134
763.925	0.32933901
764.111	0.32935053
764.297	0.32945056
764.483	0.32938137
764.669	0.32926091
764.855	0.32923155
765.041	0.329194
765.227	0.32908415
765.412	0.32906488
765.598	0.32897697
765.784	0.32899749
765.97	0.32909188
766.156	0.3290594
766.341	0.32912138
766.527	0.3291609
766.713	0.32910669
766.898	0.32910253
767.084	0.32920943
767.27	0.32914386
767.455	0.32909274
767.641	0.32903324
767.827	0.32906592
768.012	0.32905244
768.198	0.328959
768.383	0.3288372
768.569	0.32881223
768.754	0.32880466
768.94	0.3287295
769.125	0.32860323
769.311	0.3285071
769.496	0.32848213
769.682	0.32839481
769.867	0.32839506
770.052	0.32838621
770.238	0.32834185
770.423	0.3283952
770.608	0.32843778
770.794	0.32843228
770.979	0.32836363
771.164	0.32828338
771.35	0.32817446
771.535	0.32812262
771.72	0.32796556
771.905	0.32791603
772.09	0.32779229
772.276	0.3277954
772.461	0.32762155
772.646	0.3275553
772.831	0.32750076
773.016	0.32741324
773.201	0.32722738
773.386	0.32718136
773.571	0.32702033
773.756	0.3269536
773.941	0.32679255
774.126	0.32671865
774.311	0.3266016
774.496	0.32656457
774.681	0.3264397
774.866	0.32636585
775.051	0.32624151
775.236	0.32616407
775.421	0.32597931
775.606	0.32592842
775.791	0.32568218
775.976	0.32554534
776.16	0.32547065
776.345	0.32540682
776.53	0.32540924
776.715	0.32533357
776.899	0.32521507
777.084	0.32520253
777.269	0.32506176
777.454	0.32484463
777.638	0.32473263
777.823	0.32456787
778.008	0.32438175
778.192	0.32417459
778.377	0.32399899
778.561	0.32391988
778.746	0.32380561
778.931	0.32368085
779.115	0.32352591
779.3	0.32340885
779.484	0.32336746
779.669	0.32322258
779.853	0.32298061
780.037	0.32279065
780.222	0.32262153
780.406	0.32242556
780.591	0.32231196
780.775	0.32209556
780.959	0.32202467
781.144	0.32199096
781.328	0.32185484
781.512	0.32165339
781.697	0.3214971
781.881	0.32130523
782.065	0.32115277
782.249	0.32084971
782.434	0.32067645
782.618	0.32056109
782.802	0.32041903
782.986	0.3202405
783.17	0.32004875
783.354	0.31991672
783.539	0.31981871
783.723	0.3195519
783.907	0.31930224
784.091	0.31913237
784.275	0.31896283
784.459	0.31877037
784.643	0.31857309
784.827	0.31834953
785.011	0.31821697
785.195	0.31810262
785.379	0.31795565
785.563	0.31773666
785.747	0.31756679
785.93	0.31744521
786.114	0.31722278
786.298	0.3170016
786.482	0.31670872
786.666	0.31644418
786.85	0.31626241
787.033	0.31605986
787.217	0.31576095
787.401	0.31558917
787.585	0.31537163
787.768	0.31518212
787.952	0.31491889
788.136	0.31462342
788.319	0.31440624
788.503	0.31412485
788.687	0.31385885
788.87	0.31361444
789.054	0.31343363
789.237	0.31323059
789.421	0.31305048
789.605	0.31275264
789.788	0.31246133
789.972	0.31221783
790.155	0.31195702
790.338	0.31163935
790.522	0.31135107
790.705	0.31105203
790.889	0.3107954
791.072	0.31070224
791.256	0.3104932
791.439	0.31035282
791.622	0.31024859
791.806	0.31013454
791.989	0.30995222
792.172	0.30973969
792.355	0.30944177
792.539	0.30922685
792.722	0.30891031
792.905	0.3085312
793.088	0.30817219
793.271	0.30795283
793.455	0.30770989
793.638	0.30741882
793.821	0.30710281
794.004	0.30678879
794.187	0.3065995
794.37	0.30637541
794.553	0.30607241
794.736	0.30574579
794.919	0.30544126
795.102	0.3051816
795.285	0.30499475
795.468	0.30458754
795.651	0.30422777
795.834	0.30397243
796.017	0.3037974
796.2	0.30362866
796.383	0.30335795
796.566	0.30307205
796.749	0.30290123
796.931	0.30263005
797.114	0.30228115
797.297	0.3019446
797.48	0.30153919
797.663	0.30123589
797.845	0.30090115
798.028	0.30062277
798.211	0.30032034
798.393	0.30007786
798.576	0.29980874
798.759	0.29952907
798.941	0.29923478
799.124	0.2989649
799.307	0.29861671
799.489	0.29836026
799.672	0.2980614
799.854	0.29771121
800.037	0.29745192
800.219	0.29710855
800.402	0.2968192
800.584	0.29652161
800.767	0.29626726
800.949	0.2959126
801.132	0.29577014
801.314	0.29546684
801.496	0.29518045
801.679	0.29483663
801.861	0.29454023
802.043	0.29413456
802.226	0.29381605
802.408	0.29336402
802.59	0.29300192
802.772	0.29271091
802.955	0.2923779
803.137	0.292019
803.319	0.29176866
803.501	0.29139709
803.684	0.29103769
803.866	0.29062125
804.048	0.29027808
804.23	0.28993505
804.412	0.28961975
804.594	0.28922224
804.776	0.28892526
804.958	0.28854181
805.14	0.28834026
805.322	0.28800423
805.504	0.28763665
805.686	0.28734554
805.868	0.28700327
806.05	0.28666346
806.232	0.28639976
806.414	0.28606049
806.596	0.28569666
806.778	0.2853641
806.96	0.28496066
807.141	0.28456891
807.323	0.28420154
807.505	0.28374035
807.687	0.28335294
807.869	0.28299986
808.05	0.28264264
808.232	0.28224608
808.414	0.2819185
808.595	0.28160089
808.777	0.28133496
808.959	0.28101905
809.14	0.2806812
809.322	0.28034667
809.504	0.27995285
809.685	0.27958706
809.867	0.27923837
810.048	0.27883622
810.23	0.27838641
810.411	0.27798458
810.593	0.27759534
810.774	0.27722382
810.956	0.27683205
811.137	0.27635734
811.319	0.2759878
811.5	0.27567569
811.681	0.27532934
811.863	0.27500474
812.044	0.27467264
812.225	0.27439065
812.407	0.27400223
812.588	0.27362431
812.769	0.27323826
812.951	0.27281573
813.132	0.27238654
813.313	0.27208938
813.494	0.2716332
813.675	0.27137131
813.857	0.27103768
814.038	0.27067377
814.219	0.27039393
814.4	0.26995889
814.581	0.26958601
814.762	0.26918321
814.943	0.26874031
815.124	0.26822765
815.305	0.2677836
815.486	0.26729478
815.667	0.2669723
815.848	0.26651217
816.029	0.26606656
816.21	0.26565471
816.391	0.26537395
816.572	0.26497701
816.753	0.26458126
816.934	0.26413476
817.115	0.26365724
817.295	0.2633149
817.476	0.26290366
817.657	0.26245131
817.838	0.26210231
818.019	0.26160747
818.199	0.26119725
818.38	0.26086921
818.561	0.2604952
818.741	0.26013009
818.922	0.25967758
819.103	0.25923129
819.283	0.25888935
819.464	0.25855524
819.645	0.25811751
819.825	0.25767921
820.006	0.25716584
820.186	0.2567467
820.367	0.25630491
820.547	0.25592209
820.728	0.25546182
820.908	0.25502619
821.089	0.25465317
821.269	0.25434358
821.45	0.25398646
821.63	0.25356751
821.81	0.25318019
821.991	0.25282658
822.171	0.25248228
822.351	0.25202794
822.532	0.25153818
822.712	0.25111461
822.892	0.25071814
823.072	0.25027116
823.253	0.24981082
823.433	0.24931674
823.613	0.24890885
823.793	0.24855412
823.973	0.24813587
824.154	0.24776152
824.334	0.24733561
824.514	0.24684542
824.694	0.24645087
824.874	0.24591759
825.054	0.24546647
825.234	0.24508265
825.414	0.2446323
825.594	0.2442067
825.774	0.24391929
825.954	0.24353074
826.134	0.24325548
826.314	0.24271979
826.494	0.24233833
826.674	0.24183563
826.854	0.24142363
827.033	0.24077712
827.213	0.24032162
827.393	0.23980894
827.573	0.23952124
827.753	0.23904571
827.932	0.23868757
828.112	0.23830108
828.292	0.23796416
828.472	0.23754419
828.651	0.23715589
828.831	0.23674658
829.011	0.23632922
829.19	0.2358214
829.37	0.23530031
829.549	0.23489127
829.729	0.23447164
829.909	0.23394362
830.088	0.23346037
830.268	0.23293288
830.447	0.23252684
830.627	0.23213286
830.806	0.23171271
830.986	0.2311838
831.165	0.23089625
831.344	0.230415
831.524	0.22998173
831.703	0.22955273
831.883	0.22901029
832.062	0.22855027
832.241	0.22817275
832.421	0.22763268
832.6	0.2271863
832.779	0.22677501
832.958	0.2262855
833.138	0.22591284
833.317	0.22552038
833.496	0.22507069
833.675	0.22468645
833.854	0.2243839
834.034	0.2239564
834.213	0.22353618
834.392	0.22321007
834.571	0.22263828
834.75	0.22217103
834.929	0.22165921
835.108	0.22108072
835.287	0.22061456
835.466	0.22021756
835.645	0.21971147
835.824	0.21929716
836.003	0.21890545
836.182	0.21854175
836.361	0.2181516
836.54	0.21776189
836.719	0.2172949
836.897	0.21679771
837.076	0.21634035
837.255	0.21582468
837.434	0.21529649
837.613	0.21482241
837.791	0.21436409
837.97	0.21391829
838.149	0.2134205
838.328	0.21294893
838.506	0.21252464
838.685	0.21205696
838.864	0.2116515
839.042	0.21117746
839.221	0.21081469
839.4	0.21041049
839.578	0.20997186
839.757	0.2094793
839.935	0.20906233
840.114	0.20856252
840.292	0.20812778
840.471	0.2076575
840.649	0.20718891
840.828	0.20679557
841.006	0.2063653
841.185	0.20589867
841.363	0.2054672
841.541	0.20497323
841.72	0.20453259
841.898	0.2041273
842.076	0.20365749
842.255	0.20320804
842.433	0.20274247
842.611	0.20230215
842.789	0.20180002
842.968	0.20132366
843.146	0.20088327
843.324	0.20051346
843.502	0.20014391
843.68	0.19978531
843.859	0.19930745
844.037	0.19893604
844.215	0.19844065
844.393	0.19802277
844.571	0.1975276
844.749	0.19700755
844.927	0.19650364
845.105	0.19602074
845.283	0.19546377
845.461	0.19504233
845.639	0.19451596
845.817	0.19408445
845.995	0.1937244
846.173	0.19329874
846.351	0.19283922
846.529	0.19249035
846.706	0.19205044
846.884	0.19157224
847.062	0.1910058
847.24	0.19041886
847.418	0.18994108
847.595	0.18956379
847.773	0.1890768
847.951	0.18861745
848.129	0.18817101
848.306	0.18787528
848.484	0.18744481
848.662	0.18708848
848.839	0.18674756
849.017	0.18645234
849.194	0.1860426
849.372	0.18560755
849.549	0.18511205
849.727	0.18472532
849.905	0.18412999
850.082	0.18355747
850.26	0.18293487
850.437	0.18242664
850.614	0.18205352
850.792	0.1816621
850.969	0.18127842
851.147	0.18097627
851.324	0.18060614
851.501	0.18032611
851.679	0.1799046
851.856	0.17948988
852.033	0.17902638
852.211	0.17852005
852.388	0.17800246
852.565	0.17753275
852.742	0.17703826
852.92	0.17660833
853.097	0.17608093
853.274	0.1756569
853.451	0.17531917
853.628	0.17489962
853.805	0.17450884
853.982	0.17402438
854.159	0.17350397
854.336	0.17312025
854.514	0.17265131
854.691	0.17210072
854.868	0.17167375
855.045	0.17116838
855.221	0.1707053
855.398	0.17033604
855.575	0.16987567
855.752	0.1694503
855.929	0.1691039
856.106	0.16869203
856.283	0.16827904
856.46	0.16793188
856.637	0.16744461
856.813	0.16711847
856.99	0.16661541
857.167	0.16621267
857.344	0.16577078
857.52	0.16530173
857.697	0.16481262
857.874	0.16440638
858.05	0.16390848
858.227	0.16355962
858.404	0.16309501
858.58	0.16266483
858.757	0.16233301
858.933	0.1619742
859.11	0.16162045
859.287	0.16111343
859.463	0.16064637
859.64	0.160246
859.816	0.15978014
859.993	0.15932344
860.169	0.15888647
860.345	0.1583817
860.522	0.15804223
860.698	0.15754529
860.875	0.15703564
861.051	0.15667657
861.227	0.156214
861.404	0.1558509
861.58	0.15556379
861.756	0.15524531
861.932	0.15493132
862.109	0.1545024
862.285	0.15410203
862.461	0.15365683
862.637	0.15317454
862.813	0.15265045
862.99	0.15203114
863.166	0.15157333
863.342	0.15122209
863.518	0.15067216
863.694	0.15034479
863.87	0.14993035
864.046	0.14952545
864.222	0.14913759
864.398	0.1487952
864.574	0.1483479
864.75	0.14800858
864.926	0.14762674
865.102	0.14720536
865.278	0.14678604
865.454	0.14642475
865.63	0.14594582
865.805	0.14554376
865.981	0.14521526
866.157	0.14481038
866.333	0.14437385
866.509	0.14413717
866.684	0.14376026
866.86	0.14349519
867.036	0.14315992
867.212	0.14275862
867.387	0.14229335
867.563	0.14203782
867.739	0.14149187
867.914	0.14113651
868.09	0.14064264
868.265	0.14021011
868.441	0.13978651
868.617	0.13945722
868.792	0.13891297
868.968	0.13850567
869.143	0.13806871
869.319	0.13778307
869.494	0.1373476
869.67	0.13703619
869.845	0.1366332
870.02	0.1363121
870.196	0.13595079
870.371	0.13556724
870.546	0.13504261
870.722	0.13469608
870.897	0.13417352
871.072	0.13371979
871.248	0.13329372
871.423	0.1328374
871.598	0.1325169
871.773	0.13215857
871.949	0.13168761
872.124	0.13133284
872.299	0.13094117
872.474	0.13053416
872.649	0.13028023
872.824	0.12985798
872.999	0.12940577
873.174	0.1290721
873.349	0.12870472
873.524	0.12835297
873.699	0.12801309
873.874	0.12757103
874.049	0.12725665
874.224	0.12695079
874.399	0.12657151
874.574	0.12623476
874.749	0.12598725
874.924	0.12561671
875.099	0.12518424
875.274	0.12470498
875.449	0.12432103
875.623	0.12390311
875.798	0.12348294
875.973	0.12299509
876.148	0.12253799
876.322	0.12224602
876.497	0.12188732
876.672	0.12147521
876.846	0.12122139
877.021	0.12086728
877.196	0.12039701
877.37	0.12016024
877.545	0.11979595
877.72	0.1194078
877.894	0.11915734
878.069	0.11872841
878.243	0.11828218
878.418	0.11816083
878.592	0.11767519
878.767	0.11714436
878.941	0.11682304
879.116	0.1163811
879.29	0.11591042
879.464	0.11563277
879.639	0.11509577
879.813	0.1148469
879.987	0.11467227
880.162	0.11424532
880.336	0.11395177
880.51	0.11384916
880.685	0.11350466
880.859	0.11316886
881.033	0.11279154
881.207	0.11241845
881.381	0.11211679
881.556	0.11177841
881.73	0.11132303
881.904	0.1109499
882.078	0.11057727
882.252	0.11027196
882.426	0.11000029
882.6	0.10969535
882.774	0.10931957
882.948	0.10901065
883.122	0.10867382
883.296	0.10855116
883.47	0.10825081
883.644	0.1078656
883.818	0.10744208
883.992	0.10715064
884.166	0.10685384
884.34	0.10653616
884.514	0.10616418
884.687	0.10573311
884.861	0.10542144
885.035	0.10522237
885.209	0.10485778
885.382	0.10450022
885.556	0.10424082
885.73	0.10385368
885.904	0.10355337
886.077	0.10314244
886.251	0.10278691
886.425	0.10244451
886.598	0.10212451
886.772	0.10172064
886.945	0.10130265
887.119	0.10087098
887.292	0.10042831
887.466	0.10005786
887.64	0.09969985
887.813	0.0993092
887.986	0.09918157
888.16	0.09894051
888.333	0.09875698
888.507	0.0986974
888.68	0.0984553
888.854	0.09821743
889.027	0.09788366
889.2	0.09739156
889.374	0.0969778
889.547	0.096592
889.72	0.0962588
889.893	0.09581034
890.067	0.09542704
890.24	0.09513423
890.413	0.09471388
890.586	0.09446824
890.759	0.09417324
890.933	0.09375002
891.106	0.09350076
891.279	0.09331133
891.452	0.09306897
891.625	0.09287123
891.798	0.09253884
891.971	0.09219435
892.144	0.09193034
892.317	0.0915576
892.49	0.09119414
892.663	0.0907953
892.836	0.09052121
893.009	0.09019197
893.182	0.08990149
893.355	0.08957426
893.527	0.08927744
893.7	0.08901967
893.873	0.08871141
894.046	0.08837038
894.219	0.08820256
894.391	0.08794347
894.564	0.08779753
894.737	0.08747474
894.91	0.08717921
895.082	0.08696789
895.255	0.08660853
895.428	0.08620449
895.6	0.08588637
895.773	0.0854461
895.945	0.08527557
896.118	0.08499825
896.291	0.0847997
896.463	0.08454391
896.636	0.08432228
896.808	0.08409361
896.981	0.0837931
897.153	0.08357601
897.326	0.08325514
897.498	0.08278036
897.67	0.08251387
897.843	0.08222019
898.015	0.08196055
898.187	0.08173136
898.36	0.08120759
898.532	0.08089454
898.704	0.08076152
898.877	0.08048056
899.049	0.08025165
899.221	0.07997492
899.393	0.07973749
899.566	0.07970227
899.738	0.07949882
899.91	0.07926058
900.082	0.0790843
900.254	0.07882688
900.426	0.07854162
900.598	0.07819199
900.77	0.07774746
900.942	0.07734169
901.114	0.07694189
901.286	0.0764903
901.458	0.07608191
901.63	0.07585858
901.802	0.07567751
901.974	0.0755155
902.146	0.07543788
902.318	0.07531775
902.49	0.07523296
902.662	0.07502307
902.834	0.07469638
903.005	0.07443634
903.177	0.07407947
903.349	0.07372421
903.521	0.07334868
903.693	0.07299796
903.864	0.07269901
904.036	0.072377
904.208	0.07199621
904.379	0.07176276
904.551	0.07150497
904.723	0.07139631
904.894	0.07121986
905.066	0.07110835
905.237	0.0710847
905.409	0.07094755
905.58	0.07087878
905.752	0.07068557
905.923	0.07026485
906.095	0.06989435
906.266	0.06954562
906.438	0.0691695
906.609	0.06892394
906.78	0.06849287
906.952	0.06814251
907.123	0.0679211
907.295	0.06775762
907.466	0.06760155
907.637	0.06737367
907.808	0.0671979
907.98	0.06707166
908.151	0.06699132
908.322	0.06687966
908.493	0.06662457
908.665	0.06640319
908.836	0.06609885
909.007	0.0658084
909.178	0.06566121
909.349	0.06522677
909.52	0.0649012
909.691	0.06462788
909.862	0.06433305
910.033	0.06418322
910.204	0.06397763
910.375	0.06361804
910.546	0.06349424
910.717	0.06328727
910.888	0.06313659
911.059	0.0629784
911.23	0.06270538
911.401	0.06246989
911.572	0.06223229
911.742	0.06191358
911.913	0.06166196
912.084	0.06130782
912.255	0.06093879
912.426	0.06063393
912.596	0.06028788
912.767	0.06005624
912.938	0.0598101
913.108	0.05947543
913.279	0.05936596
913.45	0.05916547
913.62	0.05904396
913.791	0.05895465
913.962	0.05867463
914.132	0.05854487
914.303	0.05831897
914.473	0.05805951
914.644	0.05780697
914.814	0.05757964
914.985	0.05713756
915.155	0.05703457
915.326	0.05672933
915.496	0.05671299
915.666	0.05657996
915.837	0.05640226
916.007	0.05614671
916.177	0.05614943
916.348	0.05591048
916.518	0.05584078
916.688	0.05560512
916.858	0.0554202
917.029	0.05520198
917.199	0.05503799
917.369	0.05484655
917.539	0.05461441
917.709	0.05435245
917.88	0.05402351
918.05	0.05374001
918.22	0.05350106
918.39	0.0532221
918.56	0.053023
918.73	0.05273062
918.9	0.05261905
919.07	0.05253029
919.24	0.05241107
919.41	0.05243248
919.58	0.05229498
919.75	0.05205989
919.92	0.05205761
920.09	0.05182687
920.26	0.05163621
920.429	0.05137925
920.599	0.05110219
920.769	0.0509234
920.939	0.0506705
921.109	0.05035331
921.278	0.05010557
921.448	0.04986426
921.618	0.04960387
921.787	0.04927991
921.957	0.04907424
922.127	0.04887925
922.296	0.04877552
922.466	0.04851711
922.636	0.04845317
922.805	0.04832992
922.975	0.04816381
923.144	0.04788596
923.314	0.0477956
923.483	0.04761098
923.653	0.04746369
923.822	0.04716953
923.992	0.04699417
924.161	0.04686622
924.331	0.04669601
924.5	0.04644848
924.669	0.04622835
924.839	0.04609279
925.008	0.0459345
925.177	0.04581542
925.347	0.04566666
925.516	0.04567403
925.685	0.04560203
925.854	0.04565594
926.023	0.04549043
926.193	0.04534214
926.362	0.04521694
926.531	0.04520173
926.7	0.04497297
926.869	0.04483046
927.038	0.04442351
927.207	0.04439705
927.376	0.04430571
927.545	0.0441278
927.715	0.04383732
927.884	0.043742
928.052	0.04358396
928.221	0.04340788
928.39	0.04310932
928.559	0.04298418
928.728	0.04270125
928.897	0.04261228
929.066	0.0424519
929.235	0.04217922
929.404	0.04228628
929.572	0.0422606
929.741	0.04206817
929.91	0.04199003
930.079	0.04185812
930.247	0.04168817
930.416	0.04165081
930.585	0.04155818
930.753	0.04129401
930.922	0.04112482
931.091	0.04096725
931.259	0.04073184
931.428	0.04067503
931.596	0.04055642
931.765	0.04025024
931.934	0.0402359
932.102	0.04000778
932.27	0.04001893
932.439	0.03985232
932.607	0.03957855
932.776	0.03951301
932.944	0.03932085
933.113	0.03917914
933.281	0.03915202
933.449	0.03890944
933.618	0.03890446
933.786	0.0389099
933.954	0.03861852
934.123	0.03851641
934.291	0.03825977
934.459	0.03792722
934.627	0.03791103
934.795	0.03783515
934.964	0.03779337
935.132	0.03761304
935.3	0.03760191
935.468	0.03766041
935.636	0.03771608
935.804	0.03750642
935.972	0.03719335
936.14	0.03697212
936.308	0.03693712
936.476	0.03640081
936.644	0.03647322
936.812	0.03655544
936.98	0.03655333
937.148	0.0368904
937.316	0.03674965
937.484	0.03709232
937.652	0.03720632
937.82	0.03701762
937.987	0.03705614
938.155	0.03711263
938.323	0.03688083
938.491	0.03725352
938.658	0.03731883
938.826	0.03770209
938.994	0.03768338
939.162	0.03746863
939.329	0.03765637
939.497	0.03817557
939.665	0.03793854
939.832	0.03755351
940	0.03805056
940.167	0.03833504
940.335	0.03867075
940.502	0.03868335
940.67	0.03833926
940.837	0.03865117
941.005	0.03927513
941.172	0.03963316
941.34	0.03994863
941.507	0.04065214
941.674	0.0403833
941.842	0.03978355
942.009	0.03996141
942.177	0.03909107
942.344	0.03847636
942.511	0.03855029
942.678	0.03784775
942.846	0.03867842
943.013	0.03960301
943.18	0.03914701
943.347	0.03966182
943.514	0.040368
943.682	0.04056465
943.849	0.04085588
944.016	0.04000648
944.183	0.04012616
944.35	0.03985072
944.517	0.03911628
944.684	0.03880735
944.851	0.03768647
945.018	0.03765463
945.185	0.03847998
945.352	0.03765845
945.519	0.03784197
945.686	0.03931393
945.853	0.03871885
946.02	0.03915771
946.187	0.03773176
946.353	0.03774752
946.52	0.03801381
946.687	0.03691007
946.854	0.03613657
947.021	0.03661184
947.187	0.03614896
947.354	0.03744508
947.521	0.03738221
947.687	0.03746667
947.854	0.03814095
948.021	0.0380084
948.187	0.03766961
948.354	0.03676448
948.52	0.0358312
948.687	0.03510036
948.854	0.0356708
949.02	0.03496431
949.187	0.03452148
949.353	0.03394968
949.52	0.03409545
949.686	0.03445279
949.852	0.03404798
950.019	0.03277597
950.185	0.03279701
950.352	0.03212355
950.518	0.03156763
950.684	0.03242883
950.851	0.0316749
951.017	0.03173742
951.183	0.03135337
951.349	0.03233341
951.516	0.03211751
951.682	0.03214449
951.848	0.03081114
952.014	0.03073436
952.18	0.03076821
952.346	0.03038052
952.512	0.02942205
952.679	0.02898467
952.845	0.02883399
953.011	0.02916671
953.177	0.02943845
953.343	0.02880091
953.509	0.02850793
953.675	0.02846267
953.841	0.02864705
954.007	0.02877621
954.172	0.02916659
954.338	0.02871894
954.504	0.02874841
954.67	0.02895331
954.836	0.02788238
955.002	0.02751025
955.167	0.02713502
955.333	0.02606217
955.499	0.02563023
955.665	0.02541111
955.83	0.02538284
955.996	0.02541645
956.162	0.0252527
956.327	0.02518809
956.493	0.02523885
956.659	0.02546971
956.824	0.0251969
956.99	0.02486318
957.155	0.02489783
957.321	0.02510428
957.486	0.02452685
957.652	0.02434318
957.817	0.02398129
957.983	0.02328759
958.148	0.02332689
958.314	0.02332018
958.479	0.0227499
958.644	0.02315339
958.81	0.02310778
958.975	0.02258886
959.14	0.0229579
959.306	0.02256546
959.471	0.02246398
959.636	0.02278527
959.801	0.02222653
959.967	0.02210191
960.132	0.02233582
960.297	0.02217721
960.462	0.02266545
960.627	0.02239385
960.792	0.02205972
960.957	0.02220012
961.123	0.02196465
961.288	0.02195243
961.453	0.02166106
961.618	0.0212152
961.783	0.02114556
961.948	0.02110158
962.113	0.02105408
962.277	0.02105093
962.442	0.02078249
962.607	0.02111605
962.772	0.02084406
962.937	0.02119526
963.102	0.02098995
963.267	0.02080377
963.431	0.02065341
963.596	0.0209889
963.761	0.02082035
963.926	0.02069361
964.09	0.02061478
964.255	0.02073334
964.42	0.02060872
964.584	0.02101974
964.749	0.02046086
964.914	0.02024578
965.078	0.02001335
965.243	0.01979174
965.407	0.01956836
965.572	0.01947576
965.736	0.01897305
965.901	0.0189548
966.065	0.01849011
966.23	0.01906169
966.394	0.01875302
966.559	0.01893389
966.723	0.01850914
966.887	0.01832395
967.052	0.01843766
967.216	0.01848564
967.38	0.01792889
967.545	0.01800908
967.709	0.01817535
967.873	0.01856519
968.037	0.01874418
968.202	0.01873457
968.366	0.01906434
968.53	0.01905468
968.694	0.01923854
968.858	0.01931332
969.022	0.01936243
969.187	0.01891231
969.351	0.01865699
969.515	0.01832031
969.679	0.01841974
969.843	0.01819894
970.007	0.01759182
970.171	0.01767878
970.335	0.01797072
970.499	0.01799223
970.662	0.01799091
970.826	0.01795529
970.99	0.01785362
971.154	0.01782647
971.318	0.0175029
971.482	0.01771283
971.645	0.01795232
971.809	0.01770629
971.973	0.01769856
972.137	0.01798321
972.3	0.01812567
972.464	0.01822566
972.628	0.01778773
972.791	0.01717459
972.955	0.01750048
973.119	0.01714346
973.282	0.01656145
973.446	0.01642586
973.609	0.01597047
973.773	0.01581275
973.936	0.01581183
974.1	0.01550502
974.263	0.01551174
974.427	0.01551867
974.59	0.01480466
974.754	0.01513478
974.917	0.01513775
975.08	0.0151265
975.244	0.01512127
975.407	0.01511634
975.57	0.014882
975.734	0.01532026
975.897	0.01510339
976.06	0.01499997
976.223	0.01493106
976.387	0.015089
976.55	0.01503613
976.713	0.01496191
976.876	0.01481577
977.039	0.01474839
977.202	0.0150816
977.365	0.01513891
977.528	0.01454748
977.692	0.01444044
977.855	0.01478941
978.018	0.01485092
978.181	0.01487749
978.344	0.01461289
978.506	0.0145455
978.669	0.01506382
978.832	0.01501805
978.995	0.01468044
979.158	0.0146305
979.321	0.01458107
979.484	0.01453217
979.646	0.01475659
979.809	0.01451157
979.972	0.01463245
980.135	0.0144901
980.297	0.01457902
980.46	0.01439785
980.623	0.0143435
980.786	0.014485
980.948	0.01430142
981.111	0.01440559
981.273	0.01444957
981.436	0.01443414
981.599	0.01424253
981.761	0.01453714
981.924	0.01422328
982.086	0.01451453
982.249	0.01463363
982.411	0.01466757
982.573	0.01430663
982.736	0.01480045
982.898	0.01468846
983.061	0.01481812
983.223	0.01533596
983.385	0.01495048
983.548	0.01454236
983.71	0.01452887
983.872	0.01461105
984.034	0.01448226
984.197	0.014572
984.359	0.01415513
984.521	0.01446501
984.683	0.01499385
984.845	0.01522233
985.008	0.01471413
985.17	0.01473123
985.332	0.01438303
985.494	0.01405774
985.656	0.01322815
985.818	0.01314444
985.98	0.01292648
986.142	0.01292706
986.304	0.01316191
986.466	0.01292046
986.628	0.01291786
986.79	0.0135745
986.952	0.01351978
987.113	0.01319019
987.275	0.01303892
987.437	0.01253423
987.599	0.01246452
987.761	0.01235776
987.922	0.01208685
988.084	0.01247715
988.246	0.01284041
988.408	0.01330899
988.569	0.01389838
988.731	0.01437688
988.893	0.01412118
989.054	0.01421462
989.216	0.01379333
989.377	0.01400034
989.539	0.01424731
989.701	0.01362216
989.862	0.01316577
990.024	0.01297904
990.185	0.01265086
990.347	0.01251984
990.508	0.01243457
990.669	0.01212959
990.831	0.0119467
990.992	0.01231247
991.154	0.01239845
991.315	0.01258465
991.476	0.01307669
991.638	0.01312771
991.799	0.01295919
991.96	0.01283013
992.121	0.0123475
992.283	0.01272874
992.444	0.01266123
992.605	0.0130215
992.766	0.01326971
992.927	0.0133172
993.088	0.01326633
993.249	0.01371974
993.41	0.0139417
993.572	0.01419453
993.733	0.01364795
993.894	0.01349074
994.055	0.01299714
994.216	0.01343547
994.376	0.01374805
994.537	0.01373318
994.698	0.01365097
994.859	0.01308031
995.02	0.01287639
995.181	0.01325543
995.342	0.01361029
995.503	0.01297479
995.663	0.01355171
995.824	0.01355996
995.985	0.01434419
996.146	0.01405646
996.306	0.01449363
996.467	0.01402
996.628	0.01368081
996.788	0.01262323
996.949	0.01286027
997.11	0.01213482
997.27	0.01194067
997.431	0.01173541
997.591	0.0117304
997.752	0.01233534
997.912	0.01380431
998.073	0.01299639
998.233	0.01371262
998.394	0.01462103
998.554	0.01451073
998.714	0.0148505
998.875	0.0148677
999.035	0.01283995
999.196	0.0134656
999.356	0.01290331
999.516	0.01269439
999.676	0.01272295
999.837	0.01316056
999.997	0.01286236
1000.157	0.01399801
1000.317	0.01367312
1000.477	0.01390199
1000.638	0.01359385
1000.798	0.01381143
1000.958	0.01210783
1001.118	0.01329868
1001.278	0.01284811
1001.438	0.01294049
1001.598	0.01365763
1001.758	0.01337484
1001.918	0.01410509
1002.078	0.01457703
1002.238	0.01331742
1002.398	0.01285545
1002.558	0.01315744
1002.718	0.01266273
1002.878	0.01365594
1003.037	0.01207491
1003.197	0.01267414
1003.357	0.01321103
1003.517	0.01364365
1003.677	0.0134854
1003.836	0.0131393
1003.996	0.01201596
1004.156	0.01250736
1004.315	0.01218566
1004.475	0.01193632
1004.635	0.01263767
1004.794	0.01275721
1004.954	0.01262375
1005.114	0.01295616
1005.273	0.01278318
1005.433	0.01313834
1005.592	0.01249235
1005.752	0.01099025
1005.911	0.01041836
1006.071	0.00990497
1006.23	0.00961741
1006.389	0.00987564
1006.549	0.00922056
1006.708	0.0106012
1006.868	0.01201105
1007.027	0.01188197
1007.186	0.01384202
1007.345	0.0143687
1007.505	0.01489912
1007.664	0.01660661
1007.823	0.0153107
1007.982	0.01477014
1008.142	0.01623916
1008.301	0.01546198
1008.46	0.01481925
1008.619	0.01367555
1008.778	0.01294077
1008.937	0.0144937
1009.096	0.01460692
1009.255	0.01347794
1009.414	0.01193366
1009.573	0.01421214
1009.732	0.01567908
1009.891	0.01582578
1010.05	0.01482836
1010.209	0.01498566
1010.368	0.01512944
1010.527	0.01676044
1010.686	0.01467621
1010.845	0.01352052
1011.003	0.01249781
1011.162	0.01315617
1011.321	0.01362373
1011.48	0.01410611
1011.638	0.01372556
1011.797	0.01508558
1011.956	0.01524414
1012.115	0.0161046
1012.273	0.01633651
1012.432	0.01722503
1012.59	0.01653324
1012.749	0.01596947
1012.908	0.01596564
1013.066	0.01623048
1013.225	0.01554329
1013.383	0.0163781
1013.542	0.0166464
1013.7	0.01999634
1013.859	0.02171521
1014.017	0.02179631
1014.175	0.02187716
1014.334	0.02425073
1014.492	0.02364946
1014.65	0.02353649
1014.809	0.02434718
1014.967	0.02413686
1015.125	0.02446611
1015.284	0.02602763
1015.442	0.02503939
1015.6	0.02557875
1015.758	0.02409388
1015.916	0.02160087
1016.075	0.02126609
1016.233	0.01927047
1016.391	0.01827202
1016.549	0.01950032
1016.707	0.01636226
1016.865	0.01825363
1017.023	0.01785631
1017.181	0.01759379
1017.339	0.01924851
1017.497	0.02024585
1017.655	0.01985818
1017.813	0.01982627
1017.971	0.01958879
1018.129	0.0189871
1018.286	0.0206232
1018.444	0.01976551
1018.602	0.01911195
1018.76	0.01905748
1018.918	0.02106909
1019.075	0.02146304
1019.233	0.01957157
1019.391	0.01992362
1019.549	0.021504
1019.706	0.02152408
1019.864	0.02109712
1020.022	0.02229137
1020.179	0.01964503
1020.337	0.02198517
1020.494	0.01964984
1020.652	0.01819429
1020.809	0.0180858
1020.967	0.01754017
1021.124	0.01908465
1021.282	0.02235531
1021.439	0.02157894
1021.597	0.02430335
1021.754	0.02787751
1021.911	0.02811718
1022.069	0.02884344
1022.226	0.02628141
1022.384	0.02336618
1022.541	0.02616466
1022.698	0.02375657
1022.855	0.02050661
1023.013	0.02333312
1023.17	0.02371818
1023.327	0.02345367
1023.484	0.02851846
1023.641	0.02849033
1023.798	0.0333386
1023.956	0.03671926
1024.113	0.03615581
1024.27	0.03666067
1024.427	0.03776956
1024.584	0.03452868
1024.741	0.03303296
1024.898	0.03003655
1025.055	0.02925263
1025.212	0.02543083
1025.369	0.02535093
1025.525	0.02569097
1025.682	0.02315571
1025.839	0.02470586
1025.996	0.02542083
1026.153	0.02378616
1026.31	0.02702547
1026.466	0.03024795
1026.623	0.03051752
1026.78	0.03415993
1026.937	0.03532491
1027.093	0.03349215
1027.25	0.03813992
1027.407	0.03785134
1027.563	0.03337796
1027.72	0.03673169
1027.876	0.03579117
1028.033	0.03455201
1028.19	0.0363605
1028.346	0.03325676
1028.503	0.03362841
1028.659	0.036151
1028.816	0.03437813
1028.972	0.03412501
1029.128	0.03634172
1029.285	0.03068021
1029.441	0.03302685
1029.598	0.03239604
1029.754	0.0343057
1029.91	0.03308812
1030.067	0.03937982
1030.223	0.03896724
1030.379	0.04583368
1030.535	0.04519433
1030.691	0.04641663
1030.848	0.04625511
1031.004	0.04561163
1031.16	0.04461641
1031.316	0.04268119
1031.472	0.04523681
1031.628	0.04242198
1031.784	0.04276134
1031.94	0.04051278
1032.096	0.05036842
1032.252	0.04993382
1032.408	0.05318114
1032.564	0.04934031
1032.72	0.05376711
1032.876	0.04962737
1033.032	0.04701706
1033.188	0.03962813
1033.344	0.0342415
1033.5	0.03048372
1033.655	0.02866821
1033.811	0.02500477
1033.967	0.02500676
