Data from 0_1_mm_pl_100pc_Absorbance__0__17-57-31-441.txt Node

Date: Wed Mar 01 17:57:31 CET 2023
User: Ange
Spectrometer: FLMT08341
Trigger mode: 0
Integration Time (sec): 1.000000E-2
Scans to average: 400
Electric dark correction enabled: true
Nonlinearity correction enabled: false
Boxcar width: 3
XAxis mode: Wavelengths
Number of Pixels in Spectrum: 3648
>>>>>Begin Spectral Data<<<<<
345.271	-0.04078675
345.487	-0.02171432
345.704	-0.02437971
345.921	-0.03072483
346.137	-0.02637451
346.354	-0.00710706
346.571	0.04350359
346.787	0.27437848
347.004	-0.07107951
347.22	-0.09267473
347.437	-0.24843439
347.653	-0.3796821
347.87	0.21287456
348.086	-0.07993202
348.303	-0
348.519	0.02567841
348.736	0.03254113
348.952	0.03994801
349.169	0.04309323
349.385	0.0451633
349.601	0.04701071
349.818	0.04783242
350.034	0.04723239
350.251	0.04771615
350.467	0.04778048
350.683	0.04710412
350.9	0.04649663
351.116	0.04612491
351.332	0.04533709
351.549	0.04524459
351.765	0.04546914
351.981	0.04430793
352.197	0.0445489
352.414	0.04407812
352.63	0.04377358
352.846	0.04366171
353.062	0.04248692
353.278	0.04094214
353.495	0.04170696
353.711	0.03924061
353.927	0.04013517
354.143	0.03960186
354.359	0.04004202
354.575	0.03987914
354.792	0.04088523
355.008	0.03869049
355.224	0.03890163
355.44	0.03704835
355.656	0.03693906
355.872	0.0359114
356.088	0.03747406
356.304	0.0366045
356.52	0.03591861
356.736	0.03677569
356.952	0.03748667
357.168	0.0370284
357.384	0.03756849
357.6	0.03467737
357.816	0.03404846
358.032	0.03638867
358.248	0.03563145
358.464	0.03542772
358.679	0.03611731
358.895	0.03427097
359.111	0.03617741
359.327	0.03585462
359.543	0.03378211
359.759	0.03342954
359.974	0.03302706
360.19	0.03148092
360.406	0.03095514
360.622	0.02942772
360.838	0.02956079
361.053	0.02973512
361.269	0.029582
361.485	0.02910469
361.701	0.02821282
361.916	0.02863417
362.132	0.02877428
362.348	0.02776756
362.563	0.02753203
362.779	0.02795617
362.995	0.02721404
363.21	0.02755898
363.426	0.0266213
363.641	0.0257903
363.857	0.02649256
364.073	0.02541542
364.288	0.02483338
364.504	0.0255444
364.719	0.02530777
364.935	0.02446359
365.15	0.02427468
365.366	0.02304855
365.581	0.02312754
365.797	0.02369032
366.012	0.02273575
366.228	0.02221393
366.443	0.02322519
366.658	0.02307418
366.874	0.02278804
367.089	0.0229874
367.305	0.02181299
367.52	0.02160637
367.735	0.02183982
367.951	0.02170753
368.166	0.02226848
368.381	0.02262093
368.597	0.02302027
368.812	0.02267312
369.027	0.02272259
369.243	0.02226656
369.458	0.02170389
369.673	0.0215407
369.888	0.02168203
370.104	0.02101048
370.319	0.02110458
370.534	0.02127107
370.749	0.02182298
370.964	0.02217821
371.179	0.02169968
371.395	0.02091241
371.61	0.02095202
371.825	0.0210759
372.04	0.02026744
372.255	0.01926942
372.47	0.01827026
372.685	0.01828627
372.9	0.01820538
373.115	0.01759816
373.33	0.01720293
373.545	0.01771281
373.76	0.01770119
373.975	0.01834465
374.19	0.01815285
374.405	0.01788924
374.62	0.01766374
374.835	0.01749604
375.05	0.01675274
375.265	0.01638704
375.48	0.01545882
375.695	0.01417905
375.91	0.01447247
376.125	0.01398377
376.339	0.013722
376.554	0.0144251
376.769	0.01416583
376.984	0.01416648
377.199	0.01479135
377.414	0.01458561
377.628	0.01481562
377.843	0.01456164
378.058	0.01391807
378.273	0.01395314
378.487	0.01449643
378.702	0.01487398
378.917	0.01501512
379.131	0.01498957
379.346	0.01484863
379.561	0.01531919
379.775	0.01552203
379.99	0.01471269
380.205	0.01460851
380.419	0.01423367
380.634	0.01354054
380.848	0.01322977
381.063	0.01270025
381.278	0.01262423
381.492	0.0129262
381.707	0.01234253
381.921	0.01201114
382.136	0.01225262
382.35	0.01286219
382.565	0.0126508
382.779	0.01236218
382.994	0.011761
383.208	0.0109463
383.422	0.01109539
383.637	0.01123056
383.851	0.01132839
384.066	0.01139351
384.28	0.0110333
384.494	0.01112298
384.709	0.01136692
384.923	0.0109705
385.137	0.01044475
385.352	0.00992682
385.566	0.00954952
385.78	0.00993953
385.995	0.01003391
386.209	0.01041896
386.423	0.01054244
386.637	0.01068506
386.852	0.01095925
387.066	0.01091909
387.28	0.010609
387.494	0.01066936
387.708	0.01050989
387.923	0.01026805
388.137	0.010379
388.351	0.01014187
388.565	0.00997381
388.779	0.00975622
388.993	0.00962509
389.207	0.00956071
389.421	0.00933504
389.635	0.00892281
389.85	0.00821429
390.064	0.00788603
390.278	0.00813263
390.492	0.0081621
390.706	0.00838539
390.92	0.0085821
391.134	0.00872045
391.348	0.00921119
391.561	0.00941142
391.775	0.00889003
391.989	0.00872147
392.203	0.00860571
392.417	0.00851687
392.631	0.00863217
392.845	0.00855206
393.059	0.00868636
393.273	0.00867039
393.486	0.00821103
393.7	0.00762768
393.914	0.0073762
394.128	0.00709507
394.342	0.00658428
394.555	0.00635478
394.769	0.00630655
394.983	0.00625873
395.197	0.00666029
395.41	0.00705797
395.624	0.0070879
395.838	0.00745772
396.051	0.00732904
396.265	0.007341
396.479	0.00725113
396.692	0.00681742
396.906	0.00660581
397.12	0.0065508
397.333	0.00640209
397.547	0.00648509
397.76	0.00674575
397.974	0.00712928
398.187	0.00724345
398.401	0.00706126
398.614	0.00714651
398.828	0.00710076
399.041	0.00727345
399.255	0.00698915
399.468	0.00658066
399.682	0.00641265
399.895	0.0065053
400.109	0.00632233
400.322	0.00618252
400.536	0.00602813
400.749	0.00576607
400.962	0.00584681
401.176	0.00612697
401.389	0.00609872
401.602	0.00563066
401.816	0.00573174
402.029	0.00539787
402.242	0.0056573
402.456	0.00535917
402.669	0.00533535
402.882	0.00530455
403.095	0.00532033
403.309	0.0052844
403.522	0.00546916
403.735	0.00547735
403.948	0.00583905
404.161	0.00569702
404.375	0.00560011
404.588	0.0057133
404.801	0.00559202
405.014	0.00541756
405.227	0.005455
405.44	0.0051341
405.653	0.00499452
405.866	0.00472582
406.079	0.00511214
406.293	0.00507846
406.506	0.00519922
406.719	0.00519074
406.932	0.00549708
407.145	0.00558388
407.358	0.00568064
407.571	0.00543714
407.784	0.00522336
407.996	0.00495113
408.209	0.00466832
408.422	0.00421166
408.635	0.00408035
408.848	0.00383624
409.061	0.00345583
409.274	0.00372441
409.487	0.00361787
409.7	0.003584
409.912	0.00383505
410.125	0.00370087
410.338	0.00406118
410.551	0.00438484
410.764	0.00412585
410.976	0.00443856
411.189	0.00439097
411.402	0.00442308
411.615	0.0043229
411.827	0.0039454
412.04	0.00399207
412.253	0.00392005
412.465	0.00387415
412.678	0.00407142
412.891	0.00403793
413.103	0.0042034
413.316	0.00422947
413.529	0.00406716
413.741	0.004339
413.954	0.00416481
414.166	0.00416343
414.379	0.00395362
414.591	0.00391929
414.804	0.00410973
415.016	0.00406065
415.229	0.00356034
415.441	0.00400021
415.654	0.00373179
415.866	0.00390461
416.079	0.00370882
416.291	0.0036037
416.504	0.00353867
416.716	0.00388822
416.928	0.00341879
417.141	0.00334292
417.353	0.0030581
417.566	0.0031626
417.778	0.00318696
417.99	0.00313313
418.203	0.00310576
418.415	0.00335752
418.627	0.00333731
418.839	0.00345571
419.052	0.00352892
419.264	0.00346946
419.476	0.00361223
419.688	0.00369318
419.901	0.00336049
420.113	0.00324343
420.325	0.00321873
420.537	0.00294926
420.749	0.00294726
420.961	0.00290127
421.174	0.0027682
421.386	0.00288503
421.598	0.00297573
421.81	0.00317997
422.022	0.00308491
422.234	0.00303075
422.446	0.00284319
422.658	0.00287401
422.87	0.00288345
423.082	0.00299576
423.294	0.00274607
423.506	0.00289051
423.718	0.00273477
423.93	0.00279114
424.142	0.00273752
424.354	0.0027331
424.566	0.00248554
424.778	0.00245715
424.99	0.00245916
425.202	0.00267929
425.414	0.00270724
425.625	0.00271055
425.837	0.0026746
426.049	0.00293994
426.261	0.00285307
426.473	0.00276601
426.684	0.00258428
426.896	0.00260404
427.108	0.00244505
427.32	0.00232924
427.531	0.00229804
427.743	0.00234525
427.955	0.00253903
428.167	0.00246497
428.378	0.00216665
428.59	0.0023428
428.802	0.00244581
429.013	0.00227518
429.225	0.00224989
429.436	0.00223952
429.648	0.00228097
429.86	0.00251912
430.071	0.00239614
430.283	0.00224383
430.494	0.00243011
430.706	0.00243279
430.917	0.00218365
431.129	0.00221195
431.34	0.00216027
431.552	0.00229074
431.763	0.00232122
431.975	0.00216781
432.186	0.00217673
432.398	0.00226339
432.609	0.00230164
432.821	0.00245381
433.032	0.00226437
433.243	0.0024382
433.455	0.00247644
433.666	0.00253025
433.877	0.00253167
434.089	0.00248079
434.3	0.00225045
434.511	0.00226001
434.723	0.00203107
434.934	0.00205888
435.145	0.00214348
435.356	0.00218197
435.568	0.00226374
435.779	0.00250214
435.99	0.00253559
436.201	0.00256244
436.412	0.0023646
436.624	0.00231449
436.835	0.00218033
437.046	0.00206229
437.257	0.00192788
437.468	0.00194239
437.679	0.00187391
437.89	0.00193052
438.101	0.00189088
438.312	0.00195348
438.523	0.0018707
438.734	0.00190214
438.945	0.00185966
439.156	0.00203625
439.367	0.00206247
439.578	0.00203709
439.789	0.00208769
440	0.00230433
440.211	0.00217347
440.422	0.00200855
440.633	0.0019137
440.844	0.00188946
441.055	0.00190787
441.266	0.00193467
441.477	0.00183792
441.687	0.00186565
441.898	0.00196465
442.109	0.0018341
442.32	0.00183587
442.531	0.00191946
442.741	0.00181846
442.952	0.00178057
443.163	0.00180987
443.374	0.00181054
443.584	0.00182176
443.795	0.00177815
444.006	0.00160358
444.216	0.00153039
444.427	0.0015394
444.638	0.00152144
444.848	0.00148522
445.059	0.00154681
445.27	0.00158404
445.48	0.00160311
445.691	0.00157908
445.901	0.00161858
446.112	0.00164028
446.323	0.00167803
446.533	0.00162172
446.744	0.00170571
446.954	0.00164021
447.165	0.00190827
447.375	0.00188741
447.586	0.00188205
447.796	0.00187998
448.006	0.00204395
448.217	0.0018943
448.427	0.00186193
448.638	0.00169624
448.848	0.00169155
449.058	0.00169732
449.269	0.0015955
449.479	0.00144688
449.689	0.00161138
449.9	0.00164231
450.11	0.00166892
450.32	0.00168739
450.531	0.00160639
450.741	0.00171226
450.951	0.00189285
451.161	0.0018079
451.372	0.00192053
451.582	0.00196147
451.792	0.00183965
452.002	0.00190573
452.212	0.00181577
452.422	0.00171231
452.633	0.001729
452.843	0.00164054
453.053	0.00164055
453.263	0.00175863
453.473	0.00171884
453.683	0.00171482
453.893	0.0016376
454.103	0.00166009
454.313	0.00163284
454.523	0.00158379
454.733	0.00148953
454.943	0.00151658
455.153	0.00162725
455.363	0.00159849
455.573	0.00158404
455.783	0.00162687
455.993	0.00174409
456.203	0.00196849
456.413	0.00203911
456.623	0.00206705
456.833	0.00226224
457.042	0.00218675
457.252	0.00214517
457.462	0.00204812
457.672	0.00191412
457.882	0.00193927
458.091	0.0019601
458.301	0.00189777
458.511	0.00190094
458.721	0.00193194
458.931	0.00181513
459.14	0.00188348
459.35	0.0018968
459.56	0.00186122
459.769	0.00176889
459.979	0.00191824
460.189	0.00187024
460.398	0.00198036
460.608	0.00195245
460.817	0.00197493
461.027	0.00200127
461.237	0.0022439
461.446	0.00216691
461.656	0.00234307
461.865	0.00232238
462.075	0.00235492
462.284	0.00225877
462.494	0.00217856
462.703	0.00202678
462.913	0.00204709
463.122	0.00200225
463.332	0.00189719
463.541	0.00196692
463.751	0.00199562
463.96	0.00205206
464.169	0.00190817
464.379	0.00187648
464.588	0.00174839
464.797	0.00187438
465.007	0.00175212
465.216	0.00178481
465.425	0.00185212
465.635	0.00187581
465.844	0.00191841
466.053	0.00199116
466.263	0.00203497
466.472	0.00208115
466.681	0.00205355
466.89	0.00198698
467.099	0.0021762
467.309	0.00220541
467.518	0.0022138
467.727	0.00222718
467.936	0.00212732
468.145	0.00213018
468.354	0.00216897
468.563	0.00202436
468.772	0.00193965
468.982	0.00198849
469.191	0.00199335
469.4	0.002056
469.609	0.00200091
469.818	0.00202748
470.027	0.00206677
470.236	0.00209335
470.445	0.00211331
470.654	0.00211558
470.863	0.00216348
471.072	0.00219779
471.28	0.00215865
471.489	0.00218233
471.698	0.00218892
471.907	0.00211742
472.116	0.00204723
472.325	0.00199484
472.534	0.00199843
472.743	0.00206155
472.951	0.00210213
473.16	0.00214934
473.369	0.00223178
473.578	0.00227946
473.786	0.00232038
473.995	0.00236338
474.204	0.00236593
474.413	0.00235198
474.621	0.00237255
474.83	0.00238977
475.039	0.0023333
475.247	0.00242606
475.456	0.00249269
475.665	0.00246382
475.873	0.0024809
476.082	0.00253759
476.291	0.00258918
476.499	0.0027696
476.708	0.00282891
476.916	0.00278967
477.125	0.00278454
477.333	0.00282195
477.542	0.00272313
477.75	0.00265537
477.959	0.00262295
478.167	0.00256204
478.376	0.00249591
478.584	0.00254689
478.793	0.00259138
479.001	0.00272084
479.209	0.0028156
479.418	0.00276648
479.626	0.00276303
479.834	0.00282888
480.043	0.00283931
480.251	0.00286217
480.459	0.0028407
480.668	0.00279455
480.876	0.00289509
481.084	0.00291383
481.293	0.00298927
481.501	0.00303665
481.709	0.00307631
481.917	0.00308801
482.125	0.00308335
482.334	0.00310988
482.542	0.00321168
482.75	0.00315727
482.958	0.00316532
483.166	0.00318805
483.374	0.00328707
483.583	0.00340407
483.791	0.00337698
483.999	0.00331641
484.207	0.00335495
484.415	0.00339083
484.623	0.00337273
484.831	0.00332715
485.039	0.00327689
485.247	0.0032804
485.455	0.00333043
485.663	0.0033787
485.871	0.00348921
486.079	0.00354966
486.287	0.0036907
486.495	0.00373818
486.702	0.0038831
486.91	0.00393105
487.118	0.00402206
487.326	0.00397098
487.534	0.00399756
487.742	0.00389269
487.95	0.00390344
488.157	0.00385253
488.365	0.00386994
488.573	0.00385359
488.781	0.00389961
488.988	0.00389847
489.196	0.00396977
489.404	0.00408276
489.612	0.00413308
489.819	0.0042094
490.027	0.00419247
490.235	0.00422423
490.442	0.00422011
490.65	0.00424477
490.857	0.00422367
491.065	0.00421202
491.273	0.0041697
491.48	0.00428714
491.688	0.00430046
491.895	0.00440507
492.103	0.00440906
492.31	0.00446441
492.518	0.00456289
492.725	0.00463342
492.933	0.00466728
493.14	0.00476554
493.348	0.00477291
493.555	0.00486869
493.763	0.00486219
493.97	0.00486722
494.177	0.00491063
494.385	0.00484838
494.592	0.00490058
494.8	0.00500302
495.007	0.00497573
495.214	0.00504813
495.422	0.00506614
495.629	0.00507997
495.836	0.00520948
496.043	0.00521754
496.251	0.00520053
496.458	0.0052873
496.665	0.00537821
496.872	0.00546911
497.08	0.00555145
497.287	0.00563601
497.494	0.00567829
497.701	0.0057245
497.908	0.00572762
498.115	0.00577329
498.322	0.00582139
498.53	0.00580014
498.737	0.00580958
498.944	0.00591394
499.151	0.00594766
499.358	0.00606228
499.565	0.00609513
499.772	0.00615334
499.979	0.00626965
500.186	0.00627069
500.393	0.00623115
500.6	0.00628839
500.807	0.00626826
501.014	0.00632033
501.221	0.00633541
501.427	0.00633494
501.634	0.00640641
501.841	0.00643135
502.048	0.00651103
502.255	0.00663774
502.462	0.00662717
502.669	0.00665849
502.875	0.00674283
503.082	0.00683503
503.289	0.00692495
503.496	0.00699503
503.702	0.00702836
503.909	0.00709223
504.116	0.00717987
504.323	0.0071909
504.529	0.00721695
504.736	0.00731087
504.943	0.0073782
505.149	0.00743856
505.356	0.00756525
505.563	0.0076517
505.769	0.00779202
505.976	0.00786771
506.182	0.00788721
506.389	0.00792483
506.595	0.0079671
506.802	0.00793303
507.008	0.00797605
507.215	0.00801521
507.421	0.0080897
507.628	0.008145
507.834	0.00814758
508.041	0.00820642
508.247	0.00829943
508.454	0.0083709
508.66	0.00841412
508.866	0.00844897
509.073	0.00852828
509.279	0.00864633
509.486	0.00869695
509.692	0.0088182
509.898	0.00890076
510.105	0.00893953
510.311	0.0090627
510.517	0.00911993
510.723	0.0092262
510.93	0.00935596
511.136	0.00938798
511.342	0.00940551
511.548	0.00951776
511.754	0.00952949
511.961	0.00964179
512.167	0.00969033
512.373	0.00971728
512.579	0.0097968
512.785	0.00989325
512.991	0.00993452
513.197	0.01001481
513.404	0.01003764
513.61	0.01011016
513.816	0.01023498
514.022	0.0103118
514.228	0.01033957
514.434	0.01046514
514.64	0.01052508
514.846	0.01066096
515.052	0.01069814
515.258	0.01073943
515.464	0.01083404
515.669	0.01100032
515.875	0.01104219
516.081	0.01110734
516.287	0.01114561
516.493	0.01127952
516.699	0.0113708
516.905	0.01142486
517.111	0.01142721
517.316	0.0115329
517.522	0.01165158
517.728	0.01179723
517.934	0.01189282
518.139	0.01198398
518.345	0.01211771
518.551	0.0122672
518.757	0.01234762
518.962	0.01248734
519.168	0.01250858
519.374	0.01254822
519.579	0.01266046
519.785	0.01270176
519.991	0.01278811
520.196	0.0128661
520.402	0.01293665
520.607	0.01306326
520.813	0.01322463
521.018	0.0132802
521.224	0.01339628
521.429	0.0134642
521.635	0.01359557
521.84	0.01362422
522.046	0.01365834
522.251	0.0137271
522.457	0.01383423
522.662	0.01394458
522.868	0.0140899
523.073	0.01418456
523.279	0.01437309
523.484	0.01452669
523.689	0.01462075
523.895	0.01473234
524.1	0.0148011
524.305	0.01486426
524.511	0.01494546
524.716	0.01501711
524.921	0.01514124
525.126	0.01520301
525.332	0.01534105
525.537	0.01546524
525.742	0.01560649
525.947	0.0157331
526.153	0.01585256
526.358	0.0159872
526.563	0.01614131
526.768	0.01622161
526.973	0.01634932
527.178	0.01644196
527.383	0.01656108
527.588	0.01668869
527.794	0.0167419
527.999	0.01685148
528.204	0.01700854
528.409	0.01712565
528.614	0.01725815
528.819	0.01736363
529.024	0.0174448
529.229	0.01760152
529.434	0.01769147
529.639	0.01773324
529.843	0.0178793
530.048	0.01798586
530.253	0.01812824
530.458	0.01835268
530.663	0.01850164
530.868	0.0187049
531.073	0.01886175
531.278	0.01896706
531.482	0.01911536
531.687	0.01925068
531.892	0.01933165
532.097	0.01948706
532.302	0.01958216
532.506	0.01975904
532.711	0.019914
532.916	0.02010048
533.12	0.0202472
533.325	0.02034966
533.53	0.02048796
533.734	0.02069317
533.939	0.02086612
534.144	0.02102442
534.348	0.02115792
534.553	0.0213143
534.757	0.02149828
534.962	0.02162174
535.167	0.02173777
535.371	0.02182711
535.576	0.02200838
535.78	0.02211517
535.985	0.0222546
536.189	0.02241019
536.394	0.02255509
536.598	0.02273609
536.803	0.02293974
537.007	0.02307316
537.211	0.02328222
537.416	0.02345747
537.62	0.02364132
537.825	0.02382504
538.029	0.02395306
538.233	0.02411852
538.438	0.02427518
538.642	0.02442409
538.846	0.02462032
539.05	0.02479962
539.255	0.02501389
539.459	0.02520625
539.663	0.02537481
539.867	0.0255494
540.072	0.02574592
540.276	0.02587854
540.48	0.02602355
540.684	0.0261246
540.888	0.02628958
541.092	0.02646696
541.297	0.0266304
541.501	0.02681398
541.705	0.02707296
541.909	0.02731546
542.113	0.02754413
542.317	0.02775807
542.521	0.02795089
542.725	0.02816243
542.929	0.02835907
543.133	0.02852152
543.337	0.02866021
543.541	0.02884467
543.745	0.02904234
543.949	0.02927873
544.153	0.02946997
544.357	0.02966338
544.56	0.02984711
544.764	0.03006474
544.968	0.03026479
545.172	0.03047351
545.376	0.03065433
545.58	0.03086789
545.783	0.03102776
545.987	0.03121629
546.191	0.03144852
546.395	0.0316455
546.598	0.03184225
546.802	0.03207356
547.006	0.03226076
547.21	0.03252525
547.413	0.03278646
547.617	0.03297145
547.821	0.03318269
548.024	0.0333952
548.228	0.03353807
548.431	0.03377492
548.635	0.03397691
548.839	0.03419601
549.042	0.03447639
549.246	0.0347113
549.449	0.03497793
549.653	0.03526699
549.856	0.03550115
550.06	0.03576481
550.263	0.03601861
550.467	0.03617314
550.67	0.03639434
550.874	0.03654256
551.077	0.03673709
551.28	0.03697855
551.484	0.03719262
551.687	0.03736988
551.891	0.03764276
552.094	0.03791174
552.297	0.03821332
552.501	0.038494
552.704	0.03875314
552.907	0.03897826
553.11	0.03924195
553.314	0.03950457
553.517	0.03976203
553.72	0.04001102
553.923	0.04026245
554.127	0.04049236
554.33	0.04075234
554.533	0.04103501
554.736	0.04126593
554.939	0.04149705
555.142	0.04176031
555.345	0.04198934
555.549	0.04227711
555.752	0.0425509
555.955	0.04279214
556.158	0.04308134
556.361	0.04338628
556.564	0.0436163
556.767	0.04393664
556.97	0.044187
557.173	0.04444328
557.376	0.04471366
557.579	0.04496083
557.782	0.0452138
557.984	0.04554399
558.187	0.04581345
558.39	0.04611393
558.593	0.0463955
558.796	0.04667173
558.999	0.04695166
559.202	0.04728416
559.404	0.04750594
559.607	0.04775205
559.81	0.04802838
560.013	0.04834194
560.216	0.048641
560.418	0.04894583
560.621	0.04924429
560.824	0.04959836
561.026	0.04992368
561.229	0.05020789
561.432	0.05052288
561.634	0.05083866
561.837	0.05114266
562.04	0.05141228
562.242	0.05170243
562.445	0.05199363
562.647	0.05232829
562.85	0.0526303
563.053	0.0529002
563.255	0.05319775
563.458	0.05349691
563.66	0.0538226
563.863	0.0541457
564.065	0.05443624
564.268	0.05471161
564.47	0.05508573
564.672	0.05540647
564.875	0.05571797
565.077	0.05601783
565.28	0.05635739
565.482	0.0567003
565.684	0.05700086
565.887	0.05722822
566.089	0.05759431
566.291	0.05789192
566.494	0.05821487
566.696	0.05848958
566.898	0.05878986
567.1	0.05912203
567.303	0.05950597
567.505	0.05977144
567.707	0.06012704
567.909	0.0604653
568.111	0.06081084
568.314	0.06118059
568.516	0.06152367
568.718	0.0618614
568.92	0.0622246
569.122	0.06252824
569.324	0.06287795
569.526	0.06319583
569.728	0.06354046
569.93	0.06390241
570.132	0.06423666
570.334	0.06458264
570.536	0.06491559
570.738	0.06520631
570.94	0.06554013
571.142	0.065862
571.344	0.066239
571.546	0.06653802
571.748	0.06688267
571.95	0.06721538
572.152	0.06759024
572.354	0.06798878
572.555	0.06833156
572.757	0.06864024
572.959	0.06904973
573.161	0.06941228
573.363	0.06980213
573.564	0.07020715
573.766	0.07055097
573.968	0.07093656
574.17	0.07133742
574.371	0.07169073
574.573	0.07203826
574.775	0.07244641
574.976	0.07277762
575.178	0.07315161
575.38	0.0734762
575.581	0.07378022
575.783	0.07415764
575.985	0.07456994
576.186	0.07489007
576.388	0.07525132
576.589	0.07562991
576.791	0.07606269
576.992	0.07646854
577.194	0.07684946
577.395	0.07721702
577.597	0.07762539
577.798	0.07800572
578	0.07838914
578.201	0.07879097
578.402	0.07917047
578.604	0.07948813
578.805	0.07980802
579.007	0.08012963
579.208	0.08051743
579.409	0.08081726
579.611	0.08114129
579.812	0.08153957
580.013	0.08199646
580.215	0.08237266
580.416	0.08278437
580.617	0.08313214
580.818	0.08353431
581.019	0.08388464
581.221	0.08420913
581.422	0.0845464
581.623	0.08497536
581.824	0.08534159
582.025	0.08577093
582.226	0.08619286
582.428	0.08668104
582.629	0.0871092
582.83	0.08757326
583.031	0.08795646
583.232	0.08838386
583.433	0.08882021
583.634	0.08921289
583.835	0.08954296
584.036	0.089896
584.237	0.0901903
584.438	0.09058258
584.639	0.09096135
584.84	0.09131793
585.041	0.09171145
585.242	0.09213964
585.442	0.09255815
585.643	0.0930683
585.844	0.09346239
586.045	0.09387717
586.246	0.09423753
586.447	0.09463533
586.647	0.09500063
586.848	0.09538226
587.049	0.09573476
587.25	0.09616917
587.45	0.09658593
587.651	0.09703756
587.852	0.09747248
588.053	0.0979009
588.253	0.09834182
588.454	0.09874716
588.655	0.09910612
588.855	0.0994726
589.056	0.09984723
589.256	0.10024098
589.457	0.10060633
589.658	0.10101605
589.858	0.10137282
590.059	0.10178575
590.259	0.10219593
590.46	0.10252871
590.66	0.10292621
590.861	0.10333911
591.061	0.10374131
591.262	0.10420436
591.462	0.10462829
591.662	0.10507868
591.863	0.10553672
592.063	0.10590255
592.264	0.10633048
592.464	0.10671352
592.664	0.10712922
592.865	0.10756966
593.065	0.10791469
593.265	0.10838618
593.465	0.10881559
593.666	0.10920917
593.866	0.10963819
594.066	0.11003851
594.266	0.11037208
594.467	0.11079596
594.667	0.1111237
594.867	0.1115658
595.067	0.11191793
595.267	0.11232143
595.467	0.11269241
595.668	0.11312768
595.868	0.11354518
596.068	0.11397385
596.268	0.11429481
596.468	0.11475847
596.668	0.11511942
596.868	0.11552405
597.068	0.11586226
597.268	0.11625469
597.468	0.11661297
597.668	0.1170734
597.868	0.11743503
598.068	0.1178681
598.268	0.118247
598.467	0.11873562
598.667	0.11907111
598.867	0.11947822
599.067	0.11990155
599.267	0.12029739
599.467	0.12069665
599.667	0.121105
599.866	0.12146065
600.066	0.12189651
600.266	0.12227108
600.466	0.1226456
600.665	0.12305004
600.865	0.12345413
601.065	0.12382698
601.264	0.12419302
601.464	0.12461389
601.664	0.12507535
601.863	0.12544318
602.063	0.12581769
602.263	0.12611325
602.462	0.12652481
602.662	0.12689205
602.861	0.12729273
603.061	0.12765432
603.26	0.12807831
603.46	0.12842957
603.659	0.12889338
603.859	0.12922673
604.058	0.12965204
604.258	0.1300659
604.457	0.13051275
604.657	0.13079738
604.856	0.1311851
605.056	0.13158172
605.255	0.13197703
605.454	0.13239503
605.654	0.13267227
605.853	0.13301181
606.052	0.13346928
606.252	0.13391425
606.451	0.13428658
606.65	0.13468342
606.849	0.13498805
607.049	0.13543245
607.248	0.13575562
607.447	0.13606508
607.646	0.13639943
607.845	0.1367469
608.045	0.13710851
608.244	0.13755366
608.443	0.1378992
608.642	0.13830474
608.841	0.13872051
609.04	0.13907001
609.239	0.13944991
609.438	0.1397851
609.637	0.14015716
609.836	0.14052818
610.035	0.14087426
610.234	0.14123171
610.433	0.14161104
610.632	0.14194903
610.831	0.14239295
611.03	0.14269307
611.229	0.14309758
611.428	0.14348127
611.627	0.14384068
611.826	0.1442255
612.025	0.14470047
612.224	0.14501715
612.422	0.145454
612.621	0.1458196
612.82	0.14619321
613.019	0.14662205
613.218	0.14700976
613.416	0.147243
613.615	0.14765826
613.814	0.14798251
614.012	0.14836061
614.211	0.14867511
614.41	0.14899982
614.608	0.14933269
614.807	0.14971005
615.006	0.15007628
615.204	0.15038826
615.403	0.15067854
615.602	0.15108151
615.8	0.15148801
615.999	0.15178306
616.197	0.15217084
616.396	0.1524997
616.594	0.15282506
616.793	0.15323864
616.991	0.15355365
617.19	0.15376036
617.388	0.1541905
617.586	0.15455126
617.785	0.15492227
617.983	0.15532122
618.182	0.15560099
618.38	0.15592351
618.578	0.15634955
618.777	0.15670411
618.975	0.15706185
619.173	0.15739255
619.372	0.15771117
619.57	0.15803541
619.768	0.15842414
619.966	0.15881778
620.165	0.15907996
620.363	0.159417
620.561	0.15969713
620.759	0.16004883
620.957	0.16043384
621.155	0.16076334
621.354	0.16103009
621.552	0.1614147
621.75	0.16169682
621.948	0.16208397
622.146	0.16242334
622.344	0.16273968
622.542	0.1630996
622.74	0.16340776
622.938	0.16366099
623.136	0.16406539
623.334	0.16441526
623.532	0.16463963
623.73	0.16491962
623.928	0.16522061
624.126	0.16556914
624.324	0.16598661
624.522	0.16617159
624.719	0.16642
624.917	0.16683677
625.115	0.16713609
625.313	0.16743526
625.511	0.16779203
625.708	0.16800802
625.906	0.16837811
626.104	0.16869089
626.302	0.16903583
626.499	0.16942039
626.697	0.16974497
626.895	0.17003233
627.093	0.17038166
627.29	0.17072665
627.488	0.17105058
627.686	0.17136467
627.883	0.17162428
628.081	0.17186123
628.278	0.17226306
628.476	0.17257164
628.673	0.17286572
628.871	0.17315611
629.068	0.17344899
629.266	0.17382729
629.463	0.17414267
629.661	0.17438344
629.858	0.1746631
630.056	0.17494293
630.253	0.17524378
630.451	0.17546382
630.648	0.17575714
630.845	0.1760838
631.043	0.17635037
631.24	0.17668405
631.438	0.17707229
631.635	0.17738162
631.832	0.17765349
632.029	0.17796064
632.227	0.17824958
632.424	0.17854197
632.621	0.17882816
632.818	0.17905062
633.016	0.17936952
633.213	0.17968442
633.41	0.17996979
633.607	0.18027065
633.804	0.18055577
634.001	0.18078672
634.199	0.18112031
634.396	0.18140505
634.593	0.18166853
634.79	0.18193202
634.987	0.18227
635.184	0.18256756
635.381	0.18293278
635.578	0.18321673
635.775	0.1835092
635.972	0.1838654
636.169	0.18414706
636.366	0.1843564
636.563	0.18463364
636.76	0.18486421
636.957	0.18513085
637.153	0.18532873
637.35	0.18559818
637.547	0.18587547
637.744	0.18620513
637.941	0.18645479
638.138	0.18674882
638.334	0.18698383
638.531	0.18731992
638.728	0.18760339
638.925	0.18797644
639.121	0.18820423
639.318	0.18848514
639.515	0.18871695
639.711	0.1890286
639.908	0.18923617
640.105	0.18950262
640.301	0.18966042
640.498	0.18997341
640.695	0.19029813
640.891	0.19061425
641.088	0.19086535
641.284	0.19118038
641.481	0.19143118
641.677	0.1917035
641.874	0.19190863
642.07	0.19216922
642.267	0.19247369
642.463	0.19271984
642.66	0.19304381
642.856	0.19327204
643.053	0.19342629
643.249	0.19373522
643.445	0.19395927
643.642	0.19416934
643.838	0.19441422
644.034	0.19464157
644.231	0.19491777
644.427	0.1952718
644.623	0.19553737
644.82	0.19577587
645.016	0.19604717
645.212	0.1962901
645.408	0.19653592
645.604	0.19688637
645.801	0.19712578
645.997	0.19740951
646.193	0.19766954
646.389	0.19796231
646.585	0.1982921
646.781	0.19858498
646.977	0.19879347
647.173	0.19910667
647.37	0.19926308
647.566	0.19956259
647.762	0.19977863
647.958	0.20003828
648.154	0.20026126
648.35	0.20051881
648.546	0.20069644
648.742	0.2010757
648.937	0.20124134
649.133	0.20156602
649.329	0.20188255
649.525	0.20216746
649.721	0.20245052
649.917	0.20280055
650.113	0.20294042
650.309	0.20330872
650.504	0.20350556
650.7	0.20361906
650.896	0.20387195
651.092	0.20410024
651.287	0.20434167
651.483	0.20470595
651.679	0.20488978
651.875	0.20516641
652.07	0.20545215
652.266	0.20570414
652.462	0.20599845
652.657	0.2062107
652.853	0.20643486
653.048	0.20669942
653.244	0.20689811
653.44	0.20712897
653.635	0.20727513
653.831	0.20751521
654.026	0.20778532
654.222	0.20800566
654.417	0.20833362
654.613	0.208622
654.808	0.20887839
655.004	0.20928802
655.199	0.20949021
655.394	0.20974142
655.59	0.21005394
655.785	0.21026049
655.98	0.21052984
656.176	0.21078052
656.371	0.21107078
656.566	0.21139281
656.762	0.21162858
656.957	0.21183967
657.152	0.21205558
657.348	0.21232305
657.543	0.21260387
657.738	0.21280649
657.933	0.21301135
658.128	0.21323528
658.324	0.21346969
658.519	0.213745
658.714	0.21394417
658.909	0.21418362
659.104	0.21443857
659.299	0.21469299
659.494	0.21497126
659.689	0.21527828
659.884	0.21551455
660.079	0.21574922
660.274	0.21599822
660.469	0.21621046
660.664	0.21648196
660.859	0.21677465
661.054	0.21704851
661.249	0.21734702
661.444	0.21766215
661.639	0.21795614
661.834	0.21826309
662.029	0.21851446
662.224	0.21879395
662.418	0.21902353
662.613	0.21927901
662.808	0.21949681
663.003	0.21973337
663.198	0.21997464
663.392	0.22025732
663.587	0.22058473
663.782	0.22079606
663.977	0.22109309
664.171	0.22140464
664.366	0.22174393
664.561	0.22200273
664.755	0.22230417
664.95	0.22247083
665.144	0.22281345
665.339	0.22306619
665.534	0.22332744
665.728	0.22358951
665.923	0.22388677
666.117	0.22412228
666.312	0.22439624
666.506	0.22473746
666.701	0.22498071
666.895	0.22527026
667.09	0.22555625
667.284	0.22584922
667.479	0.2261029
667.673	0.22639751
667.867	0.22663381
668.062	0.22693514
668.256	0.22720661
668.45	0.22748584
668.645	0.22770133
668.839	0.22800889
669.033	0.22828864
669.228	0.22851915
669.422	0.22883414
669.616	0.22913062
669.81	0.22943271
670.004	0.22970267
670.199	0.23002122
670.393	0.2303221
670.587	0.23061909
670.781	0.23081412
670.975	0.2311017
671.169	0.23127228
671.363	0.23159133
671.558	0.23181482
671.752	0.23210326
671.946	0.23244566
672.14	0.23282371
672.334	0.23307566
672.528	0.23351437
672.722	0.23376745
672.916	0.23404455
673.11	0.23428646
673.304	0.23460517
673.497	0.23482901
673.691	0.23519667
673.885	0.23539095
674.079	0.2357997
674.273	0.23610364
674.467	0.23647866
674.661	0.23668651
674.854	0.23699954
675.048	0.23733289
675.242	0.23763608
675.436	0.23783362
675.629	0.23813404
675.823	0.23834197
676.017	0.23869145
676.211	0.23895903
676.404	0.23918276
676.598	0.23949753
676.792	0.23984673
676.985	0.24019526
677.179	0.24056765
677.372	0.24081272
677.566	0.24121672
677.76	0.2415244
677.953	0.24185555
678.147	0.24216848
678.34	0.24246471
678.534	0.24275293
678.727	0.24315434
678.921	0.24344707
679.114	0.24371648
679.307	0.2440417
679.501	0.24440605
679.694	0.24474956
679.888	0.24507061
680.081	0.24537015
680.274	0.24563133
680.468	0.24595683
680.661	0.24620854
680.854	0.2465666
681.048	0.24686865
681.241	0.24718258
681.434	0.24737432
681.627	0.24773377
681.821	0.24806758
682.014	0.24847627
682.207	0.24866657
682.4	0.24900473
682.593	0.24934866
682.786	0.24967334
682.98	0.24995805
683.173	0.25037233
683.366	0.25065667
683.559	0.25100941
683.752	0.25132495
683.945	0.25163666
684.138	0.25207737
684.331	0.25234987
684.524	0.25269426
684.717	0.25299972
684.91	0.25336807
685.103	0.25364159
685.296	0.25396786
685.489	0.25427364
685.682	0.25468629
685.874	0.25498156
686.067	0.25530544
686.26	0.25562002
686.453	0.25597782
686.646	0.25630595
686.839	0.25666759
687.031	0.25702563
687.224	0.25727972
687.417	0.25769277
687.61	0.25798987
687.802	0.25832002
687.995	0.25866756
688.188	0.2589631
688.38	0.25926067
688.573	0.25964041
688.766	0.25989928
688.958	0.26023804
689.151	0.26056659
689.343	0.2609339
689.536	0.26129353
689.729	0.26166391
689.921	0.26201231
690.114	0.26230416
690.306	0.26267504
690.499	0.26304743
690.691	0.26336671
690.884	0.26368097
691.076	0.26407206
691.268	0.26437023
691.461	0.26470238
691.653	0.26505557
691.846	0.26543275
692.038	0.26578587
692.23	0.26612302
692.423	0.26640684
692.615	0.26679675
692.807	0.26724157
692.999	0.26758778
693.192	0.26788308
693.384	0.26830896
693.576	0.26863197
693.768	0.26904918
693.961	0.26938785
694.153	0.26974986
694.345	0.27004655
694.537	0.27036763
694.729	0.27060759
694.921	0.270933
695.113	0.27126644
695.305	0.27158437
695.498	0.27184463
695.69	0.27224379
695.882	0.2726255
696.074	0.27304159
696.266	0.27345028
696.458	0.27373316
696.65	0.27412976
696.842	0.27453835
697.033	0.2749046
697.225	0.27520279
697.417	0.27558691
697.609	0.27595277
697.801	0.27632616
697.993	0.27677564
698.185	0.27713096
698.376	0.27753262
698.568	0.27795805
698.76	0.27828558
698.952	0.27862649
699.144	0.27899231
699.335	0.27928577
699.527	0.27967688
699.719	0.27991793
699.91	0.2803612
700.102	0.28067771
700.294	0.28109173
700.485	0.28148267
700.677	0.28178458
700.869	0.28219185
701.06	0.28268395
701.252	0.28293705
701.443	0.28336485
701.635	0.28371909
701.826	0.28411364
702.018	0.28452461
702.209	0.2848742
702.401	0.28518645
702.592	0.28561963
702.784	0.28590353
702.975	0.28628242
703.166	0.28663914
703.358	0.28698924
703.549	0.28735638
703.741	0.28769447
703.932	0.28807292
704.123	0.28842686
704.315	0.28877094
704.506	0.28914099
704.697	0.28949052
704.888	0.28990867
705.08	0.29028664
705.271	0.29064565
705.462	0.29106938
705.653	0.29139237
705.844	0.29170026
706.035	0.29209503
706.227	0.29232862
706.418	0.29270038
706.609	0.29309046
706.8	0.29351989
706.991	0.29386554
707.182	0.29426425
707.373	0.29459651
707.564	0.29505229
707.755	0.29540665
707.946	0.2957202
708.137	0.29599472
708.328	0.29638506
708.519	0.29674239
708.71	0.29709679
708.901	0.29739363
709.092	0.297766
709.283	0.29817561
709.473	0.2985599
709.664	0.29896949
709.855	0.29930808
710.046	0.29975317
710.237	0.30004053
710.427	0.30037592
710.618	0.30072089
710.809	0.30107923
711	0.30145457
711.19	0.30179154
711.381	0.30215981
711.572	0.30261754
711.762	0.30303476
711.953	0.30336394
712.144	0.30373074
712.334	0.3040806
712.525	0.30453293
712.715	0.30488226
712.906	0.305195
713.097	0.30544115
713.287	0.3057403
713.478	0.30605633
713.668	0.30640421
713.859	0.30667779
714.049	0.30698303
714.239	0.30742558
714.43	0.30783612
714.62	0.30824416
714.811	0.30863145
715.001	0.3090025
715.191	0.30939861
715.382	0.30973536
715.572	0.31011065
715.762	0.31044675
715.953	0.31079554
716.143	0.31115418
716.333	0.31144012
716.523	0.31176044
716.714	0.31218919
716.904	0.31244445
717.094	0.31284428
717.284	0.31314709
717.474	0.31349192
717.664	0.31391524
717.855	0.31428449
718.045	0.31456987
718.235	0.31498593
718.425	0.31537825
718.615	0.31584492
718.805	0.31621991
718.995	0.31656745
719.185	0.31698933
719.375	0.31735453
719.565	0.31772347
719.755	0.31805591
719.945	0.31835046
720.135	0.31870994
720.325	0.31912005
720.515	0.3194997
720.704	0.3199281
720.894	0.32033614
721.084	0.32070408
721.274	0.32109988
721.464	0.32152433
721.654	0.32185134
721.843	0.32213921
722.033	0.32250903
722.223	0.32282653
722.413	0.32327227
722.602	0.32364181
722.792	0.32397882
722.982	0.32424968
723.171	0.32464921
723.361	0.32499685
723.55	0.32540522
723.74	0.32567259
723.93	0.3260333
724.119	0.32641158
724.309	0.3268321
724.498	0.32713033
724.688	0.32747852
724.877	0.3277348
725.067	0.32804361
725.256	0.32832626
725.446	0.32862312
725.635	0.32889639
725.825	0.32918228
726.014	0.32946054
726.203	0.32979889
726.393	0.33003326
726.582	0.33028672
726.771	0.33059218
726.961	0.33096038
727.15	0.33126286
727.339	0.33151351
727.529	0.33181428
727.718	0.33216394
727.907	0.33252771
728.096	0.33272087
728.286	0.33295825
728.475	0.33328302
728.664	0.33355774
728.853	0.33376478
729.042	0.33403287
729.231	0.33425417
729.42	0.33463107
729.609	0.33490148
729.799	0.33510696
729.988	0.33540046
730.177	0.33566661
730.366	0.33595694
730.555	0.33625205
730.744	0.33650978
730.933	0.33679186
731.122	0.3371069
731.31	0.33734143
731.499	0.33766372
731.688	0.33801287
731.877	0.33829847
732.066	0.33856194
732.255	0.33881718
732.444	0.33907642
732.632	0.33937806
732.821	0.33956764
733.01	0.33981676
733.199	0.33995222
733.388	0.34012399
733.576	0.34036853
733.765	0.34067531
733.954	0.34093891
734.142	0.34122403
734.331	0.3414237
734.52	0.34176952
734.708	0.34209287
734.897	0.34235706
735.086	0.34254394
735.274	0.34278753
735.463	0.34302139
735.651	0.34321094
735.84	0.34347227
736.028	0.34372604
736.217	0.34399894
736.405	0.34422815
736.594	0.34440038
736.782	0.34459748
736.971	0.34488013
737.159	0.34502038
737.347	0.34523188
737.536	0.34536982
737.724	0.34559552
737.912	0.34584855
738.101	0.34603279
738.289	0.34622758
738.477	0.34653276
738.666	0.34672151
738.854	0.34695124
739.042	0.34719071
739.23	0.34742439
739.418	0.34771955
739.607	0.34790066
739.795	0.34814844
739.983	0.34843934
740.171	0.34870243
740.359	0.34890443
740.547	0.34907226
740.735	0.34929394
740.923	0.34957073
741.112	0.3497537
741.3	0.34992235
741.488	0.35005001
741.676	0.35030181
741.864	0.35054316
742.052	0.35080388
742.239	0.35093825
742.427	0.35114432
742.615	0.3512761
742.803	0.35154445
742.991	0.35168137
743.179	0.35189015
743.367	0.35207006
743.555	0.35232919
743.742	0.3524791
743.93	0.3527362
744.118	0.35294577
744.306	0.35315006
744.494	0.35330792
744.681	0.35343149
744.869	0.35358534
745.057	0.35374684
745.244	0.35389173
745.432	0.3540723
745.62	0.35427166
745.807	0.35450403
745.995	0.35469256
746.182	0.35489269
746.37	0.35510938
746.558	0.35528297
746.745	0.35538731
746.933	0.35548323
747.12	0.35557997
747.308	0.355767
747.495	0.35581416
747.683	0.35592742
747.87	0.35600917
748.057	0.35622841
748.245	0.35647464
748.432	0.35663314
748.62	0.35669622
748.807	0.3568941
748.994	0.35711098
749.182	0.35728068
749.369	0.35735183
749.556	0.3574607
749.743	0.35759556
749.931	0.35773838
750.118	0.35791548
750.305	0.35800191
750.492	0.35814021
750.68	0.35836778
750.867	0.35848273
751.054	0.35866233
751.241	0.35883665
751.428	0.35895679
751.615	0.35909999
751.802	0.3592687
751.989	0.35932463
752.176	0.3595238
752.363	0.35965263
752.55	0.35974976
752.737	0.35988214
752.924	0.35999608
753.111	0.36006981
753.298	0.3602055
753.485	0.36026828
753.672	0.36039572
753.859	0.36059677
754.046	0.36069982
754.233	0.36071928
754.42	0.36092411
754.606	0.36100955
754.793	0.36101425
754.98	0.36105236
755.167	0.36107894
755.353	0.36117945
755.54	0.3613636
755.727	0.36142122
755.914	0.3614293
756.1	0.36153333
756.287	0.36156398
756.474	0.36161434
756.66	0.36168982
756.847	0.36183025
757.033	0.3618235
757.22	0.3619339
757.407	0.36217083
757.593	0.36231843
757.78	0.3623548
757.966	0.36238828
758.153	0.36237512
758.339	0.3624461
758.526	0.36251392
758.712	0.36240906
758.898	0.36245064
759.085	0.36245591
759.271	0.36247524
759.458	0.36243242
759.644	0.36248354
759.83	0.36249549
760.017	0.36261031
760.203	0.36261661
760.389	0.36272589
760.576	0.36277857
760.762	0.36288487
760.948	0.36286568
761.134	0.36292773
761.32	0.36283347
761.507	0.362861
761.693	0.36296475
761.879	0.36292897
762.065	0.36299659
762.251	0.36309264
762.437	0.36317031
762.623	0.36328286
762.809	0.36328837
762.995	0.36320333
763.181	0.36326219
763.367	0.36324184
763.553	0.36323513
763.739	0.36322731
763.925	0.36326878
764.111	0.36327609
764.297	0.36342078
764.483	0.36341366
764.669	0.36331093
764.855	0.36325482
765.041	0.36321412
765.227	0.36303472
765.412	0.36307764
765.598	0.36297479
765.784	0.36296729
765.97	0.36305498
766.156	0.36310023
766.341	0.36310821
766.527	0.36316277
766.713	0.36312971
766.898	0.36309044
767.084	0.36310214
767.27	0.36302868
767.455	0.36290496
767.641	0.36282859
767.827	0.36283052
768.012	0.36276783
768.198	0.36267786
768.383	0.36258949
768.569	0.36255892
768.754	0.36257163
768.94	0.36251997
769.125	0.36245564
769.311	0.36234002
769.496	0.36234705
769.682	0.36236909
769.867	0.36236764
770.052	0.36244356
770.238	0.36237713
770.423	0.36233256
770.608	0.36240962
770.794	0.36232425
770.979	0.36217084
771.164	0.3621106
771.35	0.3619021
771.535	0.36186146
771.72	0.36172738
771.905	0.3616503
772.09	0.36156941
772.276	0.36154621
772.461	0.36140888
772.646	0.3613491
772.831	0.36125121
773.016	0.36126056
773.201	0.36109008
773.386	0.36109506
773.571	0.36097256
773.756	0.36084083
773.941	0.36072486
774.126	0.36074964
774.311	0.36059267
774.496	0.36053726
774.681	0.36035104
774.866	0.3602437
775.051	0.36009177
775.236	0.35996367
775.421	0.35969547
775.606	0.3595835
775.791	0.35933726
775.976	0.35921031
776.16	0.35910625
776.345	0.35911636
776.53	0.35909099
776.715	0.35902501
776.899	0.35888956
777.084	0.35883083
777.269	0.35869874
777.454	0.35855161
777.638	0.35833628
777.823	0.35815709
778.008	0.3579134
778.192	0.35777846
778.377	0.35764897
778.561	0.3574952
778.746	0.35736492
778.931	0.35724751
779.115	0.3571459
779.3	0.35708899
779.484	0.3569729
779.669	0.35674338
779.853	0.35653145
780.037	0.35633908
780.222	0.3561022
780.406	0.35587836
780.591	0.35576199
780.775	0.35552232
780.959	0.35537636
781.144	0.35529429
781.328	0.3551143
781.512	0.35495388
781.697	0.35476541
781.881	0.35451443
782.065	0.35440203
782.249	0.35419736
782.434	0.35401358
782.618	0.3538559
782.802	0.35374318
782.986	0.35354984
783.17	0.35337675
783.354	0.35315029
783.539	0.35303545
783.723	0.35274026
783.907	0.35253455
784.091	0.35233674
784.275	0.35210485
784.459	0.35185612
784.643	0.35165013
784.827	0.35141035
785.011	0.35123084
785.195	0.3510554
785.379	0.35083383
785.563	0.35066201
785.747	0.35049498
785.93	0.35039537
786.114	0.35012996
786.298	0.34994641
786.482	0.3495599
786.666	0.34927259
786.85	0.34906745
787.033	0.34880646
787.217	0.34854934
787.401	0.34837011
787.585	0.34814391
787.768	0.34799258
787.952	0.34769803
788.136	0.34742694
788.319	0.34717639
788.503	0.34677176
788.687	0.34647366
788.87	0.34619288
789.054	0.34599336
789.237	0.34584116
789.421	0.34552971
789.605	0.34529697
789.788	0.34500159
789.972	0.34474408
790.155	0.3443934
790.338	0.34410081
790.522	0.34379332
790.705	0.3435183
790.889	0.34322042
791.072	0.34309798
791.256	0.34287263
791.439	0.34276973
791.622	0.34257782
791.806	0.34248261
791.989	0.34224398
792.172	0.34201065
792.355	0.34171072
792.539	0.34143805
792.722	0.34105733
792.905	0.34064082
793.088	0.34020692
793.271	0.3399636
793.455	0.33968137
793.638	0.33946161
793.821	0.33916583
794.004	0.33885411
794.187	0.33861665
794.37	0.33834674
794.553	0.33806246
794.736	0.337646
794.919	0.33722194
795.102	0.33689438
795.285	0.33666383
795.468	0.33636292
795.651	0.33604375
795.834	0.33575966
796.017	0.33558224
796.2	0.33525447
796.383	0.33496352
796.566	0.33468544
796.749	0.33436201
796.931	0.33406083
797.114	0.33369286
797.297	0.3333279
797.48	0.33300851
797.663	0.33263562
797.845	0.33230141
798.028	0.33198658
798.211	0.33162752
798.393	0.33126368
798.576	0.33096919
798.759	0.33070635
798.941	0.33041746
799.124	0.33004944
799.307	0.32975478
799.489	0.32942341
799.672	0.32915976
799.854	0.32871523
800.037	0.32839852
800.219	0.32807115
800.402	0.32779913
800.584	0.3273988
800.767	0.32712357
800.949	0.32674224
801.132	0.32656864
801.314	0.32612516
801.496	0.32577128
801.679	0.32539714
801.861	0.32507306
802.043	0.32460861
802.226	0.32418631
802.408	0.32373806
802.59	0.32344401
802.772	0.32307532
802.955	0.32268682
803.137	0.32229161
803.319	0.32199359
803.501	0.32163501
803.684	0.32123556
803.866	0.32074968
804.048	0.3203742
804.23	0.32001753
804.412	0.31970004
804.594	0.31926297
804.776	0.31897458
804.958	0.31865751
805.14	0.31844272
805.322	0.3180544
805.504	0.31761831
805.686	0.3172261
805.868	0.3169376
806.05	0.31653117
806.232	0.3161893
806.414	0.31583955
806.596	0.31552863
806.778	0.31517406
806.96	0.31483014
807.141	0.31436074
807.323	0.31396038
807.505	0.31345588
807.687	0.31299634
807.869	0.31259032
808.05	0.31218442
808.232	0.31172425
808.414	0.31139245
808.595	0.31095786
808.777	0.31062865
808.959	0.31025763
809.14	0.30985795
809.322	0.30954503
809.504	0.30917403
809.685	0.3087865
809.867	0.3083758
810.048	0.30792818
810.23	0.30751156
810.411	0.30708854
810.593	0.30662333
810.774	0.30618966
810.956	0.30566317
811.137	0.30528796
811.319	0.3049026
811.5	0.30453814
811.681	0.3040858
811.863	0.30369749
812.044	0.30328435
812.225	0.30307148
812.407	0.30265171
812.588	0.3022666
812.769	0.30184021
812.951	0.30145403
813.132	0.30098123
813.313	0.30064825
813.494	0.30008128
813.675	0.29975661
813.857	0.29932727
814.038	0.29886906
814.219	0.29844116
814.4	0.29802154
814.581	0.29756439
814.762	0.29713735
814.943	0.29666875
815.124	0.29616966
815.305	0.29574973
815.486	0.29527673
815.667	0.29490636
815.848	0.29448773
816.029	0.29401125
816.21	0.29357804
816.391	0.29321755
816.572	0.29276278
816.753	0.29239751
816.934	0.29194808
817.115	0.29145823
817.295	0.29103024
817.476	0.29051581
817.657	0.29006054
817.838	0.28969935
818.019	0.28922539
818.199	0.28872882
818.38	0.28825782
818.561	0.28784201
818.741	0.28747512
818.922	0.28692304
819.103	0.28642172
819.283	0.28595771
819.464	0.28549907
819.645	0.28501686
819.825	0.28456721
820.006	0.28401291
820.186	0.28360947
820.367	0.28315757
820.547	0.28275837
820.728	0.28228698
820.908	0.28188242
821.089	0.28155511
821.269	0.28117731
821.45	0.28077459
821.63	0.28027071
821.81	0.27979153
821.991	0.27940829
822.171	0.27901172
822.351	0.27848843
822.532	0.27800975
822.712	0.27749959
822.892	0.27701123
823.072	0.27656761
823.253	0.27598372
823.433	0.2754891
823.613	0.2749622
823.793	0.27450111
823.973	0.27409579
824.154	0.27366662
824.334	0.27320942
824.514	0.2728243
824.694	0.27234775
824.874	0.27186694
825.054	0.27140804
825.234	0.27097405
825.414	0.27045261
825.594	0.26992422
825.774	0.26958636
825.954	0.2691462
826.134	0.26878503
826.314	0.26827617
826.494	0.26779657
826.674	0.26730867
826.854	0.26685282
827.033	0.26613706
827.213	0.26567478
827.393	0.26505722
827.573	0.26464356
827.753	0.26409126
827.932	0.26371316
828.112	0.26330899
828.292	0.2629581
828.472	0.26247359
828.651	0.26218632
828.831	0.26170185
829.011	0.26131631
829.19	0.2607975
829.37	0.26029066
829.549	0.25976142
829.729	0.25925683
829.909	0.25856747
830.088	0.25806226
830.268	0.25743302
830.447	0.25697679
830.627	0.25650544
830.806	0.25609425
830.986	0.25549502
831.165	0.25514953
831.344	0.25464746
831.524	0.25421548
831.703	0.25373692
831.883	0.2531601
832.062	0.25263353
832.241	0.25225372
832.421	0.25169116
832.6	0.25114842
832.779	0.25070545
832.958	0.25021028
833.138	0.2497466
833.317	0.24930379
833.496	0.24877183
833.675	0.24836021
833.854	0.24793716
834.034	0.24739206
834.213	0.24683598
834.392	0.24640748
834.571	0.24579214
834.75	0.24530907
834.929	0.24473526
835.108	0.24412547
835.287	0.2435836
835.466	0.24303623
835.645	0.2424543
835.824	0.24203537
836.003	0.24154306
836.182	0.24109478
836.361	0.24069976
836.54	0.24017586
836.719	0.23971022
836.897	0.23920471
837.076	0.23866525
837.255	0.23814916
837.434	0.23760858
837.613	0.23708121
837.791	0.23675168
837.97	0.23625571
838.149	0.23575575
838.328	0.23519901
838.506	0.23475359
838.685	0.23421017
838.864	0.23373372
839.042	0.23311894
839.221	0.23271286
839.4	0.23222352
839.578	0.23174446
839.757	0.23113667
839.935	0.23071285
840.114	0.23023856
840.292	0.2298173
840.471	0.22932296
840.649	0.22892722
840.828	0.22847524
841.006	0.22804628
841.185	0.22743296
841.363	0.22698378
841.541	0.22648974
841.72	0.22596539
841.898	0.22540745
842.076	0.22493375
842.255	0.22437038
842.433	0.22395037
842.611	0.22334761
842.789	0.22277815
842.968	0.22228669
843.146	0.22178948
843.324	0.22132757
843.502	0.22095044
843.68	0.22054064
843.859	0.22018145
844.037	0.21971482
844.215	0.2191885
844.393	0.21871826
844.571	0.21822798
844.749	0.21768494
844.927	0.21708523
845.105	0.21639313
845.283	0.21586604
845.461	0.21540703
845.639	0.21488515
845.817	0.21434029
845.995	0.21394771
846.173	0.21355391
846.351	0.21317101
846.529	0.21278327
846.706	0.2122559
846.884	0.21175944
847.062	0.21123047
847.24	0.21062752
847.418	0.21008295
847.595	0.20955359
847.773	0.20894348
847.951	0.20846357
848.129	0.20796986
848.306	0.20751365
848.484	0.20695798
848.662	0.20653595
848.839	0.20614689
849.017	0.20581912
849.194	0.20530862
849.372	0.20481908
849.549	0.20424417
849.727	0.20385789
849.905	0.2032445
850.082	0.2026806
850.26	0.20206693
850.437	0.20162855
850.614	0.20112523
850.792	0.20069451
850.969	0.20017421
851.147	0.19971238
851.324	0.19930086
851.501	0.19891972
851.679	0.1983719
851.856	0.19794932
852.033	0.1975577
852.211	0.19711535
852.388	0.19665012
852.565	0.19609994
852.742	0.19555303
852.92	0.19516381
853.097	0.19459748
853.274	0.19412374
853.451	0.19365841
853.628	0.19314383
853.805	0.1927214
853.982	0.19216389
854.159	0.19157088
854.336	0.1910978
854.514	0.19054792
854.691	0.18998158
854.868	0.18952472
855.045	0.1889297
855.221	0.18857328
855.398	0.18808163
855.575	0.18758619
855.752	0.18707548
855.929	0.18669866
856.106	0.18628883
856.283	0.18583778
856.46	0.18534939
856.637	0.18496891
856.813	0.18459119
856.99	0.18404455
857.167	0.18358752
857.344	0.18304458
857.52	0.18259348
857.697	0.18204786
857.874	0.1815127
858.05	0.18099467
858.227	0.18067896
858.404	0.18020533
858.58	0.17979039
858.757	0.17947765
858.933	0.17913624
859.11	0.17875977
859.287	0.17818952
859.463	0.17762723
859.64	0.1771349
859.816	0.17654613
859.993	0.17593402
860.169	0.17540114
860.345	0.17486565
860.522	0.1745268
860.698	0.17406766
860.875	0.1735287
861.051	0.17316966
861.227	0.17273609
861.404	0.17236855
861.58	0.17196907
861.756	0.17156394
861.932	0.17115459
862.109	0.17072748
862.285	0.1702841
862.461	0.16969954
862.637	0.16909429
862.813	0.16857781
862.99	0.16794908
863.166	0.16747151
863.342	0.16708596
863.518	0.16654985
863.694	0.16629347
863.87	0.16583373
864.046	0.16541849
864.222	0.16499262
864.398	0.16463325
864.574	0.16410773
864.75	0.1636901
864.926	0.16316657
865.102	0.16266984
865.278	0.16215137
865.454	0.16166712
865.63	0.16103299
865.805	0.16058582
865.981	0.16021931
866.157	0.15980733
866.333	0.15941359
866.509	0.15907615
866.684	0.15873711
866.86	0.15847058
867.036	0.15808794
867.212	0.15766139
867.387	0.15719983
867.563	0.15687502
867.739	0.15629168
867.914	0.15592336
868.09	0.15546719
868.265	0.15496149
868.441	0.15448122
868.617	0.15405061
868.792	0.15344101
868.968	0.15307779
869.143	0.15264314
869.319	0.15233585
869.494	0.15190413
869.67	0.15146916
869.845	0.1511111
870.02	0.15080847
870.196	0.15037435
870.371	0.14994103
870.546	0.14928079
870.722	0.14890592
870.897	0.14839151
871.072	0.14789214
871.248	0.14739751
871.423	0.14691643
871.598	0.14653316
871.773	0.14616326
871.949	0.14565703
872.124	0.14525789
872.299	0.1448148
872.474	0.14440654
872.649	0.14415312
872.824	0.14360739
872.999	0.14315756
873.174	0.14282147
873.349	0.14238293
873.524	0.14190683
873.699	0.14155297
873.874	0.14103851
874.049	0.14075882
874.224	0.14039705
874.399	0.13993071
874.574	0.13963787
874.749	0.13927832
874.924	0.13882066
875.099	0.13834102
875.274	0.13776195
875.449	0.1372879
875.623	0.13686891
875.798	0.13636
875.973	0.13596942
876.148	0.13553823
876.322	0.13526184
876.497	0.13493939
876.672	0.13455434
876.846	0.13432129
877.021	0.13398927
877.196	0.13350336
877.37	0.13319066
877.545	0.13279377
877.72	0.13238592
877.894	0.13201046
878.069	0.13159845
878.243	0.13114464
878.418	0.13082752
878.592	0.13026208
878.767	0.12973827
878.941	0.12940922
879.116	0.12893593
879.29	0.12825204
879.464	0.12778545
879.639	0.1273388
879.813	0.12708853
879.987	0.12675825
880.162	0.12628391
880.336	0.12595535
880.51	0.12576723
880.685	0.12549191
880.859	0.12516068
881.033	0.12477835
881.207	0.12430137
881.381	0.12395029
881.556	0.12362245
881.73	0.12319056
881.904	0.12276105
882.078	0.12242281
882.252	0.12205548
882.426	0.12182279
882.6	0.12139952
882.774	0.12100775
882.948	0.1206972
883.122	0.12026272
883.296	0.11989897
883.47	0.11953689
883.644	0.11912843
883.818	0.1187452
883.992	0.11831842
884.166	0.11795209
884.34	0.11763349
884.514	0.11728259
884.687	0.11685853
884.861	0.11642806
885.035	0.11604424
885.209	0.11580818
885.382	0.11546252
885.556	0.1151767
885.73	0.11486098
885.904	0.11446071
886.077	0.11413539
886.251	0.11384108
886.425	0.1134035
886.598	0.11301507
886.772	0.11250228
886.945	0.11192981
887.119	0.11149416
887.292	0.1110035
887.466	0.11057203
887.64	0.11023339
887.813	0.10981579
887.986	0.10963137
888.16	0.10953494
888.333	0.10938237
888.507	0.10922942
888.68	0.10887632
888.854	0.10848917
889.027	0.10815276
889.2	0.10771527
889.374	0.10718034
889.547	0.10674726
889.72	0.10629424
889.893	0.10593442
890.067	0.1055884
890.24	0.10523472
890.413	0.10478882
890.586	0.10441823
890.759	0.10408384
890.933	0.10380079
891.106	0.10345079
891.279	0.10314939
891.452	0.10291429
891.625	0.10271062
891.798	0.10251242
891.971	0.10215363
892.144	0.10176336
892.317	0.10143446
892.49	0.10100961
892.663	0.10046811
892.836	0.10006668
893.009	0.09963046
893.182	0.09926285
893.355	0.09894102
893.527	0.09855201
893.7	0.09831096
893.873	0.09805182
894.046	0.09771784
894.219	0.09751884
894.391	0.09727653
894.564	0.09703517
894.737	0.0967022
894.91	0.09640582
895.082	0.09602606
895.255	0.09565941
895.428	0.09518099
895.6	0.09474301
895.773	0.0943646
895.945	0.09410898
896.118	0.09377138
896.291	0.09368412
896.463	0.09347343
896.636	0.09321898
896.808	0.09299386
896.981	0.09268899
897.153	0.09250316
897.326	0.09207357
897.498	0.09156094
897.67	0.09128334
897.843	0.0909076
898.015	0.09057329
898.187	0.0902148
898.36	0.0898092
898.532	0.08953692
898.704	0.08944765
898.877	0.08902103
899.049	0.08878129
899.221	0.08863539
899.393	0.08843892
899.566	0.08822736
899.738	0.08807443
899.91	0.08771883
900.082	0.0875208
900.254	0.08728635
900.426	0.08687581
900.598	0.08651486
900.77	0.08607684
900.942	0.08559341
901.114	0.08513152
901.286	0.08469216
901.458	0.08423684
901.63	0.08386465
901.802	0.08354032
901.974	0.08336824
902.146	0.08325763
902.318	0.08316704
902.49	0.08310068
902.662	0.08287558
902.834	0.08263025
903.005	0.08234529
903.177	0.08194747
903.349	0.08147602
903.521	0.08106578
903.693	0.08072742
903.864	0.08042647
904.036	0.08005463
904.208	0.07975987
904.379	0.07945594
904.551	0.07925025
904.723	0.07901489
904.894	0.07873797
905.066	0.07859166
905.237	0.07853674
905.409	0.07830239
905.58	0.07815685
905.752	0.07792449
905.923	0.07763274
906.095	0.0772472
906.266	0.07682083
906.438	0.07644579
906.609	0.07615339
906.78	0.07582144
906.952	0.07546274
907.123	0.07513071
907.295	0.07491781
907.466	0.07474903
907.637	0.07448482
907.808	0.07433415
907.98	0.07412009
908.151	0.07398561
908.322	0.07384494
908.493	0.07363492
908.665	0.07338543
908.836	0.07316074
909.007	0.0728497
909.178	0.07269241
909.349	0.07227753
909.52	0.07197402
909.691	0.07153002
909.862	0.07115155
910.033	0.07092207
910.204	0.07065247
910.375	0.07027892
910.546	0.07011735
910.717	0.06986462
910.888	0.06984127
911.059	0.06979992
911.23	0.06945496
911.401	0.06918492
911.572	0.06878397
911.742	0.0684936
911.913	0.06814267
912.084	0.06775354
912.255	0.06720201
912.426	0.06688832
912.596	0.06656068
912.767	0.06646735
912.938	0.0662148
913.108	0.06589344
913.279	0.06566801
913.45	0.06548015
913.62	0.06531689
913.791	0.0651879
913.962	0.06488079
914.132	0.06475664
914.303	0.06470339
914.473	0.06443058
914.644	0.06423594
914.814	0.06391101
914.985	0.06352783
915.155	0.06329121
915.326	0.06285796
915.496	0.06256095
915.666	0.06235545
915.837	0.06214466
916.007	0.06195022
916.177	0.06174727
916.348	0.06145737
916.518	0.06141669
916.688	0.06129554
916.858	0.06114547
917.029	0.06090918
917.199	0.06070342
917.369	0.06051591
917.539	0.06034582
917.709	0.05994008
917.88	0.05959476
918.05	0.05925897
918.22	0.05898595
918.39	0.05858834
918.56	0.05837777
918.73	0.05811694
918.9	0.05798481
919.07	0.05779544
919.24	0.05772792
919.41	0.05770052
919.58	0.05766932
919.75	0.05748642
919.92	0.05737956
920.09	0.05714245
920.26	0.05687453
920.429	0.05654749
920.599	0.0562731
920.769	0.05604438
920.939	0.05582848
921.109	0.05556792
921.278	0.05544147
921.448	0.05535421
921.618	0.0550291
921.787	0.05473031
921.957	0.05458456
922.127	0.05434305
922.296	0.05418131
922.466	0.05389588
922.636	0.0536945
922.805	0.05365335
922.975	0.05352249
923.144	0.05314693
923.314	0.05296262
923.483	0.05277449
923.653	0.05251081
923.822	0.05223241
923.992	0.05195721
924.161	0.05191078
924.331	0.0518062
924.5	0.05170467
924.669	0.05149083
924.839	0.0514909
925.008	0.05130557
925.177	0.05114598
925.347	0.05087709
925.516	0.05087774
925.685	0.05071796
925.854	0.05062134
926.023	0.05045095
926.193	0.05026342
926.362	0.05008147
926.531	0.04986027
926.7	0.0495978
926.869	0.0494041
927.038	0.0490323
927.207	0.04882649
927.376	0.04866291
927.545	0.04854271
927.715	0.04834032
927.884	0.04817627
928.052	0.04796378
928.221	0.04785788
928.39	0.04759806
928.559	0.04758992
928.728	0.04736957
928.897	0.04733322
929.066	0.04711426
929.235	0.04692666
929.404	0.04696706
929.572	0.04699699
929.741	0.04678739
929.91	0.04687174
930.079	0.04659876
930.247	0.04650139
930.416	0.04643522
930.585	0.04629844
930.753	0.04601865
930.922	0.0458109
931.091	0.04545996
931.259	0.04524095
931.428	0.04517661
931.596	0.04491214
931.765	0.04457626
931.934	0.04436157
932.102	0.04404296
932.27	0.04398563
932.439	0.04385708
932.607	0.04361001
932.776	0.04354722
932.944	0.04332114
933.113	0.04312215
933.281	0.04293357
933.449	0.04275759
933.618	0.04271673
933.786	0.04243324
933.954	0.04212497
934.123	0.04218127
934.291	0.04200914
934.459	0.04208747
934.627	0.04188175
934.795	0.04163197
934.964	0.04164314
935.132	0.04154759
935.3	0.04142128
935.468	0.04134765
935.636	0.04141933
935.804	0.0412697
935.972	0.0414744
936.14	0.04138201
936.308	0.04139739
936.476	0.04111041
936.644	0.04127415
936.812	0.04081178
936.98	0.04078909
937.148	0.04073768
937.316	0.04054702
937.484	0.04078398
937.652	0.04080512
937.82	0.04072866
937.987	0.04086521
938.155	0.04135811
938.323	0.04104147
938.491	0.04111194
938.658	0.0411503
938.826	0.04106451
938.994	0.04071909
939.162	0.04069293
939.329	0.0403057
939.497	0.04068249
939.665	0.04086703
939.832	0.04028647
940	0.04065455
940.167	0.0418662
940.335	0.04251503
940.502	0.04224637
940.67	0.04237098
940.837	0.04237481
941.005	0.04228125
941.172	0.04306493
941.34	0.04265252
941.507	0.04322013
941.674	0.04356403
941.842	0.04294738
942.009	0.04341951
942.177	0.04419552
942.344	0.04397514
942.511	0.04420607
942.678	0.04336028
942.846	0.044221
943.013	0.04472674
943.18	0.04478118
943.347	0.0450342
943.514	0.04512294
943.682	0.04662258
943.849	0.04654799
944.016	0.04588024
944.183	0.04612844
944.35	0.04631835
944.517	0.04641542
944.684	0.04651278
944.851	0.04373343
945.018	0.04388456
945.185	0.0443857
945.352	0.04448707
945.519	0.04367367
945.686	0.0433185
945.853	0.04243849
946.02	0.04305353
946.187	0.04284218
946.353	0.04214875
946.52	0.04161976
946.687	0.04063186
946.854	0.04083921
947.021	0.04157524
947.187	0.0413865
947.354	0.04182478
947.521	0.0413958
947.687	0.04145103
947.854	0.04198447
948.021	0.04192274
948.187	0.04141078
948.354	0.04120605
948.52	0.04059466
948.687	0.04014119
948.854	0.04015409
949.02	0.04007847
949.187	0.0398214
949.353	0.03919894
949.52	0.03898855
949.686	0.03825055
949.852	0.03848787
950.019	0.03762511
950.185	0.03678532
950.352	0.03578452
950.518	0.03505578
950.684	0.0350162
950.851	0.03518365
951.017	0.03473002
951.183	0.03429183
951.349	0.03477053
951.516	0.03447354
951.682	0.03424056
951.848	0.03327953
952.014	0.03293596
952.18	0.03295309
952.346	0.03296769
952.512	0.03221939
952.679	0.03202755
952.845	0.03236267
953.011	0.03250155
953.177	0.03227279
953.343	0.03201441
953.509	0.03200536
953.675	0.0323509
953.841	0.03208219
954.007	0.03168601
954.172	0.03133106
954.338	0.03092195
954.504	0.03097683
954.67	0.03066687
954.836	0.03000627
955.002	0.02983298
955.167	0.02996057
955.333	0.02964428
955.499	0.02974964
955.665	0.0292919
955.83	0.02860759
955.996	0.02858065
956.162	0.02827062
956.327	0.02791824
956.493	0.02815105
956.659	0.02789197
956.824	0.02775169
956.99	0.02756275
957.155	0.02753466
957.321	0.02733155
957.486	0.02701856
957.652	0.02649161
957.817	0.02636991
957.983	0.02612324
958.148	0.02612844
958.314	0.02556691
958.479	0.0256636
958.644	0.02575268
958.81	0.02585519
958.975	0.02599349
959.14	0.02559295
959.306	0.02543608
959.471	0.02580673
959.636	0.02602312
959.801	0.02568547
959.967	0.02554683
960.132	0.02506847
960.297	0.02525005
960.462	0.02590122
960.627	0.02562534
960.792	0.02507977
960.957	0.02509385
961.123	0.02478152
961.288	0.02462386
961.453	0.02404482
961.618	0.02396841
961.783	0.02371863
961.948	0.02393722
962.113	0.02386704
962.277	0.02366909
962.442	0.02346454
962.607	0.02377557
962.772	0.02308754
962.937	0.0230126
963.102	0.0225439
963.267	0.02249349
963.431	0.02240585
963.596	0.02282616
963.761	0.02278623
963.926	0.02251145
964.09	0.02275054
964.255	0.02295945
964.42	0.02285126
964.584	0.02317683
964.749	0.02245129
964.914	0.0222726
965.078	0.0222262
965.243	0.02185938
965.407	0.02145049
965.572	0.02103015
965.736	0.02082895
965.901	0.02086048
966.065	0.02042419
966.23	0.02048342
966.394	0.02054698
966.559	0.02077547
966.723	0.02053993
966.887	0.02054408
967.052	0.02055189
967.216	0.02064938
967.38	0.02054015
967.545	0.02040451
967.709	0.02067684
967.873	0.02098104
968.037	0.02062296
968.202	0.02073144
968.366	0.02101408
968.53	0.02091674
968.694	0.02117129
968.858	0.02071297
969.022	0.0203176
969.187	0.02021098
969.351	0.02001895
969.515	0.01989806
969.679	0.01984366
969.843	0.01940917
970.007	0.01913667
970.171	0.01986193
970.335	0.02004307
970.499	0.01996881
970.662	0.02009266
970.826	0.0200593
970.99	0.019777
971.154	0.01985649
971.318	0.01892844
971.482	0.01862578
971.645	0.01859651
971.809	0.01828182
971.973	0.01837335
972.137	0.01863613
972.3	0.0185628
972.464	0.01898425
972.628	0.01876555
972.791	0.01875079
972.955	0.01826828
973.119	0.01748226
973.282	0.01718476
973.446	0.01705761
973.609	0.01685976
973.773	0.01701473
973.936	0.01701759
974.1	0.0172734
974.263	0.01770267
974.427	0.01764563
974.59	0.01738505
974.754	0.01768936
974.917	0.01783999
975.08	0.01747917
975.244	0.01729715
975.407	0.01719979
975.57	0.01677529
975.734	0.01672393
975.897	0.01624492
976.06	0.01624012
976.223	0.01595078
976.387	0.01607941
976.55	0.01599885
976.713	0.01619826
976.876	0.01621791
977.039	0.01624472
977.202	0.0162122
977.365	0.01650817
977.528	0.01628503
977.692	0.0159074
977.855	0.01639691
978.018	0.01655217
978.181	0.01640481
978.344	0.0162072
978.506	0.01610832
978.669	0.01592615
978.832	0.01642033
978.995	0.01584719
979.158	0.01566112
979.321	0.01532196
979.484	0.01544205
979.646	0.01570722
979.809	0.01571798
979.972	0.0154244
980.135	0.01542657
980.297	0.01519676
980.46	0.015248
980.623	0.01496168
980.786	0.01465581
980.948	0.01473152
981.111	0.01466742
981.273	0.01456907
981.436	0.01517813
981.599	0.01553464
981.761	0.01582097
981.924	0.01585068
982.086	0.01606962
982.249	0.01616819
982.411	0.01633958
982.573	0.01588174
982.736	0.01606636
982.898	0.0159243
983.061	0.0156869
983.223	0.01550591
983.385	0.0156112
983.548	0.01502813
983.71	0.01484771
983.872	0.01493993
984.034	0.01455109
984.197	0.01474057
984.359	0.0145626
984.521	0.01462774
984.683	0.01513371
984.845	0.01598644
985.008	0.01557032
985.17	0.01597641
985.332	0.01585445
985.494	0.01629647
985.656	0.01592352
985.818	0.01568358
985.98	0.01477156
986.142	0.01461687
986.304	0.01465849
986.466	0.01416171
986.628	0.01365152
986.79	0.0139212
986.952	0.01401231
987.113	0.01413296
987.275	0.01439443
987.437	0.01404453
987.599	0.01438122
987.761	0.01434057
987.922	0.01409824
988.084	0.01451635
988.246	0.01464584
988.408	0.01488138
988.569	0.01507672
988.731	0.01532686
988.893	0.01521565
989.054	0.01510355
989.216	0.01467011
989.377	0.0144712
989.539	0.01387432
989.701	0.0137826
989.862	0.01338907
990.024	0.0130975
990.185	0.0132485
990.347	0.01345919
990.508	0.01366701
990.669	0.01434911
990.831	0.01419125
990.992	0.01516925
991.154	0.01571833
991.315	0.01575577
991.476	0.01566501
991.638	0.01511901
991.799	0.01438485
991.96	0.01468664
992.121	0.0143942
992.283	0.01408584
992.444	0.01398882
992.605	0.0144934
992.766	0.0148983
992.927	0.01494274
993.088	0.01444837
993.249	0.01410466
993.41	0.01420625
993.572	0.01448845
993.733	0.01423181
993.894	0.01441213
994.055	0.01428968
994.216	0.01474401
994.376	0.01407664
994.537	0.0145081
994.698	0.01452999
994.859	0.01379802
995.02	0.01358256
995.181	0.01374201
995.342	0.01325276
995.503	0.01389809
995.663	0.01394098
995.824	0.01389715
995.985	0.01513001
996.146	0.01518083
996.306	0.0147675
996.467	0.01526861
996.628	0.01528422
996.788	0.01448717
996.949	0.01506346
997.11	0.01372452
997.27	0.01317886
997.431	0.013358
997.591	0.01312703
997.752	0.01256049
997.912	0.01397653
998.073	0.01332859
998.233	0.01406642
998.394	0.01450161
998.554	0.01521394
998.714	0.01506926
998.875	0.01547415
999.035	0.01427242
999.196	0.01395685
999.356	0.0135438
999.516	0.01335641
999.676	0.01353223
999.837	0.01342718
999.997	0.01364007
1000.157	0.01404565
1000.317	0.01497666
1000.477	0.01503582
1000.638	0.0152024
1000.798	0.01439191
1000.958	0.01413838
1001.118	0.01469378
1001.278	0.01463311
1001.438	0.0136641
1001.598	0.01394687
1001.758	0.01477298
1001.918	0.01564541
1002.078	0.01533053
1002.238	0.01476155
1002.398	0.01470455
1002.558	0.01563233
1002.718	0.01572029
1002.878	0.01492239
1003.037	0.01383526
1003.197	0.01483615
1003.357	0.01494784
1003.517	0.01510993
1003.677	0.01461415
1003.836	0.01394151
1003.996	0.01332934
1004.156	0.01420005
1004.315	0.01379481
1004.475	0.01332122
1004.635	0.01292072
1004.794	0.01297619
1004.954	0.01298847
1005.114	0.01442453
1005.273	0.01455143
1005.433	0.01488443
1005.592	0.01501373
1005.752	0.01464082
1005.911	0.01401015
1006.071	0.01440146
1006.23	0.01307531
1006.389	0.01190124
1006.549	0.01238452
1006.708	0.01383734
1006.868	0.01447584
1007.027	0.01555947
1007.186	0.01626502
1007.345	0.01685174
1007.505	0.0186491
1007.664	0.01809069
1007.823	0.01675687
1007.982	0.01775467
1008.142	0.01758841
1008.301	0.01772628
1008.46	0.01772634
1008.619	0.01530963
1008.778	0.01658347
1008.937	0.01708884
1009.096	0.01691772
1009.255	0.01628163
1009.414	0.01397241
1009.573	0.0148976
1009.732	0.01759592
1009.891	0.0162705
1010.05	0.01609921
1010.209	0.01449432
1010.368	0.01490367
1010.527	0.0162219
1010.686	0.0153578
1010.845	0.01385919
1011.003	0.01399289
1011.162	0.0145075
1011.321	0.01526532
1011.48	0.01537271
1011.638	0.0167936
1011.797	0.01730377
1011.956	0.01839074
1012.115	0.01909117
1012.273	0.01909827
1012.432	0.01963819
1012.59	0.01915581
1012.749	0.01699849
1012.908	0.01817926
1013.066	0.01810619
1013.225	0.01751527
1013.383	0.01794424
1013.542	0.01905684
1013.7	0.02160743
1013.859	0.02242238
1014.017	0.02130065
1014.175	0.02072488
1014.334	0.02194803
1014.492	0.02192317
1014.65	0.02194368
1014.809	0.02142378
1014.967	0.0222453
1015.125	0.02145802
1015.284	0.02218125
1015.442	0.02259833
1015.6	0.02515395
1015.758	0.02348472
1015.916	0.02306078
1016.075	0.02307836
1016.233	0.02321023
1016.391	0.02285767
1016.549	0.02260249
1016.707	0.01885066
1016.865	0.02004431
1017.023	0.01956022
1017.181	0.01847339
1017.339	0.01957595
1017.497	0.01939118
1017.655	0.0181257
1017.813	0.01612523
1017.971	0.0173839
1018.129	0.01722619
1018.286	0.02015677
1018.444	0.01851686
1018.602	0.01861364
1018.76	0.01885387
1018.918	0.02206368
1019.075	0.02213237
1019.233	0.0201211
1019.391	0.01921059
1019.549	0.02187949
1019.706	0.02419206
1019.864	0.02179323
1020.022	0.02108737
1020.179	0.02197935
1020.337	0.02403521
1020.494	0.02283169
1020.652	0.02234436
1020.809	0.02190769
1020.967	0.0254118
1021.124	0.02851496
1021.282	0.02807516
1021.439	0.0262821
1021.597	0.02827616
1021.754	0.03187587
1021.911	0.02991315
1022.069	0.03178531
1022.226	0.02694789
1022.384	0.02451928
1022.541	0.02732337
1022.698	0.02528359
1022.855	0.02169765
1023.013	0.0235731
1023.17	0.02499925
1023.327	0.0263188
1023.484	0.02858741
1023.641	0.02796502
1023.798	0.03271097
1023.956	0.03388065
1024.113	0.03308505
1024.27	0.03185812
1024.427	0.03475452
1024.584	0.03306034
1024.741	0.03648358
1024.898	0.03469374
1025.055	0.0357163
1025.212	0.03710992
1025.369	0.0369816
1025.525	0.03872801
1025.682	0.03815258
1025.839	0.03800865
1025.996	0.03951431
1026.153	0.03876162
1026.31	0.04079709
1026.466	0.04255583
1026.623	0.04121193
1026.78	0.04491496
1026.937	0.04541513
1027.093	0.04142522
1027.25	0.04401281
1027.407	0.03974357
1027.563	0.04109536
1027.72	0.04371429
1027.876	0.04016952
1028.033	0.03951851
1028.19	0.04218457
1028.346	0.04129657
1028.503	0.04131443
1028.659	0.03605422
1028.816	0.03099757
1028.972	0.03454999
1029.128	0.03445848
1029.285	0.02586201
1029.441	0.02934773
1029.598	0.03940376
1029.754	0.04564221
1029.91	0.04423305
1030.067	0.04552111
1030.223	0.04563602
1030.379	0.05864703
1030.535	0.05598418
1030.691	0.04867805
1030.848	0.05139166
1031.004	0.05425844
1031.16	0.05447894
1031.316	0.05664075
1031.472	0.0555088
1031.628	0.0496823
1031.784	0.04600169
1031.94	0.04160352
1032.096	0.05339705
1032.252	0.04775913
1032.408	0.04703054
1032.564	0.0517009
1032.72	0.05842761
1032.876	0.06124753
1033.032	0.06132164
1033.188	0.05199523
1033.344	0.0520654
1033.5	0.04709887
1033.655	0.03954317
1033.811	0.03609697
1033.967	0.03507224
