Data from 0_1_mm_pl_60pc_Absorbance__0__17-54-01-747.txt Node

Date: Wed Mar 01 17:54:01 CET 2023
User: Ange
Spectrometer: FLMT08341
Trigger mode: 0
Integration Time (sec): 1.000000E-2
Scans to average: 400
Electric dark correction enabled: true
Nonlinearity correction enabled: false
Boxcar width: 3
XAxis mode: Wavelengths
Number of Pixels in Spectrum: 3648
>>>>>Begin Spectral Data<<<<<
345.271	-0.01488915
345.487	-0.0001071
345.704	-0.01142455
345.921	-0.00574446
346.137	-0.0063362
346.354	-0.01159893
346.571	-0.01536674
346.787	0.01407274
347.004	0.10867754
347.22	-0.01699609
347.437	0.0487718
347.653	0.13395523
347.87	0.10704311
348.086	0.53737131
348.303	-0.34099922
348.519	0.08391212
348.736	0.07255422
348.952	0.06969186
349.169	0.06961043
349.385	0.07033686
349.601	0.07050265
349.818	0.06983964
350.034	0.0685147
350.251	0.06819223
350.467	0.06881256
350.683	0.06684715
350.9	0.06614457
351.116	0.06471889
351.332	0.06272689
351.549	0.06523082
351.765	0.06549008
351.981	0.06528813
352.197	0.06742422
352.414	0.06809278
352.63	0.06851531
352.846	0.06994978
353.062	0.06777748
353.278	0.06726726
353.495	0.06873473
353.711	0.06829579
353.927	0.0690367
354.143	0.06847615
354.359	0.06854824
354.575	0.06898336
354.792	0.06937492
355.008	0.06817094
355.224	0.06739419
355.44	0.0642449
355.656	0.06387868
355.872	0.06320658
356.088	0.06608943
356.304	0.06512264
356.52	0.06530272
356.736	0.06613208
356.952	0.0677845
357.168	0.06926731
357.384	0.0697848
357.6	0.06503034
357.816	0.06610621
358.032	0.06768126
358.248	0.06807741
358.464	0.06885366
358.679	0.06866108
358.895	0.068978
359.111	0.07142117
359.327	0.07006751
359.543	0.06877579
359.759	0.06811436
359.974	0.0691894
360.19	0.06819885
360.406	0.06744514
360.622	0.06639301
360.838	0.06672859
361.053	0.06674961
361.269	0.06754713
361.485	0.0665203
361.701	0.06676846
361.916	0.06691675
362.132	0.0689419
362.348	0.06912108
362.563	0.06940192
362.779	0.06934262
362.995	0.06965254
363.21	0.07118507
363.426	0.0714619
363.641	0.07062232
363.857	0.07198083
364.073	0.07202635
364.288	0.07113869
364.504	0.07127739
364.719	0.07045155
364.935	0.07033714
365.15	0.07041588
365.366	0.06933735
365.581	0.06978685
365.797	0.06998735
366.012	0.07015689
366.228	0.07068082
366.443	0.07167506
366.658	0.07171272
366.874	0.07128552
367.089	0.07139431
367.305	0.07200022
367.52	0.07190631
367.735	0.07133861
367.951	0.07123048
368.166	0.07212798
368.381	0.07365061
368.597	0.07407068
368.812	0.0737886
369.027	0.0740524
369.243	0.0744634
369.458	0.07482376
369.673	0.07464956
369.888	0.07403058
370.104	0.07272695
370.319	0.07319019
370.534	0.0732874
370.749	0.07374483
370.964	0.07460465
371.179	0.07402878
371.395	0.0742447
371.61	0.0754311
371.825	0.07543927
372.04	0.07587526
372.255	0.07496744
372.47	0.07351854
372.685	0.073496
372.9	0.07263766
373.115	0.07296847
373.33	0.07334599
373.545	0.07349948
373.76	0.07354267
373.975	0.07362455
374.19	0.07376924
374.405	0.07442551
374.62	0.0737969
374.835	0.07392255
375.05	0.07384993
375.265	0.07484651
375.48	0.07526773
375.695	0.07563616
375.91	0.07672754
376.125	0.07686359
376.339	0.07672673
376.554	0.07721694
376.769	0.07708775
376.984	0.07695961
377.199	0.07700816
377.414	0.07694698
377.628	0.07751066
377.843	0.07824384
378.058	0.07854003
378.273	0.07846599
378.487	0.0802512
378.702	0.08128611
378.917	0.08096812
379.131	0.08103954
379.346	0.08059891
379.561	0.08014085
379.775	0.08049065
379.99	0.07936051
380.205	0.078837
380.419	0.07891553
380.634	0.07834892
380.848	0.07852451
381.063	0.07882167
381.278	0.07942772
381.492	0.0792231
381.707	0.07977984
381.921	0.07927601
382.136	0.07981555
382.35	0.07997739
382.565	0.07960486
382.779	0.07953441
382.994	0.07975712
383.208	0.07894544
383.422	0.0802488
383.637	0.08076527
383.851	0.08165091
384.066	0.0827633
384.28	0.08212861
384.494	0.08295927
384.709	0.08349817
384.923	0.0829617
385.137	0.08248247
385.352	0.08277661
385.566	0.0823592
385.78	0.08308042
385.995	0.08259574
386.209	0.08264794
386.423	0.08347801
386.637	0.0840575
386.852	0.08367935
387.066	0.08407236
387.28	0.08378868
387.494	0.08435254
387.708	0.08496993
387.923	0.08497344
388.137	0.08496012
388.351	0.08498576
388.565	0.08494916
388.779	0.08535344
388.993	0.086224
389.207	0.08597294
389.421	0.08571074
389.635	0.08537731
389.85	0.08530422
390.064	0.08568503
390.278	0.08624405
390.492	0.08602917
390.706	0.08659091
390.92	0.08679644
391.134	0.0873893
391.348	0.0883661
391.561	0.08821418
391.775	0.08764888
391.989	0.08745833
392.203	0.08753404
392.417	0.08778566
392.631	0.08826755
392.845	0.08779287
393.059	0.08821908
393.273	0.08808154
393.486	0.08767384
393.7	0.0869477
393.914	0.08704647
394.128	0.08701935
394.342	0.08695097
394.555	0.08648126
394.769	0.08698302
394.983	0.08722743
395.197	0.08797384
395.41	0.08826282
395.624	0.08865513
395.838	0.08903057
396.051	0.08906304
396.265	0.08882216
396.479	0.08924507
396.692	0.08935456
396.906	0.08934133
397.12	0.08914859
397.333	0.08946216
397.547	0.08975313
397.76	0.09009402
397.974	0.09018102
398.187	0.09036518
398.401	0.0905676
398.614	0.09068149
398.828	0.09048632
399.041	0.09091463
399.255	0.09133385
399.468	0.09107559
399.682	0.0909856
399.895	0.09117259
400.109	0.0911206
400.322	0.0910549
400.536	0.09066622
400.749	0.09042768
400.962	0.09068205
401.176	0.09050395
401.389	0.09052176
401.602	0.0900572
401.816	0.09011061
402.029	0.090029
402.242	0.09001957
402.456	0.08982328
402.669	0.08976175
402.882	0.08942129
403.095	0.09016634
403.309	0.09031791
403.522	0.09060841
403.735	0.09065346
403.948	0.09076371
404.161	0.09124539
404.375	0.09146776
404.588	0.09102863
404.801	0.09112495
405.014	0.09100275
405.227	0.09141562
405.44	0.09169628
405.653	0.09180437
405.866	0.09140535
406.079	0.09182219
406.293	0.09149729
406.506	0.09162813
406.719	0.09167186
406.932	0.09161517
407.145	0.09157487
407.358	0.09201359
407.571	0.09151785
407.784	0.09152516
407.996	0.09166269
408.209	0.09083416
408.422	0.09039337
408.635	0.0902196
408.848	0.08982446
409.061	0.08957524
409.274	0.08978817
409.487	0.08936621
409.7	0.08947264
409.912	0.08961655
410.125	0.08945686
410.338	0.08956011
410.551	0.0897627
410.764	0.08933922
410.976	0.08922702
411.189	0.08925325
411.402	0.08904731
411.615	0.0887692
411.827	0.08837279
412.04	0.08839191
412.253	0.08822047
412.465	0.08820399
412.678	0.0882529
412.891	0.08841839
413.103	0.08818472
413.316	0.08834969
413.529	0.08835644
413.741	0.08856256
413.954	0.08845301
414.166	0.08829779
414.379	0.08793606
414.591	0.08796429
414.804	0.08768236
415.016	0.08729923
415.229	0.0865682
415.441	0.08670706
415.654	0.08669488
415.866	0.0867948
416.079	0.08648515
416.291	0.08657327
416.504	0.08668552
416.716	0.08688357
416.928	0.08642727
417.141	0.08606591
417.353	0.08606737
417.566	0.08609834
417.778	0.0857557
417.99	0.08533629
418.203	0.08520151
418.415	0.08539591
418.627	0.08533468
418.839	0.08476418
419.052	0.08490478
419.264	0.08478207
419.476	0.08467506
419.688	0.08465298
419.901	0.08398817
420.113	0.08374455
420.325	0.08359123
420.537	0.08318282
420.749	0.08321305
420.961	0.0830482
421.174	0.0827781
421.386	0.0828016
421.598	0.08263169
421.81	0.08251392
422.022	0.08205557
422.234	0.08173866
422.446	0.08159178
422.658	0.08125507
422.87	0.0811078
423.082	0.0808642
423.294	0.08069476
423.506	0.08053979
423.718	0.08018717
423.93	0.07976114
424.142	0.07938845
424.354	0.07909253
424.566	0.07877844
424.778	0.07852182
424.99	0.07837311
425.202	0.07809011
425.414	0.0778732
425.625	0.07788207
425.837	0.07745884
426.049	0.07717166
426.261	0.07669264
426.473	0.07629115
426.684	0.07609355
426.896	0.0757641
427.108	0.07528076
427.32	0.07514817
427.531	0.07490896
427.743	0.0747803
427.955	0.07474846
428.167	0.07429001
428.378	0.07381436
428.59	0.07387477
428.802	0.07368515
429.013	0.07337596
429.225	0.07299766
429.436	0.07265129
429.648	0.0724086
429.86	0.07241331
430.071	0.07200628
430.283	0.07160676
430.494	0.07135415
430.706	0.0710109
430.917	0.07064966
431.129	0.07051841
431.34	0.07020012
431.552	0.06980217
431.763	0.06932138
431.975	0.06901721
432.186	0.06866386
432.398	0.0682337
432.609	0.06788767
432.821	0.06774186
433.032	0.06753665
433.243	0.06747402
433.455	0.06721004
433.666	0.06710917
433.877	0.06717899
434.089	0.06676785
434.3	0.06627587
434.511	0.06596487
434.723	0.06567314
434.934	0.06535282
435.145	0.06509911
435.356	0.06469854
435.568	0.06461949
435.779	0.06432583
435.99	0.06403968
436.201	0.06371217
436.412	0.06342596
436.624	0.06328921
436.835	0.06292181
437.046	0.06255509
437.257	0.06237414
437.468	0.06213684
437.679	0.06175546
437.89	0.06141398
438.101	0.06103562
438.312	0.06077055
438.523	0.06045634
438.734	0.060168
438.945	0.05976186
439.156	0.05958007
439.367	0.05935044
439.578	0.05919108
439.789	0.05888478
440	0.05855592
440.211	0.05797597
440.422	0.05757045
440.633	0.05719079
440.844	0.05669696
441.055	0.0561595
441.266	0.05574419
441.477	0.05531915
441.687	0.05500767
441.898	0.05460514
442.109	0.05410892
442.32	0.05373689
442.531	0.05330204
442.741	0.05288878
442.952	0.05245971
443.163	0.05217298
443.374	0.05186715
443.584	0.0515418
443.795	0.05124293
444.006	0.05090845
444.216	0.05056067
444.427	0.05035011
444.638	0.05007481
444.848	0.04982142
445.059	0.0494425
445.27	0.04912946
445.48	0.04877995
445.691	0.0484184
445.901	0.04805283
446.112	0.04769626
446.323	0.04725288
446.533	0.04693609
446.744	0.04662813
446.954	0.04632126
447.165	0.04612212
447.375	0.045715
447.586	0.04545169
447.796	0.04523186
448.006	0.04501679
448.217	0.04470901
448.427	0.04432018
448.638	0.04393633
448.848	0.04368307
449.058	0.0433075
449.269	0.04291157
449.479	0.04253641
449.689	0.04223672
449.9	0.04195099
450.11	0.04171979
450.32	0.04144381
450.531	0.04106717
450.741	0.04078962
450.951	0.04047729
451.161	0.04011897
451.372	0.0398326
451.582	0.03952667
451.792	0.0391117
452.002	0.03890126
452.212	0.03854764
452.422	0.03830693
452.633	0.03805672
452.843	0.03772524
453.053	0.03740743
453.263	0.03728507
453.473	0.03700977
453.683	0.03675764
453.893	0.03643351
454.103	0.0362252
454.313	0.03605761
454.523	0.0357514
454.733	0.03535469
454.943	0.03506119
455.153	0.03485115
455.363	0.03444675
455.573	0.0341208
455.783	0.03381978
455.993	0.03350042
456.203	0.03346855
456.413	0.03332893
456.623	0.0330656
456.833	0.03305673
457.042	0.03272066
457.252	0.03241782
457.462	0.03217312
457.672	0.03180804
457.882	0.03144922
458.091	0.0312514
458.301	0.03085657
458.511	0.03062837
458.721	0.03046222
458.931	0.03013317
459.14	0.02989248
459.35	0.02966111
459.56	0.02945946
459.769	0.02930861
459.979	0.02917457
460.189	0.02888894
460.398	0.02873167
460.608	0.02856119
460.817	0.02838729
461.027	0.02809205
461.237	0.02785071
461.446	0.02762271
461.656	0.02750792
461.865	0.02726706
462.075	0.0269667
462.284	0.02665554
462.494	0.02643833
462.703	0.0261884
462.913	0.02601373
463.122	0.02586283
463.332	0.02562798
463.541	0.02551723
463.751	0.0254202
463.96	0.0253081
464.169	0.02511283
464.379	0.02491497
464.588	0.02463053
464.797	0.02453512
465.007	0.02429093
465.216	0.02411076
465.425	0.02392732
465.635	0.02377493
465.844	0.02359708
466.053	0.02334504
466.263	0.02325859
466.472	0.02315796
466.681	0.02299685
466.89	0.02287967
467.099	0.02277993
467.309	0.02259046
467.518	0.02245876
467.727	0.02235943
467.936	0.02212239
468.145	0.02199033
468.354	0.02176747
468.563	0.02157201
468.772	0.02136468
468.982	0.02131921
469.191	0.0210391
469.4	0.02094696
469.609	0.02073799
469.818	0.02066044
470.027	0.02049706
470.236	0.02038342
470.445	0.0202884
470.654	0.02012212
470.863	0.01996459
471.072	0.01990063
471.28	0.01965437
471.489	0.01951108
471.698	0.01936429
471.907	0.01909506
472.116	0.01903356
472.325	0.01892749
472.534	0.01877567
472.743	0.01878012
472.951	0.01865876
473.16	0.01851604
473.369	0.01844067
473.578	0.01838652
473.786	0.01825441
473.995	0.0181331
474.204	0.01803596
474.413	0.0180486
474.621	0.01810489
474.83	0.01807108
475.039	0.01790539
475.247	0.01781428
475.456	0.01780856
475.665	0.0176347
475.873	0.01749115
476.082	0.01740619
476.291	0.01731966
476.499	0.01733513
476.708	0.01733788
476.916	0.01718254
477.125	0.01710997
477.333	0.01695951
477.542	0.01673038
477.75	0.01656418
477.959	0.01644809
478.167	0.01628568
478.376	0.01618787
478.584	0.01618967
478.793	0.01622314
479.001	0.01624667
479.209	0.01621653
479.418	0.01613935
479.626	0.01608954
479.834	0.01604643
480.043	0.01590598
480.251	0.01585236
480.459	0.01575395
480.668	0.01570423
480.876	0.01566738
481.084	0.01554903
481.293	0.01557055
481.501	0.01558757
481.709	0.01556652
481.917	0.01554492
482.125	0.01554167
482.334	0.01545614
482.542	0.01554176
482.75	0.01539306
482.958	0.01526792
483.166	0.01522834
483.374	0.01522578
483.583	0.0152642
483.791	0.01524076
483.999	0.01517442
484.207	0.01521771
484.415	0.01524482
484.623	0.01520949
484.831	0.01517431
485.039	0.01511614
485.247	0.0151259
485.455	0.01508679
485.663	0.01503492
485.871	0.01505365
486.079	0.01505533
486.287	0.01510424
486.495	0.01510567
486.702	0.01512456
486.91	0.01511822
487.118	0.01518157
487.326	0.01516251
487.534	0.01511539
487.742	0.0149958
487.95	0.01494388
488.157	0.01492465
488.365	0.01501599
488.573	0.01497761
488.781	0.01493717
488.988	0.01498287
489.196	0.01499778
489.404	0.01504935
489.612	0.01504348
489.819	0.01501425
490.027	0.01497327
490.235	0.01500793
490.442	0.01498817
490.65	0.01503591
490.857	0.0150146
491.065	0.01500066
491.273	0.01495154
491.48	0.01503821
491.688	0.01505017
491.895	0.01506703
492.103	0.01506459
492.31	0.01506247
492.518	0.0151579
492.725	0.01518753
492.933	0.01520526
493.14	0.01522738
493.348	0.01521086
493.555	0.01527927
493.763	0.01526165
493.97	0.01523733
494.177	0.01528408
494.385	0.01527515
494.592	0.01536298
494.8	0.01550835
495.007	0.0154977
495.214	0.01556806
495.422	0.01562
495.629	0.01560891
495.836	0.0156638
496.043	0.01565461
496.251	0.015672
496.458	0.01576281
496.665	0.01585618
496.872	0.01590257
497.08	0.01603483
497.287	0.01613591
497.494	0.01620306
497.701	0.01621142
497.908	0.01622975
498.115	0.01625836
498.322	0.01632793
498.53	0.0162974
498.737	0.01632387
498.944	0.01640372
499.151	0.01646733
499.358	0.01651974
499.565	0.01653312
499.772	0.01657849
499.979	0.01674098
500.186	0.01677269
500.393	0.01677469
500.6	0.0168174
500.807	0.01687978
501.014	0.01698372
501.221	0.01701283
501.427	0.01699354
501.634	0.01706987
501.841	0.01715257
502.048	0.01722677
502.255	0.01728291
502.462	0.01735063
502.669	0.01741309
502.875	0.0174988
503.082	0.01757978
503.289	0.01765499
503.496	0.01773501
503.702	0.01783019
503.909	0.01790981
504.116	0.01799581
504.323	0.01800074
504.529	0.01803681
504.736	0.01811767
504.943	0.01816477
505.149	0.018215
505.356	0.01830105
505.563	0.01837065
505.769	0.01853435
505.976	0.01867499
506.182	0.01872262
506.389	0.01882321
506.595	0.01893758
506.802	0.01896891
507.008	0.01910248
507.215	0.01914164
507.421	0.01914769
507.628	0.01923891
507.834	0.0192877
508.041	0.01932483
508.247	0.01942951
508.454	0.01949322
508.66	0.01958704
508.866	0.01972105
509.073	0.01983132
509.279	0.01995234
509.486	0.02006545
509.692	0.02017979
509.898	0.02026294
510.105	0.02037345
510.311	0.02049649
510.517	0.02056988
510.723	0.0206504
510.93	0.0207742
511.136	0.02087875
511.342	0.02095477
511.548	0.02105504
511.754	0.02115359
511.961	0.02127745
512.167	0.02141282
512.373	0.02148961
512.579	0.02155502
512.785	0.02168679
512.991	0.02179291
513.197	0.02186953
513.404	0.02193515
513.61	0.02206465
513.816	0.022181
514.022	0.02232536
514.228	0.02240205
514.434	0.02254271
514.64	0.02263241
514.846	0.02280353
515.052	0.02286123
515.258	0.02299192
515.464	0.02307001
515.669	0.02325822
515.875	0.02335087
516.081	0.02350214
516.287	0.02356219
516.493	0.02371172
516.699	0.02379885
516.905	0.02391857
517.111	0.02399043
517.316	0.02409041
517.522	0.02419437
517.728	0.02441888
517.934	0.02452825
518.139	0.02467987
518.345	0.02482242
518.551	0.02495965
518.757	0.02509685
518.962	0.02524641
519.168	0.02528542
519.374	0.02540702
519.579	0.02553978
519.785	0.02566286
519.991	0.02579271
520.196	0.02592134
520.402	0.02603118
520.607	0.02621496
520.813	0.02639448
521.018	0.02650752
521.224	0.02666948
521.429	0.02680633
521.635	0.0269435
521.84	0.02706396
522.046	0.02716984
522.251	0.02724577
522.457	0.02738239
522.662	0.02750934
522.868	0.02761927
523.073	0.02778451
523.279	0.02795547
523.484	0.02809399
523.689	0.02830176
523.895	0.02843656
524.1	0.02857268
524.305	0.02871993
524.511	0.02884328
524.716	0.02897242
524.921	0.02911337
525.126	0.02917673
525.332	0.02934126
525.537	0.02953527
525.742	0.02973722
525.947	0.02994144
526.153	0.03010513
526.358	0.03033215
526.563	0.03053931
526.768	0.03070397
526.973	0.03078083
527.178	0.03096213
527.383	0.03108672
527.588	0.0312517
527.794	0.03132721
527.999	0.03149384
528.204	0.03168731
528.409	0.03185549
528.614	0.03193627
528.819	0.0320856
529.024	0.03223113
529.229	0.03241635
529.434	0.0325418
529.639	0.03260937
529.843	0.03282053
530.048	0.03303416
530.253	0.03322771
530.458	0.03343068
530.663	0.03363652
530.868	0.03383844
531.073	0.03406973
531.278	0.03425447
531.482	0.03440672
531.687	0.03457529
531.892	0.0347549
532.097	0.03492649
532.302	0.03511389
532.506	0.03533743
532.711	0.03549969
532.916	0.03572419
533.12	0.03590527
533.325	0.03607951
533.53	0.03625736
533.734	0.03646286
533.939	0.03663721
534.144	0.03682704
534.348	0.03696953
534.553	0.03714415
534.757	0.03728204
534.962	0.03746248
535.167	0.03763011
535.371	0.03778948
535.576	0.0380202
535.78	0.03825076
535.985	0.03847872
536.189	0.03874586
536.394	0.03893174
536.598	0.0391354
536.803	0.03938079
537.007	0.03958898
537.211	0.03979261
537.416	0.03994726
537.62	0.04016425
537.825	0.04036818
538.029	0.04058464
538.233	0.0408009
538.438	0.04096524
538.642	0.04115156
538.846	0.04144904
539.05	0.04163251
539.255	0.04186859
539.459	0.0420884
539.663	0.04226047
539.867	0.04249111
540.072	0.04271765
540.276	0.0428773
540.48	0.04307396
540.684	0.04326169
540.888	0.04345036
541.092	0.04366772
541.297	0.0438733
541.501	0.04411052
541.705	0.04436241
541.909	0.04460166
542.113	0.04483149
542.317	0.0450678
542.521	0.04525867
542.725	0.04551562
542.929	0.04573581
543.133	0.04594477
543.337	0.04614985
543.541	0.04637994
543.745	0.04664355
543.949	0.04691586
544.153	0.04711839
544.357	0.04737297
544.56	0.04761503
544.764	0.04787506
544.968	0.04808065
545.172	0.04824513
545.376	0.04847604
545.58	0.04871929
545.783	0.04889152
545.987	0.04908151
546.191	0.04930295
546.395	0.04957194
546.598	0.04986121
546.802	0.05009714
547.006	0.05029536
547.21	0.05059506
547.413	0.05084319
547.617	0.05111087
547.821	0.0513448
548.024	0.05158363
548.228	0.05178723
548.431	0.05205393
548.635	0.05229665
548.839	0.05258228
549.042	0.05285814
549.246	0.05310976
549.449	0.05335831
549.653	0.05367056
549.856	0.05391603
550.06	0.05414114
550.263	0.05442333
550.467	0.05462522
550.67	0.05487431
550.874	0.0550953
551.077	0.05529994
551.28	0.05556397
551.484	0.05581126
551.687	0.05600891
551.891	0.05627204
552.094	0.05654993
552.297	0.05686735
552.501	0.05719612
552.704	0.05748486
552.907	0.05773287
553.11	0.05803606
553.314	0.05830944
553.517	0.05855846
553.72	0.05881523
553.923	0.05904902
554.127	0.05930689
554.33	0.05958652
554.533	0.05983738
554.736	0.06010705
554.939	0.06036874
555.142	0.06061307
555.345	0.06086955
555.549	0.0611432
555.752	0.06141908
555.955	0.0616899
556.158	0.06194486
556.361	0.06226418
556.564	0.06253022
556.767	0.06286689
556.97	0.06314708
557.173	0.06341794
557.376	0.06368518
557.579	0.0639924
557.782	0.06425124
557.984	0.06458203
558.187	0.06484048
558.39	0.06508767
558.593	0.06536931
558.796	0.06565142
558.999	0.06590424
559.202	0.06620723
559.404	0.06642748
559.607	0.06672158
559.81	0.06707077
560.013	0.06737452
560.216	0.06767855
560.418	0.06796797
560.621	0.06828867
560.824	0.06863841
561.026	0.06892365
561.229	0.06919459
561.432	0.06951675
561.634	0.06981245
561.837	0.07011248
562.04	0.07035088
562.242	0.07066289
562.445	0.07093281
562.647	0.07122937
562.85	0.07150074
563.053	0.07181608
563.255	0.07214791
563.458	0.07245305
563.66	0.07271588
563.863	0.07302123
564.065	0.07332107
564.268	0.0736024
564.47	0.07390567
564.672	0.07416065
564.875	0.07442722
565.077	0.0747199
565.28	0.07503164
565.482	0.07536637
565.684	0.07563143
565.887	0.07585183
566.089	0.07618872
566.291	0.07656719
566.494	0.07689017
566.696	0.07715409
566.898	0.07742997
567.1	0.07779928
567.303	0.07818911
567.505	0.07846073
567.707	0.07872076
567.909	0.07904073
568.111	0.07939419
568.314	0.07969518
568.516	0.07996897
568.718	0.08023935
568.92	0.0806092
569.122	0.08090003
569.324	0.08121197
569.526	0.08148349
569.728	0.08178967
569.93	0.08211797
570.132	0.08243095
570.334	0.08271095
570.536	0.08302306
570.738	0.08328458
570.94	0.08360131
571.142	0.0839268
571.344	0.0842724
571.546	0.0845648
571.748	0.08487843
571.95	0.08516788
572.152	0.08550552
572.354	0.0858545
572.555	0.08613284
572.757	0.08638795
572.959	0.08674143
573.161	0.0870602
573.363	0.08738151
573.564	0.08773205
573.766	0.08798967
573.968	0.08834185
574.17	0.08866487
574.371	0.08897046
574.573	0.08928369
574.775	0.08961658
574.976	0.08989814
575.178	0.09024213
575.38	0.09052812
575.581	0.09083659
575.783	0.09114693
575.985	0.09146419
576.186	0.09181355
576.388	0.09211034
576.589	0.09244578
576.791	0.09282883
576.992	0.09315241
577.194	0.0934512
577.395	0.09377221
577.597	0.09405158
577.798	0.09437698
578	0.09466315
578.201	0.09499506
578.402	0.09531141
578.604	0.09559808
578.805	0.09590229
579.007	0.0961984
579.208	0.09655548
579.409	0.0968667
579.611	0.09715915
579.812	0.09750874
580.013	0.09793094
580.215	0.09823551
580.416	0.09861499
580.617	0.09887372
580.818	0.09922348
581.019	0.09947967
581.221	0.09977447
581.422	0.10007146
581.623	0.10041763
581.824	0.10067276
582.025	0.10106238
582.226	0.10138523
582.428	0.10176182
582.629	0.10208628
582.83	0.10242063
583.031	0.10271872
583.232	0.1030719
583.433	0.10337054
583.634	0.10368712
583.835	0.10396491
584.036	0.10424677
584.237	0.10448147
584.438	0.10479108
584.639	0.10513238
584.84	0.1054643
585.041	0.10577947
585.242	0.10609123
585.442	0.10643231
585.643	0.1067833
585.844	0.1070884
586.045	0.10736104
586.246	0.10758698
586.447	0.10787155
586.647	0.10818744
586.848	0.1084496
587.049	0.10876027
587.25	0.10910895
587.45	0.10942335
587.651	0.10980241
587.852	0.11013654
588.053	0.11050367
588.253	0.11086575
588.454	0.11117943
588.655	0.11142315
588.855	0.11171057
589.056	0.11200144
589.256	0.11228001
589.457	0.11257152
589.658	0.11288203
589.858	0.11313808
590.059	0.11345646
590.259	0.11381508
590.46	0.11407612
590.66	0.11437989
590.861	0.11466931
591.061	0.11495479
591.262	0.11532217
591.462	0.11565281
591.662	0.11593787
591.863	0.11628286
592.063	0.11656684
592.264	0.11687983
592.464	0.11716529
592.664	0.11746004
592.865	0.11778444
593.065	0.11805407
593.265	0.11837859
593.465	0.1186828
593.666	0.11891988
593.866	0.11920114
594.066	0.11951146
594.266	0.11974371
594.467	0.12002781
594.667	0.1202562
594.867	0.1205958
595.067	0.12085271
595.267	0.12116873
595.467	0.12141266
595.668	0.12173882
595.868	0.12205167
596.068	0.12234375
596.268	0.12255993
596.468	0.12292264
596.668	0.12316422
596.868	0.12344845
597.068	0.12368661
597.268	0.12397726
597.468	0.12422352
597.668	0.12453384
597.868	0.12480084
598.068	0.12515377
598.268	0.12540265
598.467	0.12570101
598.667	0.12591027
598.867	0.12616331
599.067	0.12645979
599.267	0.12666156
599.467	0.12690592
599.667	0.12717024
599.866	0.12745169
600.066	0.12775221
600.266	0.12805722
600.466	0.1283058
600.665	0.12858846
600.865	0.12882916
601.065	0.12909227
601.264	0.12927574
601.464	0.12950737
601.664	0.12978772
601.863	0.13001045
602.063	0.13027112
602.263	0.13046379
602.462	0.13073608
602.662	0.13102276
602.861	0.13129307
603.061	0.13152036
603.26	0.13179521
603.46	0.13199489
603.659	0.13230868
603.859	0.13250918
604.058	0.13278189
604.258	0.13309592
604.457	0.13338978
604.657	0.13357727
604.856	0.13381796
605.056	0.13407795
605.255	0.13433675
605.454	0.13461056
605.654	0.13474272
605.853	0.1349477
606.052	0.13520068
606.252	0.13547836
606.451	0.13569423
606.65	0.13594855
606.849	0.13609621
607.049	0.13635471
607.248	0.13657445
607.447	0.13678809
607.646	0.13700625
607.845	0.1372271
608.045	0.13741396
608.244	0.1376755
608.443	0.13789984
608.642	0.13813304
608.841	0.13831238
609.04	0.13849176
609.239	0.13871852
609.438	0.13887844
609.637	0.13909664
609.836	0.13930916
610.035	0.139464
610.234	0.13973472
610.433	0.13995775
610.632	0.14012469
610.831	0.14044535
611.03	0.14061256
611.229	0.14086786
611.428	0.14107729
611.627	0.14127556
611.826	0.14154982
612.025	0.14183563
612.224	0.14196704
612.422	0.14219899
612.621	0.14240669
612.82	0.14265684
613.019	0.14288151
613.218	0.14310164
613.416	0.14319368
613.615	0.14345914
613.814	0.14367288
614.012	0.14386634
614.211	0.14402018
614.41	0.14421629
614.608	0.14434874
614.807	0.14458175
615.006	0.14478372
615.204	0.14494574
615.403	0.14509958
615.602	0.14533989
615.8	0.14557015
615.999	0.14575096
616.197	0.14597081
616.396	0.14615466
616.594	0.14632363
616.793	0.14655583
616.991	0.1467201
617.19	0.14681686
617.388	0.14703784
617.586	0.14716894
617.785	0.1473529
617.983	0.14758128
618.182	0.14771083
618.38	0.1478424
618.578	0.14803268
618.777	0.14821059
618.975	0.14842878
619.173	0.14859674
619.372	0.14875037
619.57	0.14887737
619.768	0.14910525
619.966	0.14934148
620.165	0.14943562
620.363	0.14960429
620.561	0.14968653
620.759	0.1498488
620.957	0.15009248
621.155	0.15023911
621.354	0.15032759
621.552	0.1505527
621.75	0.15067862
621.948	0.15090531
622.146	0.15109272
622.344	0.15119682
622.542	0.15137227
622.74	0.15155052
622.938	0.15164036
623.136	0.15183573
623.334	0.15203323
623.532	0.15207491
623.73	0.15219045
623.928	0.15230847
624.126	0.15246795
624.324	0.15268378
624.522	0.15270688
624.719	0.15276522
624.917	0.15297281
625.115	0.15311559
625.313	0.15328596
625.511	0.15348254
625.708	0.153484
625.906	0.15366077
626.104	0.15379169
626.302	0.1539934
626.499	0.15419636
626.697	0.15431856
626.895	0.1543967
627.093	0.15460037
627.29	0.15482325
627.488	0.15502673
627.686	0.1551424
627.883	0.15521148
628.081	0.15524318
628.278	0.15543921
628.476	0.15556853
628.673	0.15564851
628.871	0.15572697
629.068	0.1558393
629.266	0.15601823
629.463	0.15615948
629.661	0.15624862
629.858	0.15631208
630.056	0.15637714
630.253	0.1564617
630.451	0.15652852
630.648	0.15661929
630.845	0.15674792
631.043	0.15682618
631.24	0.15702965
631.438	0.15726433
631.635	0.15741446
631.832	0.15748268
632.029	0.15760955
632.227	0.15773313
632.424	0.15787991
632.621	0.15797168
632.818	0.15799759
633.016	0.15810603
633.213	0.15820681
633.41	0.15834121
633.607	0.15848843
633.804	0.15854258
634.001	0.15859068
634.199	0.15874091
634.396	0.15887749
634.593	0.15899224
634.79	0.15906913
634.987	0.15918337
635.184	0.15932033
635.381	0.15949321
635.578	0.15956639
635.775	0.15961258
635.972	0.15973594
636.169	0.1598032
636.366	0.15980822
636.563	0.15983951
636.76	0.15986584
636.957	0.15997179
637.153	0.15997499
637.35	0.16006287
637.547	0.16015686
637.744	0.16027613
637.941	0.16041814
638.138	0.16056233
638.334	0.16058801
638.531	0.16079074
638.728	0.16088812
638.925	0.16104709
639.121	0.16112467
639.318	0.16117777
639.515	0.16120532
639.711	0.16137281
639.908	0.16133528
640.105	0.16138753
640.301	0.16135656
640.498	0.1614324
640.695	0.16155654
640.891	0.16165939
641.088	0.16168761
641.284	0.1618561
641.481	0.16193214
641.677	0.16205677
641.874	0.16210523
642.07	0.16216536
642.267	0.16225659
642.463	0.16233417
642.66	0.16238652
642.856	0.16248683
643.053	0.16247595
643.249	0.16260017
643.445	0.16263869
643.642	0.1626493
643.838	0.16271167
644.034	0.16281293
644.231	0.16284433
644.427	0.16298265
644.623	0.16301256
644.82	0.16310617
645.016	0.16320718
645.212	0.16322634
645.408	0.16327708
645.604	0.16344798
645.801	0.16350812
645.997	0.1636288
646.193	0.16362583
646.389	0.16371529
646.585	0.16380447
646.781	0.16387222
646.977	0.16386071
647.173	0.1639344
647.37	0.163922
647.566	0.16402923
647.762	0.16403286
647.958	0.16412725
648.154	0.16415164
648.35	0.16419382
648.546	0.16422646
648.742	0.16438053
648.937	0.16434809
649.133	0.16445542
649.329	0.16451862
649.525	0.16458852
649.721	0.16465652
649.917	0.16480694
650.113	0.1647726
650.309	0.1649688
650.504	0.16501774
650.7	0.16504068
650.896	0.16511756
651.092	0.16518835
651.287	0.16514992
651.483	0.16528002
651.679	0.16525499
651.875	0.16532278
652.07	0.16537879
652.266	0.16539836
652.462	0.16544512
652.657	0.16549475
652.853	0.16548338
653.048	0.16558747
653.244	0.16558008
653.44	0.16561665
653.635	0.16560856
653.831	0.1656804
654.026	0.16574872
654.222	0.16580878
654.417	0.16586713
654.613	0.16594923
654.808	0.16601446
655.004	0.16620076
655.199	0.16620201
655.394	0.16625679
655.59	0.16635483
655.785	0.16634044
655.98	0.16642961
656.176	0.16645527
656.371	0.16649913
656.566	0.16659662
656.762	0.16660812
656.957	0.16665767
657.152	0.1666852
657.348	0.16673014
657.543	0.1667901
657.738	0.16681802
657.933	0.1667925
658.128	0.16680699
658.324	0.16680003
658.519	0.16687491
658.714	0.16689613
658.909	0.16694534
659.104	0.16701742
659.299	0.16709686
659.494	0.16718911
659.689	0.16724423
659.884	0.16730089
660.079	0.1673288
660.274	0.16739939
660.469	0.16743081
660.664	0.16755522
660.859	0.16762039
661.054	0.1676836
661.249	0.16773868
661.444	0.16781437
661.639	0.16784337
661.834	0.1678703
662.029	0.16789002
662.224	0.16792839
662.418	0.16800853
662.613	0.16806135
662.808	0.16803842
663.003	0.16807548
663.198	0.16814772
663.392	0.16816201
663.587	0.16829415
663.782	0.16828579
663.977	0.16835389
664.171	0.16846961
664.366	0.16853882
664.561	0.16858368
664.755	0.16867074
664.95	0.16865767
665.144	0.16876756
665.339	0.16881358
665.534	0.16888173
665.728	0.16894629
665.923	0.16902287
666.117	0.16906285
666.312	0.16913384
666.506	0.16924115
666.701	0.16930882
666.895	0.16933655
667.09	0.16938924
667.284	0.16943249
667.479	0.16944314
667.673	0.16946029
667.867	0.16949499
668.062	0.16954447
668.256	0.16962817
668.45	0.16976315
668.645	0.16984805
668.839	0.16996754
669.033	0.17005253
669.228	0.17010078
669.422	0.17018582
669.616	0.17022444
669.81	0.17028089
670.004	0.17026549
670.199	0.17035803
670.393	0.17041186
670.587	0.17044227
670.781	0.1704306
670.975	0.17053486
671.169	0.17050815
671.363	0.17058767
671.558	0.17058307
671.752	0.17066284
671.946	0.17075769
672.14	0.17089983
672.334	0.17092676
672.528	0.17107801
672.722	0.17114866
672.916	0.17127728
673.11	0.1713232
673.304	0.17146369
673.497	0.17147872
673.691	0.17162952
673.885	0.17162545
674.079	0.17175436
674.273	0.17179947
674.467	0.17194293
674.661	0.17194448
674.854	0.17201554
675.048	0.17206628
675.242	0.17221222
675.436	0.17222266
675.629	0.17227053
675.823	0.17227252
676.017	0.17237274
676.211	0.17243401
676.404	0.17248501
676.598	0.17250949
676.792	0.17257651
676.985	0.17271037
677.179	0.17275724
677.372	0.17279517
677.566	0.17295646
677.76	0.17301077
677.953	0.17311881
678.147	0.17325418
678.34	0.17333624
678.534	0.17342515
678.727	0.17357905
678.921	0.17365052
679.114	0.17374493
679.307	0.17383081
679.501	0.17393046
679.694	0.17400991
679.888	0.17414975
680.081	0.17419122
680.274	0.17424201
680.468	0.17434981
680.661	0.17447604
680.854	0.17463113
681.048	0.17474898
681.241	0.1748082
681.434	0.17483457
681.627	0.1749656
681.821	0.17504519
682.014	0.17514081
682.207	0.17512807
682.4	0.17517854
682.593	0.1753019
682.786	0.17540488
682.98	0.17548676
683.173	0.17564709
683.366	0.17570034
683.559	0.1758175
683.752	0.17590156
683.945	0.17601882
684.138	0.17614721
684.331	0.17622155
684.524	0.17635277
684.717	0.1764066
684.91	0.1765219
685.103	0.17659782
685.296	0.17663953
685.489	0.17676947
685.682	0.17687885
685.874	0.17693844
686.067	0.17705383
686.26	0.17713146
686.453	0.17724842
686.646	0.17737643
686.839	0.17748099
687.031	0.17758835
687.224	0.17761518
687.417	0.17779776
687.61	0.17790025
687.802	0.17801981
687.995	0.17817584
688.188	0.17827605
688.38	0.17836026
688.573	0.17850063
688.766	0.17853992
688.958	0.17865198
689.151	0.17872941
689.343	0.17885597
689.536	0.17894171
689.729	0.17905201
689.921	0.17917658
690.114	0.17927946
690.306	0.17937192
690.499	0.17951711
690.691	0.179571
690.884	0.17968922
691.076	0.17987252
691.268	0.17993709
691.461	0.18001334
691.653	0.18018741
691.846	0.1803353
692.038	0.18045955
692.23	0.18056998
692.423	0.18065393
692.615	0.18077625
692.807	0.18093778
692.999	0.18102644
693.192	0.18112793
693.384	0.18127616
693.576	0.18135476
693.768	0.1815041
693.961	0.1816243
694.153	0.18178753
694.345	0.18189401
694.537	0.18197283
694.729	0.18205023
694.921	0.18220397
695.113	0.18233742
695.305	0.1824868
695.498	0.18253673
695.69	0.18274211
695.882	0.18288028
696.074	0.18306158
696.266	0.18322464
696.458	0.18324847
696.65	0.18335729
696.842	0.18353169
697.033	0.18358486
697.225	0.18365622
697.417	0.18380018
697.609	0.18390615
697.801	0.1840665
697.993	0.18427312
698.185	0.1844016
698.376	0.1845654
698.568	0.18474204
698.76	0.18484702
698.952	0.18495084
699.144	0.18513292
699.335	0.18523523
699.527	0.18541052
699.719	0.1855104
699.91	0.18573795
700.102	0.18585012
700.294	0.18608544
700.485	0.1862344
700.677	0.18634898
700.869	0.18646887
701.06	0.18664443
701.252	0.18670879
701.443	0.18687831
701.635	0.18693072
701.826	0.18708397
702.018	0.18722922
702.209	0.18740274
702.401	0.18750398
702.592	0.18768678
702.784	0.18777639
702.975	0.18798791
703.166	0.18810757
703.358	0.18825008
703.549	0.18836869
703.741	0.18851255
703.932	0.18860686
704.123	0.18875425
704.315	0.18883834
704.506	0.18899472
704.697	0.1891314
704.888	0.18932234
705.08	0.18948799
705.271	0.18967314
705.462	0.18980746
705.653	0.18994563
705.844	0.19005062
706.035	0.19018373
706.227	0.19021642
706.418	0.19035708
706.609	0.19052051
706.8	0.1907437
706.991	0.19087685
707.182	0.19104885
707.373	0.19116854
707.564	0.19139225
707.755	0.19150799
707.946	0.19163152
708.137	0.1916829
708.328	0.19183735
708.519	0.19196249
708.71	0.19219837
708.901	0.19232391
709.092	0.19250437
709.283	0.19264794
709.473	0.19284394
709.664	0.1930445
709.855	0.19319372
710.046	0.19335118
710.237	0.19348908
710.427	0.19364186
710.618	0.19378845
710.809	0.19392864
711	0.19409938
711.19	0.19420514
711.381	0.19432242
711.572	0.1944512
711.762	0.19465818
711.953	0.19479237
712.144	0.19496035
712.334	0.19507862
712.525	0.19532253
712.715	0.19551813
712.906	0.19565069
713.097	0.19570262
713.287	0.19586738
713.478	0.19600699
713.668	0.19618062
713.859	0.19627763
714.049	0.19640943
714.239	0.19660771
714.43	0.19678715
714.62	0.19694386
714.811	0.19709456
715.001	0.19727644
715.191	0.19745265
715.382	0.19755291
715.572	0.19775892
715.762	0.19789465
715.953	0.19808595
716.143	0.19828024
716.333	0.19836626
716.523	0.19849746
716.714	0.19874552
716.904	0.19886312
717.094	0.19906315
717.284	0.19915562
717.474	0.19935187
717.664	0.19953828
717.855	0.19971747
718.045	0.19980968
718.235	0.20001843
718.425	0.20022596
718.615	0.20044939
718.805	0.20062878
718.995	0.20085542
719.185	0.20105559
719.375	0.20126617
719.565	0.20139881
719.755	0.20154407
719.945	0.20170234
720.135	0.20182897
720.325	0.20197373
720.515	0.20211539
720.704	0.20230487
720.894	0.20251253
721.084	0.20263172
721.274	0.20282715
721.464	0.20300727
721.654	0.20317409
721.843	0.20337992
722.033	0.2035278
722.223	0.20368742
722.413	0.20394804
722.602	0.20405899
722.792	0.20423737
722.982	0.20438177
723.171	0.20454531
723.361	0.20469648
723.55	0.20489384
723.74	0.20501361
723.93	0.20520136
724.119	0.20538428
724.309	0.20556378
724.498	0.20571265
724.688	0.20594198
724.877	0.20607076
725.067	0.20623602
725.256	0.20638338
725.446	0.20651297
725.635	0.20659892
725.825	0.20671659
726.014	0.20679916
726.203	0.20691827
726.393	0.20698333
726.582	0.20714619
726.771	0.20725193
726.961	0.20749307
727.15	0.20764145
727.339	0.20773953
727.529	0.20791471
727.718	0.20807757
727.907	0.20819962
728.096	0.20830691
728.286	0.20833486
728.475	0.20848916
728.664	0.2086096
728.853	0.2086547
729.042	0.20877867
729.231	0.20885508
729.42	0.20896534
729.609	0.20911899
729.799	0.20917113
729.988	0.20930427
730.177	0.20941283
730.366	0.20954042
730.555	0.20971988
730.744	0.20985897
730.933	0.20992773
731.122	0.21006771
731.31	0.21015796
731.499	0.21028212
731.688	0.2104024
731.877	0.2104431
732.066	0.21052142
732.255	0.2106682
732.444	0.21074968
732.632	0.2108825
732.821	0.21099929
733.01	0.21115763
733.199	0.21125603
733.388	0.21139038
733.576	0.21147567
733.765	0.21165345
733.954	0.2117761
734.142	0.2118662
734.331	0.21194205
734.52	0.21207439
734.708	0.21223266
734.897	0.21235466
735.086	0.21239824
735.274	0.21246743
735.463	0.21261806
735.651	0.21268646
735.84	0.2128129
736.028	0.21290343
736.217	0.2130296
736.405	0.21315699
736.594	0.21330607
736.782	0.21339423
736.971	0.21351968
737.159	0.2136242
737.347	0.21369838
737.536	0.21374464
737.724	0.21384671
737.912	0.21392609
738.101	0.21402683
738.289	0.21415966
738.477	0.21427804
738.666	0.21438165
738.854	0.21456843
739.042	0.21471388
739.23	0.21483578
739.418	0.21492301
739.607	0.21492227
739.795	0.21499338
739.983	0.21511431
740.171	0.21520971
740.359	0.21529019
740.547	0.2153641
740.735	0.21550876
740.923	0.2157315
741.112	0.21585447
741.3	0.21598364
741.488	0.21604388
741.676	0.21616611
741.864	0.21627715
742.052	0.21637133
742.239	0.2163401
742.427	0.21642434
742.615	0.21641462
742.803	0.21644661
742.991	0.21645797
743.179	0.21651577
743.367	0.21653657
743.555	0.21671522
743.742	0.21677568
743.93	0.21691385
744.118	0.21705117
744.306	0.21713275
744.494	0.21719709
744.681	0.21734463
744.869	0.21735785
745.057	0.21739534
745.244	0.21747151
745.432	0.21760949
745.62	0.21775764
745.807	0.21785878
745.995	0.21792591
746.182	0.21800967
746.37	0.21813627
746.558	0.21820112
746.745	0.21818892
746.933	0.21815446
747.12	0.21819669
747.308	0.2182236
747.495	0.21828729
747.683	0.21834773
747.87	0.21841192
748.057	0.21856899
748.245	0.21871938
748.432	0.21880303
748.62	0.21885294
748.807	0.21890913
748.994	0.21900884
749.182	0.21908202
749.369	0.21906596
749.556	0.21916321
749.743	0.21926308
749.931	0.21931979
750.118	0.21943767
750.305	0.21946511
750.492	0.219505
750.68	0.21958901
750.867	0.2196104
751.054	0.21970134
751.241	0.21975594
751.428	0.21984298
751.615	0.21987248
751.802	0.21987201
751.989	0.21989042
752.176	0.2199347
752.363	0.21997978
752.55	0.22001879
752.737	0.22009451
752.924	0.22017312
753.111	0.22027358
753.298	0.22037242
753.485	0.22043266
753.672	0.2204547
753.859	0.22052773
754.046	0.22051254
754.233	0.22050926
754.42	0.22057321
754.606	0.2206085
754.793	0.22055595
754.98	0.22056315
755.167	0.2205875
755.353	0.22065318
755.54	0.22072711
755.727	0.22072371
755.914	0.22066317
756.1	0.22068154
756.287	0.22065009
756.474	0.22065537
756.66	0.22065588
756.847	0.2207538
757.033	0.22079092
757.22	0.22084417
757.407	0.22099777
757.593	0.22106888
757.78	0.22109648
757.966	0.22109681
758.153	0.22105002
758.339	0.22107472
758.526	0.22111173
758.712	0.22104656
758.898	0.22111859
759.085	0.22112626
759.271	0.22109948
759.458	0.22105009
759.644	0.22111375
759.83	0.22110607
760.017	0.22118919
760.203	0.22115615
760.389	0.22117118
760.576	0.22118248
760.762	0.22126077
760.948	0.22116846
761.134	0.22122419
761.32	0.2211828
761.507	0.22115003
761.693	0.22120684
761.879	0.22120036
762.065	0.22116089
762.251	0.22119694
762.437	0.22122791
762.623	0.22123319
762.809	0.22132004
762.995	0.22126697
763.181	0.2213071
763.367	0.22131605
763.553	0.22135955
763.739	0.22132036
763.925	0.2212838
764.111	0.22123377
764.297	0.22122598
764.483	0.22117029
764.669	0.22111658
764.855	0.22107012
765.041	0.22102472
765.227	0.22094242
765.412	0.22092025
765.598	0.2209174
765.784	0.22089364
765.97	0.22095963
766.156	0.2209045
766.341	0.22087867
766.527	0.220908
766.713	0.2208779
766.898	0.22082183
767.084	0.22085041
767.27	0.2207359
767.455	0.22070115
767.641	0.22064485
767.827	0.22061533
768.012	0.22056056
768.198	0.22056736
768.383	0.22051968
768.569	0.22054102
768.754	0.22051753
768.94	0.22048506
769.125	0.22046409
769.311	0.2204043
769.496	0.22039131
769.682	0.22037038
769.867	0.22036441
770.052	0.22037124
770.238	0.22031449
770.423	0.220286
770.608	0.22032627
770.794	0.22025642
770.979	0.22012287
771.164	0.22002569
771.35	0.21992763
771.535	0.21990574
771.72	0.21981566
771.905	0.21975341
772.09	0.21968771
772.276	0.2197269
772.461	0.21965811
772.646	0.2195707
772.831	0.21948165
773.016	0.21941982
773.201	0.21931341
773.386	0.21927246
773.571	0.2191605
773.756	0.21910493
773.941	0.21902794
774.126	0.21910649
774.311	0.21904149
774.496	0.21899258
774.681	0.21890054
774.866	0.21882914
775.051	0.21875693
775.236	0.21871193
775.421	0.21847001
775.606	0.21839932
775.791	0.21824962
775.976	0.21820051
776.16	0.21816108
776.345	0.21807691
776.53	0.21806051
776.715	0.21804983
776.899	0.21797731
777.084	0.21791181
777.269	0.21776851
777.454	0.21762473
777.638	0.21749276
777.823	0.21737044
778.008	0.2172632
778.192	0.21718236
778.377	0.21718095
778.561	0.21708669
778.746	0.21696281
778.931	0.21689258
779.115	0.2168406
779.3	0.21673951
779.484	0.21666133
779.669	0.21643454
779.853	0.21630152
780.037	0.21623508
780.222	0.21611966
780.406	0.21593881
780.591	0.21590467
780.775	0.21574457
780.959	0.21565657
781.144	0.21560491
781.328	0.21549151
781.512	0.21535078
781.697	0.21517475
781.881	0.21498229
782.065	0.21488147
782.249	0.21477463
782.434	0.21465698
782.618	0.21455192
782.802	0.2145096
782.986	0.21443249
783.17	0.21431198
783.354	0.21416154
783.539	0.21404481
783.723	0.21390587
783.907	0.21373023
784.091	0.21357378
784.275	0.21342579
784.459	0.21327882
784.643	0.21317623
784.827	0.21301199
785.011	0.21289274
785.195	0.21279025
785.379	0.21266941
785.563	0.21259218
785.747	0.21249448
785.93	0.21240418
786.114	0.21225935
786.298	0.21214484
786.482	0.21195234
786.666	0.21176699
786.85	0.21163405
787.033	0.21145823
787.217	0.21128762
787.401	0.21119972
787.585	0.21105476
787.768	0.21095341
787.952	0.21081192
788.136	0.21056399
788.319	0.21037731
788.503	0.21017994
788.687	0.21000418
788.87	0.20977624
789.054	0.20959998
789.237	0.20945371
789.421	0.2093799
789.605	0.20921116
789.788	0.20898437
789.972	0.20882871
790.155	0.20864373
790.338	0.20843149
790.522	0.20820985
790.705	0.20792977
790.889	0.20775456
791.072	0.20767981
791.256	0.20753175
791.439	0.20740392
791.622	0.20732337
791.806	0.20727003
791.989	0.20714773
792.172	0.20700448
792.355	0.20683282
792.539	0.206644
792.722	0.20644152
792.905	0.20623166
793.088	0.20599348
793.271	0.20586359
793.455	0.2056974
793.638	0.20548574
793.821	0.20524217
794.004	0.20508825
794.187	0.20493248
794.37	0.20474732
794.553	0.20456336
794.736	0.2043203
794.919	0.20412917
795.102	0.2040234
795.285	0.20387611
795.468	0.20362859
795.651	0.20343755
795.834	0.20326347
796.017	0.20320174
796.2	0.20301963
796.383	0.20278321
796.566	0.20257828
796.749	0.20239218
796.931	0.20218443
797.114	0.20196751
797.297	0.20167341
797.48	0.20146338
797.663	0.20126921
797.845	0.20102359
798.028	0.20089536
798.211	0.20069203
798.393	0.20052257
798.576	0.20041077
798.759	0.20024248
798.941	0.20003561
799.124	0.19982993
799.307	0.19955696
799.489	0.19934475
799.672	0.19912324
799.854	0.19877263
800.037	0.19858333
800.219	0.19835908
800.402	0.19822202
800.584	0.19807797
800.767	0.19791854
800.949	0.19769065
801.132	0.19760074
801.314	0.19735258
801.496	0.19716189
801.679	0.19687069
801.861	0.19662744
802.043	0.19635813
802.226	0.19613651
802.408	0.19586499
802.59	0.19564277
802.772	0.19545691
802.955	0.19526861
803.137	0.19501139
803.319	0.19484942
803.501	0.19458587
803.684	0.19437339
803.866	0.1940682
804.048	0.19378286
804.23	0.19357205
804.412	0.19335505
804.594	0.19307987
804.776	0.19291776
804.958	0.19267722
805.14	0.1925393
805.322	0.19231629
805.504	0.19204006
805.686	0.19184878
805.868	0.19163141
806.05	0.19136589
806.232	0.19117573
806.414	0.19096099
806.596	0.19078594
806.778	0.19059717
806.96	0.19031966
807.141	0.19006213
807.323	0.18985595
807.505	0.1895701
807.687	0.18935402
807.869	0.18905753
808.05	0.18881398
808.232	0.18859718
808.414	0.18835482
808.595	0.18808747
808.777	0.18789932
808.959	0.18764732
809.14	0.18742049
809.322	0.18720475
809.504	0.18696436
809.685	0.18674659
809.867	0.18650648
810.048	0.18626876
810.23	0.18603068
810.411	0.18577376
810.593	0.18546935
810.774	0.18517115
810.956	0.18490752
811.137	0.18457848
811.319	0.18429961
811.5	0.18399168
811.681	0.18378064
811.863	0.18358292
812.044	0.18331103
812.225	0.18310297
812.407	0.18287759
812.588	0.18260022
812.769	0.1823794
812.951	0.18210244
813.132	0.18184556
813.313	0.18169664
813.494	0.1813778
813.675	0.18121502
813.857	0.18099846
814.038	0.18075297
814.219	0.18053298
814.4	0.18021148
814.581	0.17994176
814.762	0.17973054
814.943	0.17950395
815.124	0.17914806
815.305	0.17885956
815.486	0.1785784
815.667	0.17834485
815.848	0.17803646
816.029	0.1777673
816.21	0.17742324
816.391	0.1772719
816.572	0.17699847
816.753	0.17675724
816.934	0.17653121
817.115	0.17630365
817.295	0.17598937
817.476	0.17573154
817.657	0.17546477
817.838	0.1753042
818.019	0.17489379
818.199	0.17460061
818.38	0.17433332
818.561	0.17415337
818.741	0.17391746
818.922	0.1736003
819.103	0.17328519
819.283	0.17313397
819.464	0.1728559
819.645	0.17256755
819.825	0.17222387
820.006	0.17183533
820.186	0.17156484
820.367	0.17121862
820.547	0.17092804
820.728	0.17061207
820.908	0.170349
821.089	0.17015297
821.269	0.16998638
821.45	0.16966551
821.63	0.16937927
821.81	0.16911963
821.991	0.16891243
822.171	0.16866826
822.351	0.16833624
822.532	0.1680246
822.712	0.16778129
822.892	0.1675289
823.072	0.16718055
823.253	0.16684091
823.433	0.16655138
823.613	0.16626312
823.793	0.16600007
823.973	0.16574848
824.154	0.16548197
824.334	0.16527793
824.514	0.16499513
824.694	0.1646813
824.874	0.16432216
825.054	0.16396186
825.234	0.16363072
825.414	0.1632847
825.594	0.16296689
825.774	0.16271003
825.954	0.1624388
826.134	0.16225255
826.314	0.16200061
826.494	0.16175293
826.674	0.16144513
826.854	0.16121246
827.033	0.16086988
827.213	0.16056491
827.393	0.16022295
827.573	0.15996756
827.753	0.15969629
827.932	0.1594452
828.112	0.15914661
828.292	0.15894972
828.472	0.15866265
828.651	0.15846848
828.831	0.15819562
829.011	0.15795021
829.19	0.15764459
829.37	0.15730545
829.549	0.1569504
829.729	0.15663018
829.909	0.15616841
830.088	0.15581342
830.268	0.15537833
830.447	0.15509643
830.627	0.15479668
830.806	0.15453146
830.986	0.15426308
831.165	0.15407938
831.344	0.15382873
831.524	0.1536018
831.703	0.15330337
831.883	0.15298202
832.062	0.15258457
832.241	0.15226324
832.421	0.15193494
832.6	0.15159954
832.779	0.15127866
832.958	0.15092781
833.138	0.15065375
833.317	0.15043633
833.496	0.15016814
833.675	0.14987252
833.854	0.14970522
834.034	0.1494231
834.213	0.14911442
834.392	0.14882298
834.571	0.14843807
834.75	0.14809647
834.929	0.14779781
835.108	0.14733718
835.287	0.1469487
835.466	0.14672701
835.645	0.14642447
835.824	0.14619677
836.003	0.14592825
836.182	0.14561812
836.361	0.14538114
836.54	0.1451118
836.719	0.14477387
836.897	0.14444578
837.076	0.14410468
837.255	0.14374046
837.434	0.14333922
837.613	0.14299112
837.791	0.14275297
837.97	0.14249391
838.149	0.14218702
838.328	0.14184331
838.506	0.14156996
838.685	0.14135883
838.864	0.14106478
839.042	0.14072467
839.221	0.14045942
839.4	0.14010827
839.578	0.13981738
839.757	0.1394574
839.935	0.13910383
840.114	0.13878485
840.292	0.13847289
840.471	0.13811171
840.649	0.13783097
840.828	0.13759074
841.006	0.13740698
841.185	0.13709731
841.363	0.13684242
841.541	0.1365581
841.72	0.13629326
841.898	0.13607116
842.076	0.1356879
842.255	0.13528724
842.433	0.13505581
842.611	0.13471661
842.789	0.13435427
842.968	0.13402268
843.146	0.13370762
843.324	0.13355534
843.502	0.13333249
843.68	0.1331206
843.859	0.13286869
844.037	0.13261641
844.215	0.13230607
844.393	0.13198658
844.571	0.13162705
844.749	0.13125927
844.927	0.13081561
845.105	0.13042248
845.283	0.13008692
845.461	0.12983343
845.639	0.12950117
845.817	0.12916851
845.995	0.12890855
846.173	0.12870684
846.351	0.12842443
846.529	0.1281597
846.706	0.12781927
846.884	0.12749368
847.062	0.12716268
847.24	0.12680241
847.418	0.12638297
847.595	0.12611378
847.773	0.12581786
847.951	0.12548755
848.129	0.12524835
848.306	0.12502814
848.484	0.12476148
848.662	0.1246046
848.839	0.12433497
849.017	0.12408334
849.194	0.12383359
849.372	0.12347345
849.549	0.12314742
849.727	0.12288958
849.905	0.12249598
850.082	0.12221486
850.26	0.12187118
850.437	0.12155925
850.614	0.12130698
850.792	0.12108215
850.969	0.12076913
851.147	0.12053489
851.324	0.12025304
851.501	0.1200562
851.679	0.11973477
851.856	0.11952876
852.033	0.11921771
852.211	0.11887524
852.388	0.11860127
852.565	0.11823897
852.742	0.11786357
852.92	0.11764643
853.097	0.11723004
853.274	0.11692659
853.451	0.11673537
853.628	0.11635643
853.805	0.11619744
853.982	0.11588085
854.159	0.11555367
854.336	0.1153615
854.514	0.11499797
854.691	0.11471979
854.868	0.11440422
855.045	0.11400286
855.221	0.11372052
855.398	0.1133615
855.575	0.11300423
855.752	0.11278029
855.929	0.11243686
856.106	0.11218421
856.283	0.1118979
856.46	0.11165282
856.637	0.11144205
856.813	0.11130123
856.99	0.11094698
857.167	0.11069438
857.344	0.11051522
857.52	0.11022587
857.697	0.10990027
857.874	0.10959939
858.05	0.10914975
858.227	0.10894642
858.404	0.10858268
858.58	0.10824248
858.757	0.10796686
858.933	0.10773562
859.11	0.10754608
859.287	0.10726461
859.463	0.10698609
859.64	0.10676922
859.816	0.10643418
859.993	0.10613003
860.169	0.10578391
860.345	0.10541287
860.522	0.10514098
860.698	0.10474275
860.875	0.10447047
861.051	0.1041899
861.227	0.10391796
861.404	0.10375081
861.58	0.10352527
861.756	0.10329721
861.932	0.10312196
862.109	0.10282104
862.285	0.10255559
862.461	0.1022733
862.637	0.10193522
862.813	0.10159366
862.99	0.10123179
863.166	0.10092394
863.342	0.10062941
863.518	0.10029285
863.694	0.10007008
863.87	0.09972812
864.046	0.09946697
864.222	0.09924963
864.398	0.09902346
864.574	0.0988023
864.75	0.09859295
864.926	0.09835745
865.102	0.09810488
865.278	0.09779426
865.454	0.09749908
865.63	0.09705434
865.805	0.0967424
865.981	0.09649901
866.157	0.09623698
866.333	0.0959429
866.509	0.09574313
866.684	0.09552072
866.86	0.09538361
867.036	0.09511057
867.212	0.09491977
867.387	0.09466257
867.563	0.0945633
867.739	0.09423235
867.914	0.09394996
868.09	0.09364036
868.265	0.09340552
868.441	0.09301601
868.617	0.09269521
868.792	0.092245
868.968	0.09199386
869.143	0.09173889
869.319	0.09159065
869.494	0.09134509
869.67	0.09118778
869.845	0.0909654
870.02	0.09084679
870.196	0.09066061
870.371	0.09035082
870.546	0.0900001
870.722	0.08965994
870.897	0.08931131
871.072	0.08904294
871.248	0.08872235
871.423	0.08838408
871.598	0.08821002
871.773	0.08796464
871.949	0.0877054
872.124	0.08750714
872.299	0.0871541
872.474	0.08683285
872.649	0.08662603
872.824	0.08637034
872.999	0.08602349
873.174	0.08582039
873.349	0.08551085
873.524	0.08528001
873.699	0.08507096
873.874	0.08477558
874.049	0.08456135
874.224	0.08434868
874.399	0.0840932
874.574	0.08386407
874.749	0.08366315
874.924	0.08343467
875.099	0.08322177
875.274	0.08283378
875.449	0.0825832
875.623	0.08226123
875.798	0.08193101
875.973	0.08163437
876.148	0.08131805
876.322	0.08100883
876.497	0.08080429
876.672	0.08061455
876.846	0.08045996
877.021	0.08033953
877.196	0.08003808
877.37	0.07987646
877.545	0.07975619
877.72	0.07958493
877.894	0.07935836
878.069	0.07912794
878.243	0.0788391
878.418	0.07870224
878.592	0.07831043
878.767	0.07791953
878.941	0.07763392
879.116	0.07735075
879.29	0.07698315
879.464	0.07674423
879.639	0.07642428
879.813	0.07640737
879.987	0.07627696
880.162	0.07602464
880.336	0.07587258
880.51	0.07579359
880.685	0.07553922
880.859	0.07534643
881.033	0.07496797
881.207	0.07460322
881.381	0.07427744
881.556	0.07401994
881.73	0.07367788
881.904	0.07342954
882.078	0.07319567
882.252	0.07305937
882.426	0.0729949
882.6	0.0729192
882.774	0.07266489
882.948	0.07257644
883.122	0.0723266
883.296	0.0721395
883.47	0.07193067
883.644	0.07167438
883.818	0.07135127
883.992	0.07115037
884.166	0.07078848
884.34	0.07058031
884.514	0.07038635
884.687	0.07006883
884.861	0.06971113
885.035	0.06953704
885.209	0.06927931
885.382	0.06912846
885.556	0.06899581
885.73	0.06884776
885.904	0.0686648
886.077	0.0684884
886.251	0.06827912
886.425	0.06802402
886.598	0.06778407
886.772	0.06737609
886.945	0.0669659
887.119	0.06668504
887.292	0.06650438
887.466	0.06626165
887.64	0.06608196
887.813	0.06594534
887.986	0.06595214
888.16	0.06592842
888.333	0.06583553
888.507	0.06567375
888.68	0.06540685
888.854	0.065155
889.027	0.06482409
889.2	0.06448251
889.374	0.0640809
889.547	0.06371295
889.72	0.06340762
889.893	0.06317525
890.067	0.063002
890.24	0.06284136
890.413	0.0625346
890.586	0.06236503
890.759	0.06225872
890.933	0.06212262
891.106	0.06197699
891.279	0.06184918
891.452	0.06166244
891.625	0.06158007
891.798	0.06145707
891.971	0.0612541
892.144	0.06101523
892.317	0.06078516
892.49	0.06046272
892.663	0.06017357
892.836	0.05995844
893.009	0.05970273
893.182	0.05953881
893.355	0.0593121
893.527	0.05915327
893.7	0.05904255
893.873	0.05889212
894.046	0.05869369
894.219	0.05860749
894.391	0.05841892
894.564	0.0582532
894.737	0.0580093
894.91	0.05787074
895.082	0.05761151
895.255	0.05743311
895.428	0.05716458
895.6	0.05682019
895.773	0.05663277
895.945	0.05643691
896.118	0.05613647
896.291	0.0561941
896.463	0.05597915
896.636	0.05571756
896.808	0.05559928
896.981	0.05542454
897.153	0.05536004
897.326	0.05509559
897.498	0.05468498
897.67	0.05456701
897.843	0.05444785
898.015	0.05429529
898.187	0.05401757
898.36	0.05369641
898.532	0.05363367
898.704	0.05357384
898.877	0.05330883
899.049	0.05311731
899.221	0.05299721
899.393	0.05290865
899.566	0.05293058
899.738	0.05278095
899.91	0.05259152
900.082	0.05248124
900.254	0.05231915
900.426	0.05201925
900.598	0.05175926
900.77	0.05144405
900.942	0.05120843
901.114	0.05089677
901.286	0.0505009
901.458	0.05025687
901.63	0.05011576
901.802	0.04997072
901.974	0.04979303
902.146	0.04969675
902.318	0.04965764
902.49	0.04963545
902.662	0.04942032
902.834	0.0492581
903.005	0.04906941
903.177	0.04885056
903.349	0.0485927
903.521	0.04830174
903.693	0.04825232
903.864	0.0480998
904.036	0.04786657
904.208	0.04772886
904.379	0.0474584
904.551	0.04725734
904.723	0.04721486
904.894	0.04704558
905.066	0.04701294
905.237	0.0469915
905.409	0.04685316
905.58	0.0469052
905.752	0.0468307
905.923	0.04666314
906.095	0.04642552
906.266	0.04616359
906.438	0.04594481
906.609	0.04581464
906.78	0.04546794
906.952	0.04528982
907.123	0.04499591
907.295	0.04488844
907.466	0.04477665
907.637	0.04459582
907.808	0.04448089
907.98	0.0444983
908.151	0.0442867
908.322	0.04432923
908.493	0.04418824
908.665	0.04409616
908.836	0.04394742
909.007	0.04371559
909.178	0.04363884
909.349	0.04346256
909.52	0.04320916
909.691	0.04291033
909.862	0.0426282
910.033	0.04252709
910.204	0.04236291
910.375	0.0421189
910.546	0.04190057
910.717	0.04162437
910.888	0.04152334
911.059	0.04155166
911.23	0.04138581
911.401	0.04125457
911.572	0.04101949
911.742	0.04093048
911.913	0.04076417
912.084	0.04053075
912.255	0.04013038
912.426	0.03977561
912.596	0.03957363
912.767	0.03943857
912.938	0.03923176
913.108	0.03902244
913.279	0.03904499
913.45	0.03892669
913.62	0.03891422
913.791	0.03884826
913.962	0.038605
914.132	0.03869381
914.303	0.03876708
914.473	0.03854336
914.644	0.0385278
914.814	0.03846216
914.985	0.03815437
915.155	0.03816667
915.326	0.03772396
915.496	0.03755139
915.666	0.03742834
915.837	0.03723805
916.007	0.0370816
916.177	0.03708115
916.348	0.03691268
916.518	0.03706111
916.688	0.03697771
916.858	0.03683994
917.029	0.03665601
917.199	0.03651071
917.369	0.03632796
917.539	0.03612587
917.709	0.03587602
917.88	0.03560619
918.05	0.03546334
918.22	0.03520132
918.39	0.03493388
918.56	0.03482511
918.73	0.0347417
918.9	0.03460396
919.07	0.03453891
919.24	0.03439668
919.41	0.03450296
919.58	0.03440855
919.75	0.03430757
919.92	0.03429073
920.09	0.03415688
920.26	0.0339715
920.429	0.03381219
920.599	0.0336268
920.769	0.03355548
920.939	0.03340103
921.109	0.03308325
921.278	0.03299955
921.448	0.0329585
921.618	0.03272165
921.787	0.03256628
921.957	0.03234776
922.127	0.03213842
922.296	0.03210758
922.466	0.03187661
922.636	0.03167721
922.805	0.03168962
922.975	0.03160258
923.144	0.03153531
923.314	0.03150826
923.483	0.03148166
923.653	0.0313962
923.822	0.0313715
923.992	0.03120205
924.161	0.0310532
924.331	0.03092221
924.5	0.03079622
924.669	0.03055807
924.839	0.03045564
925.008	0.03032939
925.177	0.03026018
925.347	0.03028494
925.516	0.03031446
925.685	0.03034504
925.854	0.0303241
926.023	0.03020928
926.193	0.03004679
926.362	0.02991912
926.531	0.02977778
926.7	0.02956468
926.869	0.02933644
927.038	0.02903743
927.207	0.02906238
927.376	0.02893866
927.545	0.02890889
927.715	0.02868548
927.884	0.02870724
928.052	0.02857857
928.221	0.02864817
928.39	0.02842645
928.559	0.02832337
928.728	0.02805989
928.897	0.0280658
929.066	0.02781881
929.235	0.02771021
929.404	0.0277037
929.572	0.02767251
929.741	0.02758603
929.91	0.02773043
930.079	0.02759472
930.247	0.02755385
930.416	0.02754162
930.585	0.02729599
930.753	0.02718089
930.922	0.02721582
931.091	0.02697957
931.259	0.02685375
931.428	0.02694897
931.596	0.02675439
931.765	0.02666556
931.934	0.02667827
932.102	0.02648027
932.27	0.02652288
932.439	0.02634351
932.607	0.02612005
932.776	0.02600521
932.944	0.02591096
933.113	0.02569768
933.281	0.0256292
933.449	0.02545283
933.618	0.02559344
933.786	0.02558075
933.954	0.02557553
934.123	0.02570811
934.291	0.02556962
934.459	0.02543165
934.627	0.02537812
934.795	0.02516528
934.964	0.02507603
935.132	0.02499069
935.3	0.02475613
935.468	0.02473001
935.636	0.02466178
935.804	0.0246877
935.972	0.02471196
936.14	0.02475925
936.308	0.02495586
936.476	0.02475738
936.644	0.02500192
936.812	0.02511601
936.98	0.0251846
937.148	0.0253986
937.316	0.02532684
937.484	0.02558092
937.652	0.02568189
937.82	0.02542459
937.987	0.02557296
938.155	0.02594219
938.323	0.02575271
938.491	0.0256758
938.658	0.02532903
938.826	0.02554409
938.994	0.02560553
939.162	0.02567566
939.329	0.02521636
939.497	0.02550265
939.665	0.02533974
939.832	0.02495008
940	0.02567765
940.167	0.02652399
940.335	0.02718022
940.502	0.02749768
940.67	0.02747252
940.837	0.02792736
941.005	0.02862093
941.172	0.02886398
941.34	0.0284273
941.507	0.02806758
941.674	0.02744096
941.842	0.02721134
942.009	0.02830691
942.177	0.02813238
942.344	0.02700699
942.511	0.02755654
942.678	0.02738832
942.846	0.0282504
943.013	0.02882465
943.18	0.0278566
943.347	0.02839181
943.514	0.02935013
943.682	0.03047795
943.849	0.03127309
944.016	0.03157339
944.183	0.03121715
944.35	0.03146948
944.517	0.03093069
944.684	0.03163572
944.851	0.02944481
945.018	0.02934672
945.185	0.02900888
945.352	0.02930283
945.519	0.02877837
945.686	0.02972033
945.853	0.02796665
946.02	0.02884529
946.187	0.02788642
946.353	0.02782235
946.52	0.0278254
946.687	0.02740368
946.854	0.02688096
947.021	0.02801264
947.187	0.02774256
947.354	0.02744912
947.521	0.02747117
947.687	0.02727504
947.854	0.02822487
948.021	0.02848277
948.187	0.02783237
948.354	0.02691572
948.52	0.02708211
948.687	0.02677081
948.854	0.02752027
949.02	0.0269213
949.187	0.0264752
949.353	0.02652099
949.52	0.02665662
949.686	0.02703007
949.852	0.02652251
950.019	0.02564259
950.185	0.02491963
950.352	0.02386747
950.518	0.02299583
950.684	0.02295321
950.851	0.02230686
951.017	0.02268246
951.183	0.0222719
951.349	0.02283343
951.516	0.02325685
951.682	0.02316442
951.848	0.02310896
952.014	0.02256854
952.18	0.02254848
952.346	0.02223944
952.512	0.02143034
952.679	0.02103901
952.845	0.02098665
953.011	0.02109779
953.177	0.02134359
953.343	0.02106707
953.509	0.02138328
953.675	0.02111796
953.841	0.02138049
954.007	0.02141376
954.172	0.02107307
954.338	0.02100591
954.504	0.02038549
954.67	0.02001679
954.836	0.01972432
955.002	0.01921879
955.167	0.01928287
955.333	0.01864874
955.499	0.01792056
955.665	0.01806876
955.83	0.01786915
955.996	0.01830707
956.162	0.01815078
956.327	0.0175855
956.493	0.01782993
956.659	0.01800582
956.824	0.01747002
956.99	0.01700561
957.155	0.01662361
957.321	0.01664559
957.486	0.01654239
957.652	0.01606052
957.817	0.01585393
957.983	0.01564201
958.148	0.01621083
958.314	0.01618764
958.479	0.01570656
958.644	0.01599376
958.81	0.0164939
958.975	0.01651858
959.14	0.01678137
959.306	0.01620644
959.471	0.01633847
959.636	0.01651859
959.801	0.01605755
959.967	0.01557313
960.132	0.01546316
960.297	0.01535114
960.462	0.01577338
960.627	0.01552229
960.792	0.01532249
960.957	0.01538579
961.123	0.01516232
961.288	0.01514132
961.453	0.01478942
961.618	0.01459473
961.783	0.01440889
961.948	0.01454857
962.113	0.01459898
962.277	0.01472435
962.442	0.01440184
962.607	0.01458113
962.772	0.01419514
962.937	0.01414914
963.102	0.01376851
963.267	0.01360527
963.431	0.01346383
963.596	0.01384871
963.761	0.01392134
963.926	0.01385767
964.09	0.01433319
964.255	0.01454294
964.42	0.014588
964.584	0.01479521
964.749	0.014646
964.914	0.01440124
965.078	0.01428914
965.243	0.01377159
965.407	0.01375059
965.572	0.01330065
965.736	0.01302036
965.901	0.01288539
966.065	0.01270488
966.23	0.01300901
966.394	0.01299118
966.559	0.012987
966.723	0.01324068
966.887	0.01344346
967.052	0.01342987
967.216	0.01344132
967.38	0.01326122
967.545	0.01312854
967.709	0.01351836
967.873	0.01344008
968.037	0.01325546
968.202	0.01340002
968.366	0.01393313
968.53	0.01368529
968.694	0.01410321
968.858	0.01369578
969.022	0.01389314
969.187	0.01362503
969.351	0.01324613
969.515	0.01268549
969.679	0.01276604
969.843	0.01254612
970.007	0.01226318
970.171	0.01220631
970.335	0.01238682
970.499	0.0124779
970.662	0.01300449
970.826	0.0130333
970.99	0.01271926
971.154	0.01297253
971.318	0.01251875
971.482	0.01261983
971.645	0.01256831
971.809	0.01217101
971.973	0.01208969
972.137	0.01226901
972.3	0.01237904
972.464	0.01249519
972.628	0.0121591
972.791	0.01198631
972.955	0.01185828
973.119	0.01155833
973.282	0.01112061
973.446	0.01069349
973.609	0.01095381
973.773	0.01087023
973.936	0.01093512
974.1	0.0106542
974.263	0.01084603
974.427	0.01106944
974.59	0.01076325
974.754	0.01088392
974.917	0.01111737
975.08	0.01108825
975.244	0.01126265
975.407	0.01126106
975.57	0.01120118
975.734	0.01153287
975.897	0.01100014
976.06	0.01081406
976.223	0.01077109
976.387	0.0108498
976.55	0.01074873
976.713	0.01035847
976.876	0.00993405
977.039	0.00988031
977.202	0.00987031
977.365	0.00995722
977.528	0.00952163
977.692	0.00932236
977.855	0.00978965
978.018	0.01043199
978.181	0.01030341
978.344	0.01044674
978.506	0.0100713
978.669	0.01038214
978.832	0.01066846
978.995	0.01028193
979.158	0.00999352
979.321	0.00963123
979.484	0.00964951
979.646	0.01029249
979.809	0.01036655
979.972	0.010067
980.135	0.01026466
980.297	0.01014265
980.46	0.01087381
980.623	0.01039445
980.786	0.01007889
980.948	0.00986949
981.111	0.00968386
981.273	0.00979233
981.436	0.01002262
981.599	0.00967482
981.761	0.00998591
981.924	0.00982085
982.086	0.01010711
982.249	0.01034399
982.411	0.01039262
982.573	0.01002964
982.736	0.01025141
982.898	0.01024627
983.061	0.01046276
983.223	0.0106067
983.385	0.01086091
983.548	0.01046999
983.71	0.01075097
983.872	0.0110501
984.034	0.01086949
984.197	0.01076593
984.359	0.01052293
984.521	0.01062673
984.683	0.01121288
984.845	0.01118426
985.008	0.01095316
985.17	0.01113619
985.332	0.01108753
985.494	0.01067867
985.656	0.01017862
985.818	0.00939895
985.98	0.00912385
986.142	0.00877981
986.304	0.00867788
986.466	0.00827512
986.628	0.0081894
986.79	0.00881017
986.952	0.00929503
987.113	0.00929688
987.275	0.0092035
987.437	0.00921741
987.599	0.0095996
987.761	0.00983402
987.922	0.00943362
988.084	0.00978406
988.246	0.00968426
988.408	0.00994802
988.569	0.01030163
988.731	0.01056983
988.893	0.01033573
989.054	0.01049718
989.216	0.01004608
989.377	0.01032512
989.539	0.01059847
989.701	0.0100476
989.862	0.0095513
990.024	0.00946422
990.185	0.00913383
990.347	0.00901775
990.508	0.00932308
990.669	0.00936455
990.831	0.00936047
990.992	0.00930389
991.154	0.00969059
991.315	0.00959856
991.476	0.00993357
991.638	0.00946006
991.799	0.00888329
991.96	0.00895927
992.121	0.00928653
992.283	0.00937472
992.444	0.00997948
992.605	0.01002261
992.766	0.01018497
992.927	0.01051935
993.088	0.01060322
993.249	0.01082476
993.41	0.01054885
993.572	0.01010526
993.733	0.00993051
993.894	0.01013652
994.055	0.00989466
994.216	0.01031455
994.376	0.01030533
994.537	0.01036395
994.698	0.01071143
994.859	0.0096039
995.02	0.00918316
995.181	0.00902411
995.342	0.00855257
995.503	0.00835653
995.663	0.00874602
995.824	0.00890745
995.985	0.00957994
996.146	0.00921004
996.306	0.00931621
996.467	0.00934019
996.628	0.00925873
996.788	0.00917616
996.949	0.00917483
997.11	0.00927669
997.27	0.00911505
997.431	0.01002326
997.591	0.00962209
997.752	0.00987303
997.912	0.01061846
998.073	0.0093625
998.233	0.01012426
998.394	0.01095382
998.554	0.01059495
998.714	0.01172357
998.875	0.01118341
999.035	0.00966809
999.196	0.0106127
999.356	0.01000377
999.516	0.01024631
999.676	0.01056247
999.837	0.01036594
999.997	0.01022085
1000.157	0.01081089
1000.317	0.01045989
1000.477	0.01035426
1000.638	0.00969509
1000.798	0.00864783
1000.958	0.00774937
1001.118	0.00907055
1001.278	0.00953818
1001.438	0.0094354
1001.598	0.01104663
1001.758	0.01175637
1001.918	0.01260834
1002.078	0.01227743
1002.238	0.01150619
1002.398	0.01133048
1002.558	0.01217148
1002.718	0.01100519
1002.878	0.01080156
1003.037	0.0103419
1003.197	0.01120007
1003.357	0.01079228
1003.517	0.0111256
1003.677	0.01172998
1003.836	0.0121587
1003.996	0.01202374
1004.156	0.01224993
1004.315	0.01278318
1004.475	0.0129012
1004.635	0.01247425
1004.794	0.01172891
1004.954	0.01168471
1005.114	0.0122601
1005.273	0.0125894
1005.433	0.01137397
1005.592	0.01200105
1005.752	0.01196813
1005.911	0.01145749
1006.071	0.01056409
1006.23	0.00905203
1006.389	0.00863115
1006.549	0.00896479
1006.708	0.00996941
1006.868	0.01057406
1007.027	0.01026321
1007.186	0.01046109
1007.345	0.01170066
1007.505	0.01294633
1007.664	0.01351406
1007.823	0.01189031
1007.982	0.01217742
1008.142	0.01408189
1008.301	0.01467865
1008.46	0.01501158
1008.619	0.01334774
1008.778	0.01387983
1008.937	0.01429766
1009.096	0.01334021
1009.255	0.01230449
1009.414	0.01147601
1009.573	0.01072974
1009.732	0.01179575
1009.891	0.0116545
1010.05	0.0116571
1010.209	0.01132028
1010.368	0.01023215
1010.527	0.01105511
1010.686	0.01177653
1010.845	0.0110095
1011.003	0.01005609
1011.162	0.01101241
1011.321	0.01179293
1011.48	0.01365628
1011.638	0.01456988
1011.797	0.01389809
1011.956	0.01495131
1012.115	0.01559406
1012.273	0.01375458
1012.432	0.01417277
1012.59	0.0133222
1012.749	0.01139924
1012.908	0.01319267
1013.066	0.0126527
1013.225	0.01285747
1013.383	0.01531585
1013.542	0.0161184
1013.7	0.01874873
1013.859	0.02000571
1014.017	0.01946303
1014.175	0.02020422
1014.334	0.02264956
1014.492	0.02216404
1014.65	0.02017545
1014.809	0.01913104
1014.967	0.01875798
1015.125	0.01878976
1015.284	0.01899487
1015.442	0.01666558
1015.6	0.01897356
1015.758	0.01902165
1015.916	0.01955184
1016.075	0.01989332
1016.233	0.01984076
1016.391	0.01910422
1016.549	0.0208547
1016.707	0.0178459
1016.865	0.01893403
1017.023	0.01686187
1017.181	0.01556615
1017.339	0.01685926
1017.497	0.01633846
1017.655	0.01602784
1017.813	0.01525208
1017.971	0.01544392
1018.129	0.01611151
1018.286	0.01981339
1018.444	0.01722794
1018.602	0.01844324
1018.76	0.01604768
1018.918	0.01631617
1019.075	0.0177892
1019.233	0.01483335
1019.391	0.01276028
1019.549	0.01336099
1019.706	0.01288243
1019.864	0.01265697
1020.022	0.01306881
1020.179	0.01292434
1020.337	0.01520651
1020.494	0.0146066
1020.652	0.01513048
1020.809	0.01575778
1020.967	0.01662424
1021.124	0.02077258
1021.282	0.02223522
1021.439	0.02226707
1021.597	0.02280874
1021.754	0.02483059
1021.911	0.02533497
1022.069	0.02915711
1022.226	0.02362588
1022.384	0.01805169
1022.541	0.02000714
1022.698	0.02207182
1022.855	0.02137692
1023.013	0.02339197
1023.17	0.02442902
1023.327	0.02329951
1023.484	0.0272679
1023.641	0.02721533
1023.798	0.02790583
1023.956	0.02918417
1024.113	0.02954168
1024.27	0.02676506
1024.427	0.03022291
1024.584	0.02989323
1024.741	0.03117339
1024.898	0.02919537
1025.055	0.02777547
1025.212	0.02547992
1025.369	0.02569625
1025.525	0.0266726
1025.682	0.02674234
1025.839	0.0257976
1025.996	0.02693585
1026.153	0.02733794
1026.31	0.0309295
1026.466	0.03153058
1026.623	0.03154239
1026.78	0.03407666
1026.937	0.03350202
1027.093	0.03453277
1027.25	0.03546889
1027.407	0.02858661
1027.563	0.0324495
1027.72	0.03819822
1027.876	0.03718673
1028.033	0.0388713
1028.19	0.04002941
1028.346	0.04112753
1028.503	0.04499052
1028.659	0.04174567
1028.816	0.03688866
1028.972	0.03439407
1029.128	0.03605986
1029.285	0.02984057
1029.441	0.03048444
1029.598	0.03342193
1029.754	0.03485232
1029.91	0.03252812
1030.067	0.03950285
1030.223	0.03633675
1030.379	0.04079252
1030.535	0.04198868
1030.691	0.03745157
1030.848	0.03754936
1031.004	0.03650437
1031.16	0.0293756
1031.316	0.03332321
1031.472	0.03904822
1031.628	0.03457627
1031.784	0.03476641
1031.94	0.03792094
1032.096	0.04839274
1032.252	0.05337287
1032.408	0.05043512
1032.564	0.049817
1032.72	0.05323961
1032.876	0.05166443
1033.032	0.04717286
1033.188	0.04326723
1033.344	0.03918283
1033.5	0.03874201
1033.655	0.03247175
1033.811	0.02800781
1033.967	0.03097976
