Data from 0_1_mm_pl_40pc_Absorbance__0__17-51-16-566.txt Node

Date: Wed Mar 01 17:51:16 CET 2023
User: Ange
Spectrometer: FLMT08341
Trigger mode: 0
Integration Time (sec): 1.000000E-2
Scans to average: 400
Electric dark correction enabled: true
Nonlinearity correction enabled: false
Boxcar width: 3
XAxis mode: Wavelengths
Number of Pixels in Spectrum: 3648
>>>>>Begin Spectral Data<<<<<
345.271	-0.0073879
345.487	-0.0051819
345.704	-0.0136463
345.921	-0.02085267
346.137	-0.01496811
346.354	-0.01124796
346.571	-0.00337695
346.787	-0.01787687
347.004	0.00560054
347.22	-0.01349722
347.437	-0.11711975
347.653	-0.36839763
347.87	0.18554398
348.086	0.31755203
348.303	0.08513326
348.519	0.06354413
348.736	0.0633493
348.952	0.06979182
349.169	0.06615436
349.385	0.06948617
349.601	0.07080615
349.818	0.07003751
350.034	0.06742931
350.251	0.06974458
350.467	0.06879347
350.683	0.06769418
350.9	0.06949749
351.116	0.06774219
351.332	0.06804569
351.549	0.07076015
351.765	0.07338169
351.981	0.07277297
352.197	0.07484582
352.414	0.07678144
352.63	0.08078372
352.846	0.08281617
353.062	0.08223873
353.278	0.07783471
353.495	0.08021931
353.711	0.0809153
353.927	0.08011099
354.143	0.07819939
354.359	0.07769948
354.575	0.07701121
354.792	0.08077056
355.008	0.07865954
355.224	0.07722071
355.44	0.07682412
355.656	0.07709686
355.872	0.07783335
356.088	0.08135375
356.304	0.07880709
356.52	0.08113456
356.736	0.0806308
356.952	0.08132217
357.168	0.08028354
357.384	0.08055667
357.6	0.0790438
357.816	0.08204046
358.032	0.08229779
358.248	0.08496252
358.464	0.08470165
358.679	0.08655098
358.895	0.08675423
359.111	0.08716774
359.327	0.0848096
359.543	0.08589014
359.759	0.08657147
359.974	0.08682822
360.19	0.08719793
360.406	0.08736193
360.622	0.08768014
360.838	0.08754576
361.053	0.08789077
361.269	0.08828535
361.485	0.08816536
361.701	0.08828514
361.916	0.0869661
362.132	0.08693211
362.348	0.08842456
362.563	0.08702982
362.779	0.08642921
362.995	0.08802682
363.21	0.08881405
363.426	0.09025092
363.641	0.09176276
363.857	0.09306481
364.073	0.09381868
364.288	0.09402067
364.504	0.09390529
364.719	0.09392832
364.935	0.09414761
365.15	0.09355806
365.366	0.09313142
365.581	0.09439608
365.797	0.09496879
366.012	0.09574755
366.228	0.09471959
366.443	0.09495286
366.658	0.09569047
366.874	0.09498268
367.089	0.09550583
367.305	0.09633056
367.52	0.09598125
367.735	0.09612838
367.951	0.09587347
368.166	0.09553879
368.381	0.09702716
368.597	0.09569249
368.812	0.09627528
369.027	0.09636941
369.243	0.09814747
369.458	0.10026293
369.673	0.1013115
369.888	0.102429
370.104	0.10262825
370.319	0.10200726
370.534	0.1022229
370.749	0.10139425
370.964	0.10080443
371.179	0.10054597
371.395	0.09901807
371.61	0.0999989
371.825	0.0998098
372.04	0.10094088
372.255	0.10132626
372.47	0.10142453
372.685	0.10188571
372.9	0.10183503
373.115	0.10137668
373.33	0.10247294
373.545	0.10277528
373.76	0.10361821
373.975	0.10332326
374.19	0.1027415
374.405	0.10455293
374.62	0.10580502
374.835	0.10575316
375.05	0.10592925
375.265	0.10632295
375.48	0.10753597
375.695	0.1087991
375.91	0.1081176
376.125	0.10852421
376.339	0.10880764
376.554	0.10917096
376.769	0.10884923
376.984	0.10956096
377.199	0.11004223
377.414	0.1108468
377.628	0.11138505
377.843	0.11158279
378.058	0.11124328
378.273	0.11203586
378.487	0.11152436
378.702	0.11183854
378.917	0.11156971
379.131	0.11080666
379.346	0.11045251
379.561	0.11047317
379.775	0.11119924
379.99	0.11077155
380.205	0.11048078
380.419	0.11032052
380.634	0.10994146
380.848	0.11129777
381.063	0.11157965
381.278	0.1122098
381.492	0.11242537
381.707	0.11264356
381.921	0.1135037
382.136	0.11497719
382.35	0.11476248
382.565	0.11515461
382.779	0.1148922
382.994	0.11590629
383.208	0.11671274
383.422	0.11725131
383.637	0.11697058
383.851	0.11774283
384.066	0.11820757
384.28	0.11798438
384.494	0.11823751
384.709	0.11887784
384.923	0.11907588
385.137	0.11899136
385.352	0.11924749
385.566	0.11990871
385.78	0.12053648
385.995	0.12029046
386.209	0.11966296
386.423	0.12019554
386.637	0.12057128
386.852	0.12028918
387.066	0.12029449
387.28	0.12009345
387.494	0.12047201
387.708	0.12110143
387.923	0.12091845
388.137	0.12202897
388.351	0.12217633
388.565	0.12233215
388.779	0.12243305
388.993	0.12323341
389.207	0.12351694
389.421	0.12405894
389.635	0.12404943
389.85	0.12418103
390.064	0.12411301
390.278	0.12498587
390.492	0.12533633
390.706	0.12553606
390.92	0.1255677
391.134	0.12545789
391.348	0.1264492
391.561	0.1274355
391.775	0.12728926
391.989	0.12712993
392.203	0.12709933
392.417	0.12759015
392.631	0.12817364
392.845	0.12808816
393.059	0.12803696
393.273	0.1283041
393.486	0.12823334
393.7	0.12803473
393.914	0.12811117
394.128	0.1284899
394.342	0.12817656
394.555	0.1282157
394.769	0.12801988
394.983	0.12867784
395.197	0.12958289
395.41	0.12974806
395.624	0.1300015
395.838	0.13061724
396.051	0.13149333
396.265	0.1320858
396.479	0.13247061
396.692	0.13284405
396.906	0.13282654
397.12	0.13282759
397.333	0.13307093
397.547	0.13283659
397.76	0.13313388
397.974	0.13301672
398.187	0.1329843
398.401	0.13348105
398.614	0.13350221
398.828	0.13372425
399.041	0.13370369
399.255	0.13428078
399.468	0.13430216
399.682	0.1341643
399.895	0.13445596
400.109	0.13475385
400.322	0.13474974
400.536	0.13421145
400.749	0.13365595
400.962	0.13398514
401.176	0.13420364
401.389	0.13385649
401.602	0.13315356
401.816	0.13309734
402.029	0.1340521
402.242	0.13434958
402.456	0.13434947
402.669	0.13408241
402.882	0.13397578
403.095	0.13492864
403.309	0.13514655
403.522	0.13501474
403.735	0.1344639
403.948	0.13486023
404.161	0.13573576
404.375	0.13602009
404.588	0.13586005
404.801	0.13583525
405.014	0.13572692
405.227	0.13650257
405.44	0.13627494
405.653	0.13611117
405.866	0.13591346
406.079	0.13591886
406.293	0.13622745
406.506	0.13623838
406.719	0.13594535
406.932	0.1358815
407.145	0.13558923
407.358	0.13601051
407.571	0.13600078
407.784	0.13605355
407.996	0.13622651
408.209	0.13618078
408.422	0.13578299
408.635	0.1356253
408.848	0.13571457
409.061	0.13519197
409.274	0.13480775
409.487	0.13445483
409.7	0.13426873
409.912	0.13443924
410.125	0.13432717
410.338	0.13406881
410.551	0.13432668
410.764	0.13446854
410.976	0.13429035
411.189	0.1343146
411.402	0.13404531
411.615	0.13434369
411.827	0.13422386
412.04	0.13377655
412.253	0.13314962
412.465	0.13288301
412.678	0.13275347
412.891	0.13300416
413.103	0.13263148
413.316	0.13234392
413.529	0.13251534
413.741	0.13273925
413.954	0.13303285
414.166	0.13273748
414.379	0.1324406
414.591	0.13247105
414.804	0.13240266
415.016	0.13226082
415.229	0.13163212
415.441	0.13096948
415.654	0.1309511
415.866	0.13088037
416.079	0.13067544
416.291	0.13030572
416.504	0.12990692
416.716	0.13033688
416.928	0.1303775
417.141	0.12986692
417.353	0.1295991
417.566	0.1289642
417.778	0.12881713
417.99	0.12858767
418.203	0.12782414
418.415	0.12736728
418.627	0.12714006
418.839	0.12676737
419.052	0.12664889
419.264	0.12632224
419.476	0.1260818
419.688	0.12615585
419.901	0.12633102
420.113	0.12598016
420.325	0.12560119
420.537	0.1252725
420.749	0.12511666
420.961	0.12478659
421.174	0.12447859
421.386	0.12376734
421.598	0.12368828
421.81	0.12339138
422.022	0.12327475
422.234	0.12303336
422.446	0.1225413
422.658	0.12206352
422.87	0.12193935
423.082	0.12141095
423.294	0.12123121
423.506	0.12064782
423.718	0.12028927
423.93	0.12001817
424.142	0.11974562
424.354	0.11944261
424.566	0.11924405
424.778	0.11870252
424.99	0.11837023
425.202	0.11782319
425.414	0.11752412
425.625	0.11711014
425.837	0.11657788
426.049	0.11620195
426.261	0.11590521
426.473	0.11553154
426.684	0.11511437
426.896	0.11493134
427.108	0.11451408
427.32	0.11422857
427.531	0.11368296
427.743	0.11341011
427.955	0.11296945
428.167	0.11235498
428.378	0.11174265
428.59	0.11118553
428.802	0.11065125
429.013	0.11031603
429.225	0.10975231
429.436	0.10939265
429.648	0.10914344
429.86	0.10876075
430.071	0.10845487
430.283	0.10798004
430.494	0.10743796
430.706	0.10700912
430.917	0.10658744
431.129	0.10601737
431.34	0.10558314
431.552	0.10511323
431.763	0.10457106
431.975	0.10422633
432.186	0.10362542
432.398	0.10323409
432.609	0.1027417
432.821	0.10232964
433.032	0.10176458
433.243	0.10139067
433.455	0.10105923
433.666	0.10072545
433.877	0.1003519
434.089	0.09989473
434.3	0.09939284
434.511	0.09894229
434.723	0.09854799
434.934	0.09815622
435.145	0.09761905
435.356	0.09719423
435.568	0.09681337
435.779	0.09653708
435.99	0.09611717
436.201	0.09570868
436.412	0.09526933
436.624	0.09505232
436.835	0.0946487
437.046	0.09430879
437.257	0.09373113
437.468	0.09330813
437.679	0.09296301
437.89	0.09248709
438.101	0.09204792
438.312	0.09143152
438.523	0.0909308
438.734	0.09049027
438.945	0.09016352
439.156	0.08949954
439.367	0.08903841
439.578	0.08847541
439.789	0.08789375
440	0.08745073
440.211	0.08697791
440.422	0.08652294
440.633	0.08610312
440.844	0.08531547
441.055	0.084658
441.266	0.08410178
441.477	0.08359384
441.687	0.08295925
441.898	0.08238283
442.109	0.08180122
442.32	0.08143185
442.531	0.08106256
442.741	0.08054251
442.952	0.07988941
443.163	0.07935493
443.374	0.0786356
443.584	0.07813908
443.795	0.07755588
444.006	0.07687178
444.216	0.07651122
444.427	0.0759656
444.638	0.07543783
444.848	0.07500408
445.059	0.07441894
445.27	0.07394199
445.48	0.07342328
445.691	0.0728405
445.901	0.07236927
446.112	0.07195993
446.323	0.07127158
446.533	0.07089575
446.744	0.07027396
446.954	0.06982292
447.165	0.06931663
447.375	0.0688477
447.586	0.06843346
447.796	0.06803096
448.006	0.06755118
448.217	0.06720716
448.427	0.06679018
448.638	0.06629248
448.848	0.06576383
449.058	0.06512843
449.269	0.06473862
449.479	0.06415683
449.689	0.06360829
449.9	0.06310335
450.11	0.06259945
450.32	0.06233588
450.531	0.06189969
450.741	0.06135072
450.951	0.06090135
451.161	0.06035272
451.372	0.05975338
451.582	0.0594412
451.792	0.05889281
452.002	0.05842765
452.212	0.05813058
452.422	0.05767001
452.633	0.05743309
452.843	0.05713806
453.053	0.05665216
453.263	0.05612172
453.473	0.05560314
453.683	0.05527097
453.893	0.05488334
454.103	0.05443889
454.313	0.05400451
454.523	0.05351425
454.733	0.05317624
454.943	0.05287179
455.153	0.05236901
455.363	0.05191496
455.573	0.05142406
455.783	0.05105601
455.993	0.05058299
456.203	0.05022675
456.413	0.04979427
456.623	0.04938674
456.833	0.04898074
457.042	0.04853548
457.252	0.04814784
457.462	0.04779707
457.672	0.04737061
457.882	0.04702876
458.091	0.04663492
458.301	0.04622609
458.511	0.04588935
458.721	0.045456
458.931	0.04520176
459.14	0.04484871
459.35	0.04449082
459.56	0.04412813
459.769	0.04388871
459.979	0.04360439
460.189	0.04333556
460.398	0.04296353
460.608	0.04263967
460.817	0.0423051
461.027	0.0420052
461.237	0.04163145
461.446	0.04128974
461.656	0.04092735
461.865	0.04055195
462.075	0.04014429
462.284	0.03974552
462.494	0.03945007
462.703	0.03921426
462.913	0.03892576
463.122	0.0386341
463.332	0.03850195
463.541	0.03829924
463.751	0.03803468
463.96	0.03770416
464.169	0.03725177
464.379	0.03701449
464.588	0.03677976
464.797	0.03631554
465.007	0.03608702
465.216	0.03594836
465.425	0.03568119
465.635	0.03556101
465.844	0.03532231
466.053	0.03515926
466.263	0.03491344
466.472	0.03459079
466.681	0.03432891
466.89	0.03401602
467.099	0.03377987
467.309	0.03339504
467.518	0.03294158
467.727	0.03283262
467.936	0.03256737
468.145	0.03232578
468.354	0.03223344
468.563	0.03200867
468.772	0.03187634
468.982	0.0317343
469.191	0.03136935
469.4	0.03111711
469.609	0.03091446
469.818	0.03062404
470.027	0.0304031
470.236	0.0302008
470.445	0.02995715
470.654	0.02975628
470.863	0.02966721
471.072	0.02935579
471.28	0.0291262
471.489	0.02900445
471.698	0.02877156
471.907	0.02861246
472.116	0.02846947
472.325	0.02822179
472.534	0.02814347
472.743	0.02798326
472.951	0.02763334
473.16	0.02745386
473.369	0.02735506
473.578	0.02721864
473.786	0.02707492
473.995	0.02685772
474.204	0.02664297
474.413	0.02652362
474.621	0.02641936
474.83	0.02621909
475.039	0.02602867
475.247	0.02583048
475.456	0.02575002
475.665	0.02563679
475.873	0.02552288
476.082	0.02527699
476.291	0.02518637
476.499	0.02515799
476.708	0.0251714
476.916	0.02503692
477.125	0.02497862
477.333	0.02491901
477.542	0.02487852
477.75	0.02475227
477.959	0.02459088
478.167	0.0244159
478.376	0.02427105
478.584	0.02413014
478.793	0.02396071
479.001	0.02391234
479.209	0.02370369
479.418	0.0235507
479.626	0.02343557
479.834	0.02335354
480.043	0.0232822
480.251	0.02321316
480.459	0.0230685
480.668	0.02305434
480.876	0.02303675
481.084	0.02295461
481.293	0.02289923
481.501	0.02288204
481.709	0.02278698
481.917	0.02277798
482.125	0.02279518
482.334	0.02271564
482.542	0.02272435
482.75	0.02268585
482.958	0.02256956
483.166	0.02252357
483.374	0.02240713
483.583	0.0223468
483.791	0.0222855
483.999	0.02213663
484.207	0.02211502
484.415	0.02209282
484.623	0.02206346
484.831	0.02210398
485.039	0.02206708
485.247	0.02204182
485.455	0.02205248
485.663	0.02189219
485.871	0.02182426
486.079	0.02183764
486.287	0.02172681
486.495	0.02162402
486.702	0.02159436
486.91	0.02155473
487.118	0.02161773
487.326	0.02160227
487.534	0.02159319
487.742	0.02162881
487.95	0.02162433
488.157	0.0216004
488.365	0.02160543
488.573	0.02160609
488.781	0.02162278
488.988	0.02161684
489.196	0.02159582
489.404	0.02163715
489.612	0.02168682
489.819	0.02170829
490.027	0.02169227
490.235	0.02171093
490.442	0.02167441
490.65	0.02167092
490.857	0.02164607
491.065	0.02159964
491.273	0.02160915
491.48	0.02156251
491.688	0.02154384
491.895	0.0215034
492.103	0.02150189
492.31	0.02150931
492.518	0.02152291
492.725	0.02148721
492.933	0.02158454
493.14	0.02156003
493.348	0.02160214
493.555	0.02164417
493.763	0.02166859
493.97	0.02166882
494.177	0.02173613
494.385	0.02172862
494.592	0.02176649
494.8	0.02181209
495.007	0.02182989
495.214	0.02189709
495.422	0.02194333
495.629	0.02195684
495.836	0.02205473
496.043	0.02214751
496.251	0.02223489
496.458	0.02230827
496.665	0.02231038
496.872	0.02241537
497.08	0.02246774
497.287	0.02247183
497.494	0.02251782
497.701	0.02251164
497.908	0.02247955
498.115	0.02257103
498.322	0.02258844
498.53	0.02264234
498.737	0.02272945
498.944	0.02280489
499.151	0.02287091
499.358	0.0229913
499.565	0.02301847
499.772	0.0230636
499.979	0.02313774
500.186	0.02321943
500.393	0.02324562
500.6	0.02337221
500.807	0.02348547
501.014	0.0236356
501.221	0.02377057
501.427	0.02386504
501.634	0.02387562
501.841	0.02394701
502.048	0.02397986
502.255	0.02400026
502.462	0.02399579
502.669	0.02405976
502.875	0.02416068
503.082	0.0241934
503.289	0.02428628
503.496	0.02435756
503.702	0.02444157
503.909	0.02452635
504.116	0.0245632
504.323	0.0246013
504.529	0.02475638
504.736	0.02482026
504.943	0.02495315
505.149	0.02499718
505.356	0.02507856
505.563	0.02521871
505.769	0.02538744
505.976	0.02545009
506.182	0.02555985
506.389	0.02557106
506.595	0.02570945
506.802	0.02579571
507.008	0.02588279
507.215	0.02595079
507.421	0.02604214
507.628	0.02617911
507.834	0.02633719
508.041	0.02639662
508.247	0.02652079
508.454	0.02655754
508.66	0.02660896
508.866	0.02675795
509.073	0.02683746
509.279	0.02692019
509.486	0.02707717
509.692	0.0272359
509.898	0.02739015
510.105	0.02749113
510.311	0.02756759
510.517	0.02762359
510.723	0.02775877
510.93	0.02783988
511.136	0.0279343
511.342	0.02803116
511.548	0.02816621
511.754	0.02834025
511.961	0.02851881
512.167	0.02861997
512.373	0.02879439
512.579	0.02891416
512.785	0.02905752
512.991	0.02916134
513.197	0.02926167
513.404	0.02936207
513.61	0.02950558
513.816	0.02957557
514.022	0.02971313
514.228	0.02983474
514.434	0.02997303
514.64	0.03005159
514.846	0.03015903
515.052	0.03030485
515.258	0.0304493
515.464	0.03054954
515.669	0.03064299
515.875	0.03075624
516.081	0.03091196
516.287	0.03110455
516.493	0.03121864
516.699	0.0313714
516.905	0.03148276
517.111	0.03161597
517.316	0.03178852
517.522	0.0319642
517.728	0.03212476
517.934	0.0322831
518.139	0.03244054
518.345	0.03264168
518.551	0.03285584
518.757	0.03300644
518.962	0.03313734
519.168	0.03323044
519.374	0.03334566
519.579	0.03347226
519.785	0.03363324
519.991	0.03380682
520.196	0.03390111
520.402	0.03405695
520.607	0.03425805
520.813	0.03442101
521.018	0.03460533
521.224	0.03471248
521.429	0.03486169
521.635	0.03510307
521.84	0.03523784
522.046	0.03538246
522.251	0.0355254
522.457	0.03562173
522.662	0.03579449
522.868	0.03591183
523.073	0.03603921
523.279	0.03621286
523.484	0.03633926
523.689	0.03648773
523.895	0.03675442
524.1	0.03694365
524.305	0.0370886
524.511	0.03729034
524.716	0.03746744
524.921	0.03768837
525.126	0.03789619
525.332	0.03806935
525.537	0.03824782
525.742	0.03848312
525.947	0.03863747
526.153	0.03882002
526.358	0.03905058
526.563	0.03932985
526.768	0.03947456
526.973	0.03963127
527.178	0.03982426
527.383	0.03998903
527.588	0.04013521
527.794	0.04024774
527.999	0.04031959
528.204	0.04045092
528.409	0.0406083
528.614	0.0407941
528.819	0.04100808
529.024	0.0412031
529.229	0.04142698
529.434	0.04166847
529.639	0.04191708
529.843	0.04213207
530.048	0.04229587
530.253	0.04249474
530.458	0.04274406
530.663	0.04291644
530.868	0.04305479
531.073	0.04322994
531.278	0.04344228
531.482	0.04365849
531.687	0.0438678
531.892	0.04404476
532.097	0.04423444
532.302	0.04443573
532.506	0.04464369
532.711	0.04480802
532.916	0.04502036
533.12	0.04521432
533.325	0.04541223
533.53	0.04564797
533.734	0.0459283
533.939	0.04616888
534.144	0.04648773
534.348	0.04669992
534.553	0.04692922
534.757	0.04716969
534.962	0.04740435
535.167	0.04759569
535.371	0.04778675
535.576	0.04794764
535.78	0.04817295
535.985	0.04841232
536.189	0.04863764
536.394	0.04881654
536.598	0.04905729
536.803	0.04929661
537.007	0.04950281
537.211	0.04970498
537.416	0.04987318
537.62	0.05006568
537.825	0.05029722
538.029	0.05052499
538.233	0.05075338
538.438	0.05098993
538.642	0.05126703
538.846	0.05152723
539.05	0.05170254
539.255	0.05193479
539.459	0.05213692
539.663	0.0523673
539.867	0.0526069
540.072	0.0528458
540.276	0.05307196
540.48	0.05338939
540.684	0.05365805
540.888	0.05395841
541.092	0.05423035
541.297	0.05452858
541.501	0.05473666
541.705	0.05497207
541.909	0.05516512
542.113	0.05538411
542.317	0.05558336
542.521	0.05582741
542.725	0.055979
542.929	0.05619575
543.133	0.05648364
543.337	0.05677687
543.541	0.05702758
543.745	0.05721768
543.949	0.05746686
544.153	0.05775173
544.357	0.05804271
544.56	0.05822828
544.764	0.05846728
544.968	0.05868718
545.172	0.05894886
545.376	0.05918094
545.58	0.05942923
545.783	0.05971607
545.987	0.05998333
546.191	0.06018144
546.395	0.06046905
546.598	0.06080308
546.802	0.0610606
547.006	0.0613231
547.21	0.06145961
547.413	0.06174118
547.617	0.06208565
547.821	0.06230722
548.024	0.06252599
548.228	0.06266803
548.431	0.06287888
548.635	0.0631637
548.839	0.06335184
549.042	0.06359331
549.246	0.06388493
549.449	0.06414023
549.653	0.06449221
549.856	0.06479059
550.06	0.0650727
550.263	0.06541722
550.467	0.06564318
550.67	0.06590692
550.874	0.066185
551.077	0.06644754
551.28	0.06678797
551.484	0.06705148
551.687	0.06725186
551.891	0.06757276
552.094	0.06779201
552.297	0.06806967
552.501	0.06837381
552.704	0.06855408
552.907	0.06884531
553.11	0.06916732
553.314	0.06942974
553.517	0.06972027
553.72	0.06999104
553.923	0.07025519
554.127	0.0704922
554.33	0.07071989
554.533	0.07098029
554.736	0.07121126
554.939	0.07152097
555.142	0.07177216
555.345	0.07203907
555.549	0.07237198
555.752	0.0726982
555.955	0.0729717
556.158	0.07328481
556.361	0.07354948
556.564	0.07385577
556.767	0.07415336
556.97	0.07442268
557.173	0.07472301
557.376	0.0750811
557.579	0.07536942
557.782	0.07568499
557.984	0.07598727
558.187	0.07627563
558.39	0.07659057
558.593	0.07687137
558.796	0.07710302
558.999	0.07736049
559.202	0.07760328
559.404	0.07785153
559.607	0.07808712
559.81	0.07840588
560.013	0.07870178
560.216	0.07898941
560.418	0.07929153
560.621	0.07962646
560.824	0.07991545
561.026	0.08026603
561.229	0.08053693
561.432	0.08084459
561.634	0.08116012
561.837	0.08146398
562.04	0.08172212
562.242	0.0820538
562.445	0.08230323
562.647	0.08258793
562.85	0.08283252
563.053	0.08315675
563.255	0.08346812
563.458	0.08381469
563.66	0.08410822
563.863	0.08444179
564.065	0.08467491
564.268	0.08498034
564.47	0.08522747
564.672	0.0854483
564.875	0.08564204
565.077	0.08588902
565.28	0.08616003
565.482	0.08650611
565.684	0.08679575
565.887	0.08704181
566.089	0.08737918
566.291	0.08772049
566.494	0.0880562
566.696	0.08841219
566.898	0.0887608
567.1	0.08905615
567.303	0.08937859
567.505	0.0896776
567.707	0.08990277
567.909	0.09017174
568.111	0.09038979
568.314	0.09064947
568.516	0.09092939
568.718	0.09118593
568.92	0.09149711
569.122	0.09186971
569.324	0.09215002
569.526	0.09241795
569.728	0.09269515
569.93	0.09298209
570.132	0.0933423
570.334	0.0936513
570.536	0.09391788
570.738	0.09420587
570.94	0.09450773
571.142	0.09481425
571.344	0.09509173
571.546	0.0953462
571.748	0.09562568
571.95	0.09590186
572.152	0.09624611
572.354	0.09657008
572.555	0.09684472
572.757	0.0971804
572.959	0.09748804
573.161	0.0977521
573.363	0.09799028
573.564	0.09829396
573.766	0.09855849
573.968	0.09884882
574.17	0.09912832
574.371	0.09941436
574.573	0.09971002
574.775	0.10002251
574.976	0.10025325
575.178	0.1005108
575.38	0.10079354
575.581	0.10105658
575.783	0.10131082
575.985	0.10158606
576.186	0.10189871
576.388	0.10218162
576.589	0.10249979
576.791	0.10283027
576.992	0.10315347
577.194	0.10348177
577.395	0.10377482
577.597	0.10407351
577.798	0.10440264
578	0.10467809
578.201	0.10496851
578.402	0.10524617
578.604	0.10550885
578.805	0.1058016
579.007	0.10611223
579.208	0.10641894
579.409	0.106668
579.611	0.10693582
579.812	0.10729251
580.013	0.10760913
580.215	0.10785961
580.416	0.10818745
580.617	0.10845002
580.818	0.10880249
581.019	0.10905996
581.221	0.10926972
581.422	0.10959625
581.623	0.10994009
581.824	0.11014745
582.025	0.11040783
582.226	0.11067578
582.428	0.11101301
582.629	0.11126317
582.83	0.11146071
583.031	0.11166527
583.232	0.11198913
583.433	0.11228158
583.634	0.11254012
583.835	0.11275354
584.036	0.1130394
584.237	0.11334085
584.438	0.11368496
584.639	0.1139308
584.84	0.11418895
585.041	0.11445699
585.242	0.11472939
585.442	0.11496521
585.643	0.11527922
585.844	0.11550384
586.045	0.1157803
586.246	0.11606453
586.447	0.11634003
586.647	0.11659651
586.848	0.1168518
587.049	0.11705266
587.25	0.11732493
587.45	0.11758766
587.651	0.11781759
587.852	0.11807911
588.053	0.11838813
588.253	0.11874614
588.454	0.11902532
588.655	0.11928753
588.855	0.11947887
589.056	0.11974345
589.256	0.1200027
589.457	0.1202277
589.658	0.12043356
589.858	0.12065938
590.059	0.12094598
590.259	0.12126215
590.46	0.12148684
590.66	0.12175593
590.861	0.12201186
591.061	0.1222089
591.262	0.12248569
591.462	0.122675
591.662	0.12289987
591.863	0.12310435
592.063	0.12327998
592.264	0.12353191
592.464	0.12373705
592.664	0.12395861
592.865	0.12425855
593.065	0.12442444
593.265	0.12472142
593.465	0.12492976
593.666	0.12512653
593.866	0.12538862
594.066	0.12560381
594.266	0.12572685
594.467	0.12601302
594.667	0.12623379
594.867	0.12659292
595.067	0.12681004
595.267	0.12701106
595.467	0.12722592
595.668	0.12747499
595.868	0.12768714
596.068	0.12786108
596.268	0.12798169
596.468	0.12822512
596.668	0.12844672
596.868	0.12866561
597.068	0.12890505
597.268	0.12913497
597.468	0.12937446
597.668	0.12962493
597.868	0.12982801
598.068	0.13006295
598.268	0.1302826
598.467	0.13051842
598.667	0.13067094
598.867	0.13082731
599.067	0.13098939
599.267	0.1311807
599.467	0.13140937
599.667	0.13159563
599.866	0.13171189
600.066	0.13191521
600.266	0.13208727
600.466	0.13232808
600.665	0.1324811
600.865	0.13263706
601.065	0.13283848
601.264	0.13307714
601.464	0.13323148
601.664	0.13349227
601.863	0.13363737
602.063	0.13381171
602.263	0.1339473
602.462	0.13415538
602.662	0.13434003
602.861	0.13459366
603.061	0.13479039
603.26	0.13498887
603.46	0.13518837
603.659	0.13540116
603.859	0.13553549
604.058	0.13566962
604.258	0.13585153
604.457	0.13603732
604.657	0.13610038
604.856	0.13616925
605.056	0.13630054
605.255	0.13637433
605.454	0.13653897
605.654	0.13660989
605.853	0.13670276
606.052	0.13690547
606.252	0.1371769
606.451	0.13739693
606.65	0.13763888
606.849	0.13775108
607.049	0.13796421
607.248	0.13810885
607.447	0.13828464
607.646	0.13841979
607.845	0.13856888
608.045	0.13865257
608.244	0.13887257
608.443	0.13898311
608.642	0.13919134
608.841	0.13931965
609.04	0.13938192
609.239	0.13950151
609.438	0.13962908
609.637	0.13975051
609.836	0.13990582
610.035	0.13996084
610.234	0.14013677
610.433	0.1403085
610.632	0.14043618
610.831	0.14064318
611.03	0.14073716
611.229	0.14094083
611.428	0.14114172
611.627	0.14127913
611.826	0.14143618
612.025	0.14163416
612.224	0.14173076
612.422	0.14193377
612.621	0.14203671
612.82	0.1421436
613.019	0.14218568
613.218	0.14227154
613.416	0.14229528
613.615	0.14247474
613.814	0.14257103
614.012	0.14267866
614.211	0.14270085
614.41	0.14285892
614.608	0.14301572
614.807	0.14314578
615.006	0.14327754
615.204	0.14333327
615.403	0.14339907
615.602	0.14355342
615.8	0.14372379
615.999	0.14373567
616.197	0.14384027
616.396	0.14395542
616.594	0.14405674
616.793	0.14417845
616.991	0.14427307
617.19	0.14424133
617.388	0.14443455
617.586	0.14452921
617.785	0.1445057
617.983	0.14455415
618.182	0.14455841
618.38	0.14454108
618.578	0.14467894
618.777	0.14476331
618.975	0.14481616
619.173	0.14492575
619.372	0.14501213
619.57	0.14508726
619.768	0.14520488
619.966	0.14526383
620.165	0.14528983
620.363	0.14539109
620.561	0.14536605
620.759	0.14541551
620.957	0.14554828
621.155	0.14568347
621.354	0.1457134
621.552	0.14586678
621.75	0.14589927
621.948	0.14610742
622.146	0.14625831
622.344	0.14630073
622.542	0.14637668
622.74	0.14646561
622.938	0.14638783
623.136	0.14649623
623.334	0.14652182
623.532	0.14645007
623.73	0.14648551
623.928	0.14657441
624.126	0.14663436
624.324	0.14678842
624.522	0.14676715
624.719	0.14683204
624.917	0.14700535
625.115	0.14704075
625.313	0.1470927
625.511	0.14718691
625.708	0.14713714
625.906	0.14723066
626.104	0.14721559
626.302	0.1472646
626.499	0.14735122
626.697	0.14734059
626.895	0.14730229
627.093	0.14733537
627.29	0.14736554
627.488	0.1474145
627.686	0.14741428
627.883	0.14734663
628.081	0.14729184
628.278	0.14742992
628.476	0.14745886
628.673	0.14749473
628.871	0.14750004
629.068	0.14756123
629.266	0.14769097
629.463	0.14777047
629.661	0.14775523
629.858	0.14782655
630.056	0.14783072
630.253	0.14788628
630.451	0.14792656
630.648	0.14796645
630.845	0.1479695
631.043	0.14796666
631.24	0.14802251
631.438	0.14806633
631.635	0.14807699
631.832	0.14802169
632.029	0.1480066
632.227	0.14807814
632.424	0.14813161
632.621	0.14810319
632.818	0.14805015
633.016	0.14806049
633.213	0.14799942
633.41	0.14801737
633.607	0.14798344
633.804	0.1479402
634.001	0.14791157
634.199	0.14798417
634.396	0.14795888
634.593	0.14799793
634.79	0.14805695
634.987	0.14808131
635.184	0.14809484
635.381	0.14817028
635.578	0.14818534
635.775	0.14825434
635.972	0.14832549
636.169	0.14828087
636.366	0.14824547
636.563	0.14821108
636.76	0.14805817
636.957	0.14798195
637.153	0.14784289
637.35	0.14777403
637.547	0.14770893
637.744	0.14771734
637.941	0.1477237
638.138	0.1478645
638.334	0.14785731
638.531	0.14790542
638.728	0.14791933
638.925	0.14796372
639.121	0.14792897
639.318	0.14790036
639.515	0.14779371
639.711	0.14781212
639.908	0.14776524
640.105	0.14773929
640.301	0.14768817
640.498	0.14767911
640.695	0.14771573
640.891	0.14768889
641.088	0.14766386
641.284	0.14768526
641.481	0.14763297
641.677	0.14757507
641.874	0.14748513
642.07	0.1474211
642.267	0.14746814
642.463	0.1473967
642.66	0.14736883
642.856	0.1473201
643.053	0.14728998
643.249	0.14730923
643.445	0.14725631
643.642	0.14716044
643.838	0.14718012
644.034	0.14710524
644.231	0.14706537
644.427	0.14707007
644.623	0.14703536
644.82	0.14704744
645.016	0.14699674
645.212	0.14689842
645.408	0.14692501
645.604	0.14699167
645.801	0.14698484
645.997	0.14697153
646.193	0.14688995
646.389	0.14696185
646.585	0.14701406
646.781	0.14701206
646.977	0.14691308
647.173	0.14680934
647.37	0.14669407
647.566	0.146661
647.762	0.14654979
647.958	0.14648064
648.154	0.14631347
648.35	0.14625137
648.546	0.14621857
648.742	0.14630486
648.937	0.14621295
649.133	0.1462111
649.329	0.1462369
649.525	0.14630116
649.721	0.14624738
649.917	0.14626278
650.113	0.14611193
650.309	0.14615124
650.504	0.14604807
650.7	0.14591848
650.896	0.14583635
651.092	0.14580743
651.287	0.14571236
651.483	0.14577589
651.679	0.14565341
651.875	0.14564748
652.07	0.14559278
652.266	0.14554571
652.462	0.14552383
652.657	0.14549021
652.853	0.1453486
653.048	0.14532044
653.244	0.14519696
653.44	0.14508875
653.635	0.14494368
653.831	0.14489318
654.026	0.14481304
654.222	0.14477773
654.417	0.1447657
654.613	0.14478193
654.808	0.14479271
655.004	0.14484526
655.199	0.14476534
655.394	0.14470193
655.59	0.14470983
655.785	0.1446565
655.98	0.14461363
656.176	0.14451253
656.371	0.14448074
656.566	0.14444264
656.762	0.14435786
656.957	0.14426871
657.152	0.14418174
657.348	0.14412343
657.543	0.14412371
657.738	0.14406743
657.933	0.14396572
658.128	0.14394228
658.324	0.14383232
658.519	0.14372908
658.714	0.1435822
658.909	0.14341002
659.104	0.14328113
659.299	0.14321486
659.494	0.14309199
659.689	0.1430482
659.884	0.14303977
660.079	0.14297802
660.274	0.14296637
660.469	0.14289802
660.664	0.14290308
660.859	0.14292258
661.054	0.14282665
661.249	0.14276022
661.444	0.14276946
661.639	0.1427403
661.834	0.14270414
662.029	0.14264761
662.224	0.14257621
662.418	0.14260503
662.613	0.14254831
662.808	0.14245772
663.003	0.14237897
663.198	0.14227643
663.392	0.14217062
663.587	0.14216096
663.782	0.14202075
663.977	0.14198407
664.171	0.14194394
664.366	0.14192058
664.561	0.141939
664.755	0.14197273
664.95	0.14191413
665.144	0.14191709
665.339	0.14186026
665.534	0.14184955
665.728	0.1418423
665.923	0.1418034
666.117	0.14171752
666.312	0.1416387
666.506	0.14159823
666.701	0.1414869
666.895	0.14137018
667.09	0.14129879
667.284	0.14124994
667.479	0.14116689
667.673	0.14108374
667.867	0.14099432
668.062	0.14094933
668.256	0.1408757
668.45	0.14076825
668.645	0.14068137
668.839	0.14066036
669.033	0.14064646
669.228	0.14060537
669.422	0.140563
669.616	0.14049753
669.81	0.14045092
670.004	0.14033043
670.199	0.14019846
670.393	0.14006289
670.587	0.14000512
670.781	0.13997139
670.975	0.13998204
671.169	0.13992716
671.363	0.13989314
671.558	0.13990574
671.752	0.1399562
671.946	0.13993213
672.14	0.13992845
672.334	0.13986678
672.528	0.13990855
672.722	0.13989011
672.916	0.13983472
673.11	0.13968731
673.304	0.13966595
673.497	0.13950739
673.691	0.13944279
673.885	0.13928764
674.079	0.13922956
674.273	0.13918355
674.467	0.1392169
674.661	0.13913741
674.854	0.13915275
675.048	0.13915791
675.242	0.13918419
675.436	0.13917209
675.629	0.13914344
675.823	0.13904693
676.017	0.13901994
676.211	0.13891913
676.404	0.13885015
676.598	0.1387939
676.792	0.13875374
676.985	0.13870536
677.179	0.13870167
677.372	0.13861112
677.566	0.13870868
677.76	0.13870013
677.953	0.13867399
678.147	0.13867139
678.34	0.13868732
678.534	0.13862575
678.727	0.1386882
678.921	0.13863731
679.114	0.13854047
679.307	0.13849816
679.501	0.13849732
679.694	0.13845752
679.888	0.13846115
680.081	0.13838445
680.274	0.13834753
680.468	0.13840567
680.661	0.13838638
680.854	0.13835845
681.048	0.13834858
681.241	0.13832306
681.434	0.13828384
681.627	0.13822247
681.821	0.13817342
682.014	0.13820519
682.207	0.13810296
682.4	0.13796046
682.593	0.13792822
682.786	0.13790214
682.98	0.13789374
683.173	0.13787831
683.366	0.13776176
683.559	0.13769683
683.752	0.13774431
683.945	0.13771077
684.138	0.13774365
684.331	0.13766725
684.524	0.13768521
684.717	0.13766131
684.91	0.13773405
685.103	0.13770864
685.296	0.13774327
685.489	0.13770025
685.682	0.13768101
685.874	0.13756877
686.067	0.13753958
686.26	0.13748881
686.453	0.13747104
686.646	0.13737472
686.839	0.13734069
687.031	0.13735008
687.224	0.13733567
687.417	0.1373758
687.61	0.13731593
687.802	0.13727565
687.995	0.13733567
688.188	0.13735918
688.38	0.13735896
688.573	0.13742539
688.766	0.13741984
688.958	0.13744696
689.151	0.13741666
689.343	0.13738235
689.536	0.13733406
689.729	0.13731278
689.921	0.13727428
690.114	0.1372178
690.306	0.13720967
690.499	0.1372828
690.691	0.13731322
690.884	0.13730517
691.076	0.137357
691.268	0.13729039
691.461	0.13728787
691.653	0.13731633
691.846	0.13733109
692.038	0.13733274
692.23	0.13734139
692.423	0.13737487
692.615	0.13739602
692.807	0.13741453
692.999	0.13744116
693.192	0.13739392
693.384	0.13737792
693.576	0.1373706
693.768	0.13732501
693.961	0.1373127
694.153	0.13736689
694.345	0.137338
694.537	0.13737564
694.729	0.13733228
694.921	0.13729315
695.113	0.13729038
695.305	0.13735279
695.498	0.13726438
695.69	0.13725763
695.882	0.13722152
696.074	0.13727133
696.266	0.1373085
696.458	0.13728698
696.65	0.13734545
696.842	0.13743971
697.033	0.13743456
697.225	0.13743497
697.417	0.13748033
697.609	0.13755077
697.801	0.13762115
697.993	0.13764156
698.185	0.13764312
698.376	0.13771956
698.568	0.13772777
698.76	0.13772272
698.952	0.1377318
699.144	0.1377197
699.335	0.13768104
699.527	0.1376823
699.719	0.13766559
699.91	0.13772672
700.102	0.13768231
700.294	0.13763514
700.485	0.13768512
700.677	0.13769098
700.869	0.13772993
701.06	0.13779412
701.252	0.13780959
701.443	0.13784483
701.635	0.13789465
701.826	0.13786661
702.018	0.13794035
702.209	0.13796263
702.401	0.13796873
702.592	0.13797515
702.784	0.13803083
702.975	0.13810456
703.166	0.13817048
703.358	0.13813096
703.549	0.13815817
703.741	0.138212
703.932	0.13830896
704.123	0.13836113
704.315	0.13838148
704.506	0.13839829
704.697	0.13839556
704.888	0.13833701
705.08	0.13826048
705.271	0.13826902
705.462	0.13825232
705.653	0.13826141
705.844	0.13827234
706.035	0.13839415
706.227	0.13846359
706.418	0.13860653
706.609	0.13857156
706.8	0.13861346
706.991	0.13862844
707.182	0.13869288
707.373	0.13863673
707.564	0.13875043
707.755	0.13873051
707.946	0.1388382
708.137	0.13886546
708.328	0.13892116
708.519	0.13890078
708.71	0.13900371
708.901	0.13897702
709.092	0.13899128
709.283	0.13897797
709.473	0.13903929
709.664	0.13905859
709.855	0.13913817
710.046	0.13916477
710.237	0.13925846
710.427	0.13935507
710.618	0.13944467
710.809	0.13948969
711	0.13956866
711.19	0.13962115
711.381	0.13972272
711.572	0.13971356
711.762	0.13977132
711.953	0.13976834
712.144	0.13980118
712.334	0.13981106
712.525	0.139857
712.715	0.13982803
712.906	0.13994547
713.097	0.1398993
713.287	0.13990648
713.478	0.13996305
713.668	0.14004127
713.859	0.14005187
714.049	0.14007076
714.239	0.1400516
714.43	0.14005999
714.62	0.14011705
714.811	0.14007615
715.001	0.14008493
715.191	0.14014845
715.382	0.14016083
715.572	0.14022734
715.762	0.14032148
715.953	0.14042476
716.143	0.14055389
716.333	0.14062792
716.523	0.14073512
716.714	0.14092609
716.904	0.14098904
717.094	0.14110007
717.284	0.14113782
717.474	0.14122301
717.664	0.14128844
717.855	0.14130119
718.045	0.14126855
718.235	0.14128572
718.425	0.14134842
718.615	0.14134663
718.805	0.14135091
718.995	0.14138944
719.185	0.14149108
719.375	0.14157411
719.565	0.14169566
719.755	0.14177274
719.945	0.14191403
720.135	0.14203538
720.325	0.14209788
720.515	0.14214384
720.704	0.14226145
720.894	0.14240075
721.084	0.14246344
721.274	0.14248883
721.464	0.14248882
721.654	0.14256917
721.843	0.14261627
722.033	0.1426618
722.223	0.14265697
722.413	0.14271979
722.602	0.14284529
722.792	0.14300097
722.982	0.1430596
723.171	0.14313246
723.361	0.14324762
723.55	0.14343032
723.74	0.14351706
723.93	0.14358554
724.119	0.14369215
724.309	0.14388275
724.498	0.14400075
724.688	0.14405548
724.877	0.1440523
725.067	0.14407689
725.256	0.14409719
725.446	0.14404946
725.635	0.14397974
725.825	0.144022
726.014	0.14403604
726.203	0.14405295
726.393	0.14411071
726.582	0.14420843
726.771	0.1442866
726.961	0.1443826
727.15	0.14438519
727.339	0.14443971
727.529	0.1444801
727.718	0.14446071
727.907	0.14442134
728.096	0.14447228
728.286	0.14450716
728.475	0.14456722
728.664	0.14463252
728.853	0.14471322
729.042	0.1448025
729.231	0.14486587
729.42	0.14487064
729.609	0.14489749
729.799	0.14487678
729.988	0.14493264
730.177	0.14487671
730.366	0.14490828
730.555	0.14497266
730.744	0.14504427
730.933	0.14503357
731.122	0.14507352
731.31	0.14504781
731.499	0.14505411
731.688	0.14502142
731.877	0.14495855
732.066	0.14498581
732.255	0.14502142
732.444	0.14511871
732.632	0.1452099
732.821	0.14526885
733.01	0.14541779
733.199	0.14553838
733.388	0.1455848
733.576	0.14561675
733.765	0.14563024
733.954	0.14559892
734.142	0.14566989
734.331	0.14567928
734.52	0.14574851
734.708	0.14582089
734.897	0.14590926
735.086	0.14590174
735.274	0.14599347
735.463	0.14603447
735.651	0.14606989
735.84	0.14608287
736.028	0.14606284
736.217	0.14607543
736.405	0.14613078
736.594	0.14613835
736.782	0.14616363
736.971	0.14623821
737.159	0.14628836
737.347	0.1463698
737.536	0.14644496
737.724	0.14648626
737.912	0.14648136
738.101	0.14654444
738.289	0.14657272
738.477	0.14659095
738.666	0.14659454
738.854	0.14661687
739.042	0.14669005
739.23	0.14676914
739.418	0.14676539
739.607	0.14675761
739.795	0.14680468
739.983	0.14683368
740.171	0.146886
740.359	0.14692424
740.547	0.14694853
740.735	0.14704732
740.923	0.14708849
741.112	0.14708756
741.3	0.14708805
741.488	0.14704184
741.676	0.14703758
741.864	0.14702961
742.052	0.14704923
742.239	0.14710392
742.427	0.14717791
742.615	0.14722665
742.803	0.1472812
742.991	0.14724996
743.179	0.14725636
743.367	0.14719391
743.555	0.14721526
743.742	0.14722946
743.93	0.14725811
744.118	0.14727811
744.306	0.14739523
744.494	0.14745714
744.681	0.1475065
744.869	0.14745362
745.057	0.14749102
745.244	0.1474635
745.432	0.14745897
745.62	0.1474038
745.807	0.14739447
745.995	0.14744733
746.182	0.14753049
746.37	0.14757171
746.558	0.14768526
746.745	0.14774156
746.933	0.14781011
747.12	0.14785251
747.308	0.14786038
747.495	0.14787413
747.683	0.14785516
747.87	0.14784031
748.057	0.14786103
748.245	0.14795115
748.432	0.14804901
748.62	0.14816323
748.807	0.14817964
748.994	0.14819213
749.182	0.14817247
749.369	0.14821445
749.556	0.14823226
749.743	0.14822079
749.931	0.14821707
750.118	0.14828138
750.305	0.14835604
750.492	0.14845364
750.68	0.14850584
750.867	0.14847712
751.054	0.14852751
751.241	0.14855336
751.428	0.14855325
751.615	0.14851213
751.802	0.14848494
751.989	0.14843353
752.176	0.14846381
752.363	0.14847233
752.55	0.14845983
752.737	0.14847136
752.924	0.14856573
753.111	0.14862262
753.298	0.14869464
753.485	0.1486639
753.672	0.14858528
753.859	0.14856371
754.046	0.14854107
754.233	0.14847576
754.42	0.14852555
754.606	0.14853236
754.793	0.14854863
754.98	0.14858559
755.167	0.14853602
755.353	0.14854528
755.54	0.14852347
755.727	0.14840008
755.914	0.14830677
756.1	0.14821637
756.287	0.14817551
756.474	0.14822502
756.66	0.1482573
756.847	0.14822011
757.033	0.14824989
757.22	0.14826871
757.407	0.1483571
757.593	0.14839194
757.78	0.14835637
757.966	0.14832294
758.153	0.14838335
758.339	0.14837561
758.526	0.14843916
758.712	0.14846564
758.898	0.14856953
759.085	0.14858018
759.271	0.14860391
759.458	0.14864407
759.644	0.14870281
759.83	0.14867893
760.017	0.14862289
760.203	0.14857155
760.389	0.1486088
760.576	0.14859831
760.762	0.14865196
760.948	0.14859044
761.134	0.14859991
761.32	0.14860142
761.507	0.14856498
761.693	0.14857001
761.879	0.14851984
762.065	0.14835565
762.251	0.14832842
762.437	0.1482847
762.623	0.14827428
762.809	0.14821463
762.995	0.14817869
763.181	0.14820802
763.367	0.14834943
763.553	0.14835983
763.739	0.14834737
763.925	0.14833928
764.111	0.14836685
764.297	0.14831688
764.483	0.14826465
764.669	0.14810514
764.855	0.14805532
765.041	0.14806265
765.227	0.14807938
765.412	0.14810995
765.598	0.14811679
765.784	0.14810629
765.97	0.14815561
766.156	0.14823909
766.341	0.14813582
766.527	0.14807771
766.713	0.14796808
766.898	0.14782525
767.084	0.14776365
767.27	0.1476493
767.455	0.14748752
767.641	0.14746389
767.827	0.14734594
768.012	0.14728464
768.198	0.14738081
768.383	0.14739043
768.569	0.1474405
768.754	0.14754602
768.94	0.1476338
769.125	0.14768734
769.311	0.14772468
769.496	0.14764967
769.682	0.14757725
769.867	0.14742701
770.052	0.14724545
770.238	0.14706044
770.423	0.14699119
770.608	0.14686391
770.794	0.14673808
770.979	0.1466421
771.164	0.14663828
771.35	0.14660533
771.535	0.1466572
771.72	0.14663359
771.905	0.14662419
772.09	0.14667371
772.276	0.14668355
772.461	0.14666553
772.646	0.14668269
772.831	0.14661819
773.016	0.14660042
773.201	0.14656947
773.386	0.14647413
773.571	0.1463917
773.756	0.14628369
773.941	0.14612527
774.126	0.14605418
774.311	0.14595884
774.496	0.1458292
774.681	0.14581645
774.866	0.14586979
775.051	0.14588743
775.236	0.14594481
775.421	0.14590163
775.606	0.14583373
775.791	0.14581147
775.976	0.14565943
776.16	0.14551047
776.345	0.14545099
776.53	0.14538472
776.715	0.14529193
776.899	0.14516554
777.084	0.14512165
777.269	0.14514116
777.454	0.14515036
777.638	0.14504836
777.823	0.14498071
778.008	0.14487505
778.192	0.1449672
778.377	0.14489363
778.561	0.14479412
778.746	0.14467387
778.931	0.1446298
779.115	0.14454294
779.3	0.14454021
779.484	0.14440796
779.669	0.14436817
779.853	0.14429631
780.037	0.14418759
780.222	0.14405907
780.406	0.1439671
780.591	0.14388545
780.775	0.14381528
780.959	0.14378729
781.144	0.14372366
781.328	0.14366481
781.512	0.1436055
781.697	0.14350357
781.881	0.14336869
782.065	0.14321339
782.249	0.14298934
782.434	0.14285539
782.618	0.14271127
782.802	0.14260208
782.986	0.14255898
783.17	0.1425225
783.354	0.14252729
783.539	0.14251841
783.723	0.14248168
783.907	0.14245494
784.091	0.14235969
784.275	0.14220474
784.459	0.14200934
784.643	0.14184914
784.827	0.14171595
785.011	0.14163356
785.195	0.14150992
785.379	0.14144834
785.563	0.14142091
785.747	0.14144257
785.93	0.14140076
786.114	0.14126841
786.298	0.14114917
786.482	0.14107833
786.666	0.14093176
786.85	0.14079368
787.033	0.14066612
787.217	0.14046563
787.401	0.14045908
787.585	0.14043016
787.768	0.14037222
787.952	0.14036354
788.136	0.14033349
788.319	0.14021543
788.503	0.14008089
788.687	0.13989262
788.87	0.13967208
789.054	0.13944076
789.237	0.13921068
789.421	0.13902591
789.605	0.138892
789.788	0.13882206
789.972	0.13872516
790.155	0.13860272
790.338	0.13854691
790.522	0.13841105
790.705	0.13827132
790.889	0.13817011
791.072	0.13805951
791.256	0.13791576
791.439	0.13785481
791.622	0.13772722
791.806	0.13776216
791.989	0.13767494
792.172	0.13759455
792.355	0.13749427
792.539	0.13744233
792.722	0.13727931
792.905	0.13715226
793.088	0.13694035
793.271	0.13673966
793.455	0.13647138
793.638	0.13625587
793.821	0.13602994
794.004	0.13585515
794.187	0.13570183
794.37	0.13552201
794.553	0.1354643
794.736	0.13547284
794.919	0.13542641
795.102	0.13544966
795.285	0.13544361
795.468	0.13531363
795.651	0.1352848
795.834	0.13513719
796.017	0.13495419
796.2	0.13480936
796.383	0.13461902
796.566	0.1344556
796.749	0.13436792
796.931	0.13417583
797.114	0.13397901
797.297	0.13379879
797.48	0.13359687
797.663	0.13345044
797.845	0.13333772
798.028	0.13327063
798.211	0.13321754
798.393	0.13318373
798.576	0.13313807
798.759	0.13311823
798.941	0.13303589
799.124	0.13287982
799.307	0.13270574
799.489	0.13249463
799.672	0.13234158
799.854	0.1321577
800.037	0.13192324
800.219	0.13170842
800.402	0.1315523
800.584	0.1313372
800.767	0.13111531
800.949	0.13089049
801.132	0.13073379
801.314	0.13064705
801.496	0.13050687
801.679	0.13035247
801.861	0.13029635
802.043	0.13026372
802.226	0.13019699
802.408	0.13008547
802.59	0.12991515
802.772	0.12973727
802.955	0.12956627
803.137	0.12929533
803.319	0.12910084
803.501	0.12893866
803.684	0.12872541
803.866	0.12858782
804.048	0.12850325
804.23	0.1284521
804.412	0.1284076
804.594	0.12824645
804.776	0.12814976
804.958	0.12804499
805.14	0.12789548
805.322	0.12775725
805.504	0.12749938
805.686	0.12734944
805.868	0.12724635
806.05	0.12702944
806.232	0.12688496
806.414	0.12676594
806.596	0.12652922
806.778	0.12635396
806.96	0.12615919
807.141	0.12602043
807.323	0.12584112
807.505	0.1256375
807.687	0.12548944
807.869	0.12537957
808.05	0.12529738
808.232	0.12512082
808.414	0.12493379
808.595	0.12479889
808.777	0.12468102
808.959	0.12456566
809.14	0.12448124
809.322	0.124344
809.504	0.12424477
809.685	0.12418129
809.867	0.12407306
810.048	0.12395672
810.23	0.12374394
810.411	0.12339985
810.593	0.1231452
810.774	0.12294568
810.956	0.12267807
811.137	0.12253032
811.319	0.12232897
811.5	0.12218059
811.681	0.12212341
811.863	0.12196411
812.044	0.12176868
812.225	0.12167977
812.407	0.12144484
812.588	0.12124112
812.769	0.12102645
812.951	0.12082572
813.132	0.12069754
813.313	0.12061161
813.494	0.12045312
813.675	0.12035444
813.857	0.12032951
814.038	0.12027396
814.219	0.12017178
814.4	0.12004295
814.581	0.11986714
814.762	0.11961745
814.943	0.11944293
815.124	0.11920248
815.305	0.11897803
815.486	0.1187982
815.667	0.11863157
815.848	0.11844273
816.029	0.11827229
816.21	0.11801569
816.391	0.11778662
816.572	0.11758751
816.753	0.11739366
816.934	0.11713396
817.115	0.1168556
817.295	0.11660502
817.476	0.1163626
817.657	0.11618295
817.838	0.11597447
818.019	0.11577331
818.199	0.11559867
818.38	0.11543737
818.561	0.11523361
818.741	0.11510684
818.922	0.11483009
819.103	0.11464614
819.283	0.11442836
819.464	0.11429238
819.645	0.11420865
819.825	0.11415505
820.006	0.11399639
820.186	0.11388918
820.367	0.11370177
820.547	0.11350327
820.728	0.11330135
820.908	0.11305577
821.089	0.11277917
821.269	0.11254232
821.45	0.11233439
821.63	0.11211469
821.81	0.11191811
821.991	0.11174018
822.171	0.11160975
822.351	0.11152555
822.532	0.11141618
822.712	0.11132455
822.892	0.11126213
823.072	0.11110056
823.253	0.11095422
823.433	0.11065263
823.613	0.11044583
823.793	0.11020339
823.973	0.10997356
824.154	0.10965124
824.334	0.10951359
824.514	0.10927179
824.694	0.10907896
824.874	0.10884587
825.054	0.10870056
825.234	0.10857494
825.414	0.10850277
825.594	0.10832711
825.774	0.10820024
825.954	0.10813565
826.134	0.10793827
826.314	0.10777169
826.494	0.10756417
826.674	0.10735185
826.854	0.10714366
827.033	0.10689241
827.213	0.10665081
827.393	0.10640987
827.573	0.10618465
827.753	0.10593542
827.932	0.10573504
828.112	0.10550789
828.292	0.10531005
828.472	0.10501076
828.651	0.10487593
828.831	0.10458974
829.011	0.10431682
829.19	0.10403364
829.37	0.1037982
829.549	0.10360931
829.729	0.10355378
829.909	0.10330927
830.088	0.10315858
830.268	0.10297407
830.447	0.10275075
830.627	0.10257952
830.806	0.10228622
830.986	0.10197581
831.165	0.10176434
831.344	0.10157822
831.524	0.10147913
831.703	0.10139962
831.883	0.10131136
832.062	0.10125955
832.241	0.10107924
832.421	0.10097015
832.6	0.10076389
832.779	0.10051016
832.958	0.10018755
833.138	0.0999294
833.317	0.09966748
833.496	0.0994774
833.675	0.09925704
833.854	0.09917977
834.034	0.09915294
834.213	0.09906166
834.392	0.09887281
834.571	0.09866685
834.75	0.0985059
834.929	0.09838964
835.108	0.09812853
835.287	0.09780522
835.466	0.09755586
835.645	0.09730572
835.824	0.09710412
836.003	0.09697492
836.182	0.09679543
836.361	0.09659342
836.54	0.09647152
836.719	0.09637139
836.897	0.09623289
837.076	0.09612576
837.255	0.0959009
837.434	0.09559499
837.613	0.09539065
837.791	0.09511793
837.97	0.09490384
838.149	0.0946986
838.328	0.09449179
838.506	0.09427206
838.685	0.09410218
838.864	0.09390947
839.042	0.09366363
839.221	0.09334209
839.4	0.09303951
839.578	0.09271736
839.757	0.09242541
839.935	0.09221297
840.114	0.09204233
840.292	0.0919807
840.471	0.09185874
840.649	0.09173221
840.828	0.09164611
841.006	0.09149198
841.185	0.09122859
841.363	0.0910056
841.541	0.09072861
841.72	0.09057274
841.898	0.0904427
842.076	0.09016697
842.255	0.08998233
842.433	0.08979205
842.611	0.08959976
842.789	0.08939059
842.968	0.08910586
843.146	0.08882335
843.324	0.08859571
843.502	0.08840232
843.68	0.08820248
843.859	0.08793469
844.037	0.0877189
844.215	0.08751073
844.393	0.08733397
844.571	0.08720405
844.749	0.08699134
844.927	0.08680901
845.105	0.08661084
845.283	0.08633576
845.461	0.08617663
845.639	0.08596334
845.817	0.08572242
845.995	0.085587
846.173	0.08547115
846.351	0.08538521
846.529	0.08532529
846.706	0.08518714
846.884	0.08501579
847.062	0.08480495
847.24	0.08460446
847.418	0.08436751
847.595	0.08414122
847.773	0.08384383
847.951	0.083543
848.129	0.08320144
848.306	0.08305925
848.484	0.08290167
848.662	0.0827477
848.839	0.08252318
849.017	0.08244907
849.194	0.08223469
849.372	0.08217784
849.549	0.08199405
849.727	0.08174938
849.905	0.08146038
850.082	0.08125407
850.26	0.08100363
850.437	0.08085066
850.614	0.08068475
850.792	0.08049846
850.969	0.0803801
851.147	0.08030201
851.324	0.08015327
851.501	0.07994566
851.679	0.07976553
851.856	0.07949993
852.033	0.07918601
852.211	0.07887664
852.388	0.07858632
852.565	0.07836565
852.742	0.0782128
852.92	0.07807899
853.097	0.07782828
853.274	0.07762655
853.451	0.07736205
853.628	0.07725829
853.805	0.07711997
853.982	0.07685926
854.159	0.07655289
854.336	0.07638802
854.514	0.07614612
854.691	0.07599608
854.868	0.07570438
855.045	0.07547771
855.221	0.07534569
855.398	0.07522332
855.575	0.07503759
855.752	0.07501029
855.929	0.07485547
856.106	0.07471588
856.283	0.07449648
856.46	0.07427747
856.637	0.074119
856.813	0.07399734
856.99	0.0736909
857.167	0.07342209
857.344	0.07313184
857.52	0.07280473
857.697	0.07261382
857.874	0.07232774
858.05	0.07208256
858.227	0.07191515
858.404	0.07171466
858.58	0.07159685
858.757	0.07146266
858.933	0.07119596
859.11	0.07106759
859.287	0.07090196
859.463	0.07071007
859.64	0.0706516
859.816	0.07037924
859.993	0.07028434
860.169	0.07028432
860.345	0.07009917
860.522	0.06999306
860.698	0.06985248
860.875	0.06971394
861.051	0.06978696
861.227	0.06963617
861.404	0.06938527
861.58	0.06928194
861.756	0.06908849
861.932	0.06898415
862.109	0.06876639
862.285	0.06846707
862.461	0.06828655
862.637	0.06808107
862.813	0.06792198
862.99	0.06757869
863.166	0.0672256
863.342	0.06709332
863.518	0.06693355
863.694	0.06672803
863.87	0.06661391
864.046	0.06630733
864.222	0.06629736
864.398	0.06632789
864.574	0.0661134
864.75	0.0659318
864.926	0.06577676
865.102	0.06556485
865.278	0.06544659
865.454	0.06530649
865.63	0.06507393
865.805	0.06486179
865.981	0.0646784
866.157	0.06447707
866.333	0.06424998
866.509	0.06405466
866.684	0.06376997
866.86	0.06356564
867.036	0.06338364
867.212	0.06301488
867.387	0.06283845
867.563	0.06260202
867.739	0.06243585
867.914	0.06234761
868.09	0.0622192
868.265	0.06208706
868.441	0.06216963
868.617	0.0620267
868.792	0.06195908
868.968	0.0617252
869.143	0.06144018
869.319	0.0611782
869.494	0.06097502
869.67	0.06072259
869.845	0.06045667
870.02	0.06022829
870.196	0.06012555
870.371	0.06007266
870.546	0.06008461
870.722	0.06005066
870.897	0.05996232
871.072	0.05993289
871.248	0.05985556
871.423	0.05969802
871.598	0.05956388
871.773	0.0592434
871.949	0.05901637
872.124	0.05875889
872.299	0.05850867
872.474	0.05816218
872.649	0.05792985
872.824	0.05762231
872.999	0.05747245
873.174	0.0573875
873.349	0.05727899
873.524	0.05716944
873.699	0.0571429
873.874	0.05696105
874.049	0.05686147
874.224	0.05673436
874.399	0.05636223
874.574	0.05614432
874.749	0.05598327
874.924	0.05587136
875.099	0.05574773
875.274	0.05564578
875.449	0.05550271
875.623	0.05544889
875.798	0.05520822
875.973	0.05496374
876.148	0.0546556
876.322	0.0544505
876.497	0.05412818
876.672	0.05384472
876.846	0.05349253
877.021	0.0533016
877.196	0.05294448
877.37	0.05281976
877.545	0.05269475
877.72	0.05262833
877.894	0.05253499
878.069	0.05245986
878.243	0.05233764
878.418	0.05243024
878.592	0.05217985
878.767	0.05193249
878.941	0.0517594
879.116	0.05160433
879.29	0.05142035
879.464	0.05121541
879.639	0.05097879
879.813	0.05097438
879.987	0.05098217
880.162	0.05083438
880.336	0.05063493
880.51	0.05053551
880.685	0.05045977
880.859	0.05039392
881.033	0.0501979
881.207	0.04993304
881.381	0.04979721
881.556	0.04961477
881.73	0.04938531
881.904	0.04921404
882.078	0.04907252
882.252	0.04884892
882.426	0.04866525
882.6	0.04837655
882.774	0.04818902
882.948	0.04804291
883.122	0.04788185
883.296	0.04767618
883.47	0.04752763
883.644	0.04737712
883.818	0.04735829
883.992	0.04729045
884.166	0.04727136
884.34	0.04724202
884.514	0.04722857
884.687	0.04726016
884.861	0.04721456
885.035	0.04709872
885.209	0.04704273
885.382	0.04693429
885.556	0.04674561
885.73	0.04642735
885.904	0.0461555
886.077	0.04592336
886.251	0.04570488
886.425	0.04551536
886.598	0.04523147
886.772	0.04501278
886.945	0.04489756
887.119	0.0448107
887.292	0.04477373
887.466	0.04459964
887.64	0.04433355
887.813	0.04420239
887.986	0.04406755
888.16	0.0439091
888.333	0.04371155
888.507	0.04339942
888.68	0.04320932
888.854	0.04307401
889.027	0.04294761
889.2	0.04278146
889.374	0.04256059
889.547	0.04242791
889.72	0.04255462
889.893	0.04257217
890.067	0.04255753
890.24	0.04240493
890.413	0.04234374
890.586	0.04229277
890.759	0.04226471
890.933	0.04204079
891.106	0.04188992
891.279	0.04179071
891.452	0.04164052
891.625	0.04142215
891.798	0.04126052
891.971	0.04115999
892.144	0.04100042
892.317	0.04085692
892.49	0.04084849
892.663	0.04091199
892.836	0.04083569
893.009	0.04077296
893.182	0.04055635
893.355	0.04042254
893.527	0.040272
893.7	0.0398985
893.873	0.03953059
894.046	0.03936519
894.219	0.03907723
894.391	0.03882481
894.564	0.03852068
894.737	0.03824383
894.91	0.03804501
895.082	0.03791159
895.255	0.03769141
895.428	0.03759249
895.6	0.03749265
895.773	0.03739526
895.945	0.0373371
896.118	0.03728526
896.291	0.03724951
896.463	0.03715943
896.636	0.03709982
896.808	0.03699276
896.981	0.03686346
897.153	0.03664519
897.326	0.03645897
897.498	0.03622887
897.67	0.03615444
897.843	0.03609439
898.015	0.03607219
898.187	0.03614886
898.36	0.03616399
898.532	0.03616947
898.704	0.03622801
898.877	0.03617648
899.049	0.0360654
899.221	0.03595226
899.393	0.03570641
899.566	0.03544477
899.738	0.03519487
899.91	0.03496031
900.082	0.03485726
900.254	0.03466388
900.426	0.03450797
900.598	0.03442326
900.77	0.03440337
900.942	0.03442009
901.114	0.03433465
901.286	0.03417178
901.458	0.03402014
901.63	0.03357235
901.802	0.03342355
901.974	0.03314007
902.146	0.03279271
902.318	0.03258823
902.49	0.0324819
902.662	0.03253988
902.834	0.03272348
903.005	0.0325944
903.177	0.0326903
903.349	0.03286655
903.521	0.0329584
903.693	0.03299037
903.864	0.03278639
904.036	0.03266141
904.208	0.03264031
904.379	0.03244803
904.551	0.03231918
904.723	0.03214383
904.894	0.03181507
905.066	0.03158823
905.237	0.03142741
905.409	0.03121092
905.58	0.03104399
905.752	0.03087909
905.923	0.03076754
906.095	0.03063424
906.266	0.03065471
906.438	0.03055377
906.609	0.03049024
906.78	0.03051531
906.952	0.03039847
907.123	0.03031888
907.295	0.03033646
907.466	0.03010164
907.637	0.03004078
907.808	0.02999997
907.98	0.03001041
908.151	0.02999257
908.322	0.0298212
908.493	0.0296927
908.665	0.02975027
908.836	0.02959906
909.007	0.02953408
909.178	0.0293575
909.349	0.02917018
909.52	0.0290807
909.691	0.02898522
909.862	0.02876496
910.033	0.02872406
910.204	0.02851865
910.375	0.02830895
910.546	0.02812636
910.717	0.02804478
910.888	0.02786245
911.059	0.0278319
911.23	0.02777435
911.401	0.02777116
911.572	0.02778209
911.742	0.02774365
911.913	0.02759694
912.084	0.02760829
912.255	0.02759072
912.426	0.02745064
912.596	0.0272766
912.767	0.02715833
912.938	0.02716854
913.108	0.02721476
913.279	0.02692671
913.45	0.02682996
913.62	0.02686799
913.791	0.0268391
913.962	0.02684404
914.132	0.02666659
914.303	0.02642185
914.473	0.02640128
914.644	0.02615692
914.814	0.02590785
914.985	0.02580206
915.155	0.02558636
915.326	0.02547527
915.496	0.0254359
915.666	0.02543764
915.837	0.0254592
916.007	0.02535078
916.177	0.02518801
916.348	0.02505133
916.518	0.02505833
916.688	0.02496877
916.858	0.02475892
917.029	0.02455959
917.199	0.02460723
917.369	0.02452904
917.539	0.02462763
917.709	0.02462501
917.88	0.02454641
918.05	0.02460301
918.22	0.02452718
918.39	0.02434991
918.56	0.02424165
918.73	0.02404559
918.9	0.02367689
919.07	0.02348429
919.24	0.0232452
919.41	0.02306122
919.58	0.02282852
919.75	0.02263361
919.92	0.02243581
920.09	0.02238423
920.26	0.02216413
920.429	0.02207854
920.599	0.02202752
920.769	0.02213341
920.939	0.02218243
921.109	0.0222047
921.278	0.02216221
921.448	0.02236614
921.618	0.02234226
921.787	0.02242721
921.957	0.02231313
922.127	0.02221443
922.296	0.02211104
922.466	0.02207052
922.636	0.02206098
922.805	0.02220059
922.975	0.02207024
923.144	0.02194077
923.314	0.02202584
923.483	0.02181803
923.653	0.02161006
923.822	0.02148504
923.992	0.0211879
924.161	0.02105658
924.331	0.02091225
924.5	0.02063544
924.669	0.02064004
924.839	0.02080622
925.008	0.02072498
925.177	0.02067684
925.347	0.02066868
925.516	0.0207536
925.685	0.02082576
925.854	0.02089945
926.023	0.02060626
926.193	0.02049433
926.362	0.02044749
926.531	0.02026252
926.7	0.02004745
926.869	0.01992882
927.038	0.0198986
927.207	0.01981941
927.376	0.01957171
927.545	0.01946525
927.715	0.01939664
927.884	0.01940547
928.052	0.01924731
928.221	0.01907484
928.39	0.01902428
928.559	0.01918013
928.728	0.01912377
928.897	0.01908484
929.066	0.01906888
929.235	0.01916226
929.404	0.01916623
929.572	0.01913759
929.741	0.01894303
929.91	0.01887396
930.079	0.01890155
930.247	0.01876697
930.416	0.01860817
930.585	0.0184039
930.753	0.01841062
930.922	0.01839944
931.091	0.01848559
931.259	0.01841135
931.428	0.01838638
931.596	0.01816592
931.765	0.01819666
931.934	0.01815539
932.102	0.01813778
932.27	0.01802284
932.439	0.01801538
932.607	0.01781226
932.776	0.01801416
932.944	0.01778521
933.113	0.01766498
933.281	0.0175924
933.449	0.01745834
933.618	0.01730362
933.786	0.01738083
933.954	0.01726561
934.123	0.01735708
934.291	0.01733864
934.459	0.01716339
934.627	0.01702285
934.795	0.01712115
934.964	0.0171451
935.132	0.01716071
935.3	0.01732916
935.468	0.01746647
935.636	0.01749506
935.804	0.01760464
935.972	0.01743984
936.14	0.01734591
936.308	0.01733262
936.476	0.01713211
936.644	0.01711891
936.812	0.01728587
936.98	0.01748288
937.148	0.01752396
937.316	0.01771967
937.484	0.01772626
937.652	0.01779613
937.82	0.01766647
937.987	0.01740163
938.155	0.01768495
938.323	0.01796285
938.491	0.01789305
938.658	0.01806552
938.826	0.01806448
938.994	0.01843302
939.162	0.01878104
939.329	0.01836873
939.497	0.01839532
939.665	0.01857236
939.832	0.01848719
940	0.01885355
940.167	0.01866246
940.335	0.01874368
940.502	0.01895239
940.67	0.01920259
940.837	0.01943422
941.005	0.02002192
941.172	0.01953301
941.34	0.01994167
941.507	0.02064888
941.674	0.02034552
941.842	0.02077455
942.009	0.02138048
942.177	0.02058535
942.344	0.02122139
942.511	0.02123787
942.678	0.0203034
942.846	0.02059362
943.013	0.0204032
943.18	0.02067152
943.347	0.02096001
943.514	0.02115418
943.682	0.02198605
943.849	0.02263821
944.016	0.02232877
944.183	0.02260157
944.35	0.02106448
944.517	0.02112556
944.684	0.02186716
944.851	0.02092217
945.018	0.02067733
945.185	0.02119831
945.352	0.02089285
945.519	0.02151445
945.686	0.02168149
945.853	0.02106929
946.02	0.02096472
946.187	0.02120522
946.353	0.02115828
946.52	0.02048737
946.687	0.02010893
946.854	0.02031513
947.021	0.01966361
947.187	0.01964446
947.354	0.01883242
947.521	0.01925769
947.687	0.01972048
947.854	0.02037261
948.021	0.01994334
948.187	0.02019422
948.354	0.02015276
948.52	0.02026266
948.687	0.01903717
948.854	0.01945501
949.02	0.01947787
949.187	0.01886714
949.353	0.01805267
949.52	0.01839663
949.686	0.01831774
949.852	0.01871296
950.019	0.01786563
950.185	0.0171597
950.352	0.01766213
950.518	0.01740059
950.684	0.01692493
950.851	0.01738518
951.017	0.01756889
951.183	0.01744006
951.349	0.01643867
951.516	0.01588626
951.682	0.01594001
951.848	0.01542715
952.014	0.01431485
952.18	0.01362271
952.346	0.01375559
952.512	0.01456944
952.679	0.0143993
952.845	0.01439045
953.011	0.01484116
953.177	0.01543891
953.343	0.01469044
953.509	0.01486841
953.675	0.01416562
953.841	0.01374769
954.007	0.01422745
954.172	0.01405338
954.338	0.01393712
954.504	0.0143397
954.67	0.01353267
954.836	0.01372268
955.002	0.01391657
955.167	0.01307069
955.333	0.01253459
955.499	0.01264077
955.665	0.01319584
955.83	0.01350691
955.996	0.01340457
956.162	0.01337493
956.327	0.0140024
956.493	0.01415982
956.659	0.01369585
956.824	0.0132339
956.99	0.01313966
957.155	0.01288214
957.321	0.01363716
957.486	0.01365536
957.652	0.01392372
957.817	0.01375967
957.983	0.01385765
958.148	0.01371504
958.314	0.01400901
958.479	0.01341643
958.644	0.01312448
958.81	0.01290935
958.975	0.01263239
959.14	0.01217992
959.306	0.01242238
959.471	0.0124906
959.636	0.01210156
959.801	0.01209553
959.967	0.01179013
960.132	0.01184714
960.297	0.01210689
960.462	0.01157761
960.627	0.01111435
960.792	0.01119047
960.957	0.01132081
961.123	0.01109104
961.288	0.01148075
961.453	0.01153501
961.618	0.01143351
961.783	0.01158717
961.948	0.01162352
962.113	0.01132455
962.277	0.01127528
962.442	0.01096336
962.607	0.01097407
962.772	0.01114532
962.937	0.01110954
963.102	0.01115139
963.267	0.01094272
963.431	0.01095627
963.596	0.0107822
963.761	0.01063445
963.926	0.01073807
964.09	0.01067777
964.255	0.01051467
964.42	0.01068928
964.584	0.01093875
964.749	0.01074175
964.914	0.01079907
965.078	0.01039107
965.243	0.01054355
965.407	0.01082444
965.572	0.01043452
965.736	0.0102404
965.901	0.01039944
966.065	0.0104396
966.23	0.010706
966.394	0.01042667
966.559	0.01004692
966.723	0.01012147
966.887	0.00997085
967.052	0.00981627
967.216	0.00909264
967.38	0.0086474
967.545	0.00867209
967.709	0.00835246
967.873	0.00817803
968.037	0.00824509
968.202	0.00852224
968.366	0.00897553
968.53	0.00932412
968.694	0.00925993
968.858	0.00950859
969.022	0.00961304
969.187	0.00946944
969.351	0.00954097
969.515	0.00956217
969.679	0.00938778
969.843	0.00929109
970.007	0.00923329
970.171	0.00937365
970.335	0.00913068
970.499	0.00878352
970.662	0.00869824
970.826	0.00842492
970.99	0.00818393
971.154	0.00819469
971.318	0.00827836
971.482	0.00870626
971.645	0.00887607
971.809	0.00864111
971.973	0.00924564
972.137	0.00964047
972.3	0.01000844
972.464	0.0097718
972.628	0.00986372
972.791	0.00982992
972.955	0.01032004
973.119	0.00978978
973.282	0.00955047
973.446	0.00883841
973.609	0.00863608
973.773	0.00823504
973.936	0.00826105
974.1	0.00749579
974.263	0.00728185
974.427	0.00713344
974.59	0.00776869
974.754	0.00771937
974.917	0.00789626
975.08	0.00730895
975.244	0.0073312
975.407	0.00740656
975.57	0.00732111
975.734	0.00694919
975.897	0.00712744
976.06	0.00726698
976.223	0.0075222
976.387	0.00773453
976.55	0.00783834
976.713	0.00821958
976.876	0.00851724
977.039	0.00831809
977.202	0.00804395
977.365	0.00833722
977.528	0.00869318
977.692	0.00863216
977.855	0.0084565
978.018	0.00818287
978.181	0.00863318
978.344	0.00879112
978.506	0.008634
978.669	0.00853472
978.832	0.00863262
978.995	0.00877366
979.158	0.00841969
979.321	0.00808724
979.484	0.00805316
979.646	0.00824451
979.809	0.00797017
979.972	0.00793525
980.135	0.00799901
980.297	0.00818169
980.46	0.00804981
980.623	0.00827066
980.786	0.00808592
980.948	0.00756947
981.111	0.00799168
981.273	0.00770003
981.436	0.0077367
981.599	0.00758711
981.761	0.00699783
981.924	0.00687941
982.086	0.00780152
982.249	0.00770707
982.411	0.00789941
982.573	0.00801501
982.736	0.00841246
982.898	0.00899427
983.061	0.00934456
983.223	0.00894649
983.385	0.00848924
983.548	0.00878275
983.71	0.0089786
983.872	0.00881045
984.034	0.0086117
984.197	0.00826749
984.359	0.00817393
984.521	0.00853487
984.683	0.00749241
984.845	0.00693901
985.008	0.00701854
985.17	0.00710299
985.332	0.00730246
985.494	0.00725094
985.656	0.00680514
985.818	0.0075883
985.98	0.00762403
986.142	0.00810757
986.304	0.00796064
986.466	0.00797459
986.628	0.00772456
986.79	0.00771181
986.952	0.00785175
987.113	0.00813502
987.275	0.00791717
987.437	0.00796905
987.599	0.007675
987.761	0.00842604
987.922	0.0089332
988.084	0.00892448
988.246	0.00927933
988.408	0.00936631
988.569	0.00933545
988.731	0.00965364
988.893	0.00907416
989.054	0.0082697
989.216	0.0082226
989.377	0.00784434
989.539	0.00720063
989.701	0.00715816
989.862	0.00674139
990.024	0.00676852
990.185	0.0077211
990.347	0.00726382
990.508	0.00710704
990.669	0.00715751
990.831	0.00685851
990.992	0.00700319
991.154	0.00691511
991.315	0.00677283
991.476	0.00658366
991.638	0.00609518
991.799	0.00606865
991.96	0.00599559
992.121	0.00601836
992.283	0.00622837
992.444	0.0062726
992.605	0.00689346
992.766	0.00737867
992.927	0.00728226
993.088	0.00730387
993.249	0.00780822
993.41	0.00815812
993.572	0.00771032
993.733	0.00644907
993.894	0.00670314
994.055	0.00718156
994.216	0.00755557
994.376	0.00632752
994.537	0.00638581
994.698	0.00615979
994.859	0.00680928
995.02	0.00616163
995.181	0.0060689
995.342	0.00564398
995.503	0.00608291
995.663	0.00521357
995.824	0.00554307
995.985	0.00606672
996.146	0.00694598
996.306	0.00716653
996.467	0.00772324
996.628	0.0081704
996.788	0.00904134
996.949	0.0085204
997.11	0.00843163
997.27	0.00725196
997.431	0.00650949
997.591	0.00682854
997.752	0.00639057
997.912	0.00547764
998.073	0.00618278
998.233	0.00520833
998.394	0.00631071
998.554	0.0067451
998.714	0.00639058
998.875	0.00734601
999.035	0.00740274
999.196	0.00698232
999.356	0.00840035
999.516	0.00824667
999.676	0.00807144
999.837	0.00823863
999.997	0.00744849
1000.157	0.00864481
1000.317	0.00917833
1000.477	0.0095106
1000.638	0.00894035
1000.798	0.00904001
1000.958	0.0092782
1001.118	0.0101149
1001.278	0.00933821
1001.438	0.00913064
1001.598	0.0078243
1001.758	0.00804116
1001.918	0.00820814
1002.078	0.00731071
1002.238	0.00677141
1002.398	0.00728464
1002.558	0.00766645
1002.718	0.00796281
1002.878	0.00759969
1003.037	0.00807564
1003.197	0.00873856
1003.357	0.00923604
1003.517	0.00905407
1003.677	0.00850934
1003.836	0.00889559
1003.996	0.00950571
1004.156	0.00945903
1004.315	0.00878111
1004.475	0.00759144
1004.635	0.00795714
1004.794	0.00764925
1004.954	0.00731246
1005.114	0.00813232
1005.273	0.00852917
1005.433	0.00928137
1005.592	0.01010275
1005.752	0.0102037
1005.911	0.01041363
1006.071	0.01045472
1006.23	0.01072734
1006.389	0.01064195
1006.549	0.01111707
1006.708	0.01119325
1006.868	0.00999335
1007.027	0.01100538
1007.186	0.01146467
1007.345	0.01102503
1007.505	0.01047342
1007.664	0.00988101
1007.823	0.01000925
1007.982	0.01077379
1008.142	0.01050025
1008.301	0.01144833
1008.46	0.01081592
1008.619	0.01099354
1008.778	0.00996265
1008.937	0.00933728
1009.096	0.00956042
1009.255	0.00938133
1009.414	0.00946932
1009.573	0.00944838
1009.732	0.01087544
1009.891	0.00969972
1010.05	0.00993853
1010.209	0.01003707
1010.368	0.01096867
1010.527	0.00880541
1010.686	0.00941096
1010.845	0.00737506
1011.003	0.00817753
1011.162	0.00846618
1011.321	0.00819257
1011.48	0.00933377
1011.638	0.00934763
1011.797	0.00797855
1011.956	0.00810409
1012.115	0.01028192
1012.273	0.01152792
1012.432	0.01275173
1012.59	0.01170498
1012.749	0.0122028
1012.908	0.01338135
1013.066	0.0133671
1013.225	0.01196
1013.383	0.0098995
1013.542	0.00796269
1013.7	0.00702362
1013.859	0.00593942
1014.017	0.00521136
1014.175	0.00453303
1014.334	0.00450111
1014.492	0.00593464
1014.65	0.00847325
1014.809	0.00891584
1014.967	0.01205541
1015.125	0.01283076
1015.284	0.01495814
1015.442	0.01514045
1015.6	0.01455216
1015.758	0.01140498
1015.916	0.01108573
1016.075	0.00864867
1016.233	0.00762983
1016.391	0.00693566
1016.549	0.00816321
1016.707	0.0074045
1016.865	0.00912589
1017.023	0.00785342
1017.181	0.00787643
1017.339	0.0097477
1017.497	0.00880602
1017.655	0.01057062
1017.813	0.01247391
1017.971	0.0127713
1018.129	0.01547167
1018.286	0.01810737
1018.444	0.01813101
1018.602	0.02010753
1018.76	0.01986719
1018.918	0.01939989
1019.075	0.01850782
1019.233	0.01710988
1019.391	0.014229
1019.549	0.0162697
1019.706	0.01613332
1019.864	0.01533657
1020.022	0.01469062
1020.179	0.01281628
1020.337	0.01378911
1020.494	0.0148947
1020.652	0.01489791
1020.809	0.01384208
1020.967	0.01212438
1021.124	0.0130225
1021.282	0.01717894
1021.439	0.01823288
1021.597	0.01928496
1021.754	0.0158839
1021.911	0.01673914
1022.069	0.01833025
1022.226	0.01852615
1022.384	0.01708336
1022.541	0.01347897
1022.698	0.01563537
1022.855	0.01646104
1023.013	0.0169644
1023.17	0.01426377
1023.327	0.01024269
1023.484	0.00885976
1023.641	0.01292662
1023.798	0.01125944
1023.956	0.0121851
1024.113	0.01279058
1024.27	0.01433668
1024.427	0.018095
1024.584	0.02194319
1024.741	0.01867652
1024.898	0.01729241
1025.055	0.01684655
1025.212	0.01718663
1025.369	0.01791664
1025.525	0.01770996
1025.682	0.01888423
1025.839	0.0201712
1025.996	0.0222734
1026.153	0.02224146
1026.31	0.0201635
1026.466	0.0255242
1026.623	0.03053871
1026.78	0.02916364
1026.937	0.03033539
1027.093	0.03014329
1027.25	0.02983678
1027.407	0.03205485
1027.563	0.02142932
1027.72	0.01928656
1027.876	0.01912463
1028.033	0.02055751
1028.19	0.02222538
1028.346	0.0226978
1028.503	0.02051259
1028.659	0.02816262
1028.816	0.0275342
1028.972	0.03064246
1029.128	0.03448798
1029.285	0.03636546
1029.441	0.03562079
1029.598	0.04127465
1029.754	0.04452502
1029.91	0.04604682
1030.067	0.0405031
1030.223	0.03703246
1030.379	0.03587317
1030.535	0.03572629
1030.691	0.03670097
1030.848	0.03314276
1031.004	0.0310294
1031.16	0.03248101
1031.316	0.0318841
1031.472	0.02720986
1031.628	0.02817376
1031.784	0.02480314
1031.94	0.02763878
1032.096	0.03275544
1032.252	0.03841021
1032.408	0.04258927
1032.564	0.04519323
1032.72	0.04422404
1032.876	0.04334933
1033.032	0.04098238
1033.188	0.03602683
1033.344	0.0338229
1033.5	0.03215448
1033.655	0.03210558
1033.811	0.03917427
1033.967	0.04235482
