Data from 0_1_mm_pl_80pc_Absorbance__0__17-55-54-633.txt Node

Date: Wed Mar 01 17:55:54 CET 2023
User: Ange
Spectrometer: FLMT08341
Trigger mode: 0
Integration Time (sec): 1.000000E-2
Scans to average: 400
Electric dark correction enabled: true
Nonlinearity correction enabled: false
Boxcar width: 3
XAxis mode: Wavelengths
Number of Pixels in Spectrum: 3648
>>>>>Begin Spectral Data<<<<<
345.271	-0.04088688
345.487	-0.02640848
345.704	-0.03257944
345.921	-0.03701079
346.137	-0.03335797
346.354	-0.0291553
346.571	0.00899493
346.787	0.13459196
347.004	-0.11330955
347.22	-0.1375126
347.437	-0.23690052
347.653	-0.20863907
347.87	0.16221038
348.086	-0.08118043
348.303	0.14548166
348.519	0.02544783
348.736	0.04386178
348.952	0.05205906
349.169	0.05708351
349.385	0.05883941
349.601	0.05980465
349.818	0.05843056
350.034	0.05968468
350.251	0.06032623
350.467	0.05974276
350.683	0.05846864
350.9	0.05737233
351.116	0.05568534
351.332	0.05426083
351.549	0.05394158
351.765	0.0537586
351.981	0.05316804
352.197	0.05413905
352.414	0.0563813
352.63	0.05641056
352.846	0.05852692
353.062	0.05776495
353.278	0.05631971
353.495	0.05732735
353.711	0.05605391
353.927	0.05581306
354.143	0.05580424
354.359	0.05562317
354.575	0.05508904
354.792	0.05527477
355.008	0.05587236
355.224	0.05654563
355.44	0.05292235
355.656	0.05263313
355.872	0.05202987
356.088	0.05490671
356.304	0.05479941
356.52	0.05298317
356.736	0.0530738
356.952	0.0555101
357.168	0.05514981
357.384	0.0551077
357.6	0.05120917
357.816	0.05075601
358.032	0.05167352
358.248	0.05107365
358.464	0.05068249
358.679	0.05267784
358.895	0.05220974
359.111	0.05349563
359.327	0.05347954
359.543	0.05270442
359.759	0.05245876
359.974	0.05163604
360.19	0.05012098
360.406	0.04869714
360.622	0.04796109
360.838	0.04694303
361.053	0.04721341
361.269	0.04720094
361.485	0.04845211
361.701	0.04717335
361.916	0.04781146
362.132	0.04854122
362.348	0.04948136
362.563	0.04827437
362.779	0.04805946
362.995	0.04658396
363.21	0.04766009
363.426	0.04725024
363.641	0.04662298
363.857	0.04625787
364.073	0.04648264
364.288	0.04566537
364.504	0.0462573
364.719	0.04580007
364.935	0.04548868
365.15	0.04579815
365.366	0.04523487
365.581	0.04542652
365.797	0.04626058
366.012	0.04622581
366.228	0.04652144
366.443	0.04759524
366.658	0.04707908
366.874	0.04629703
367.089	0.04641215
367.305	0.04648875
367.52	0.04598068
367.735	0.04526272
367.951	0.04446809
368.166	0.04546271
368.381	0.04704802
368.597	0.04767932
368.812	0.04730441
369.027	0.04829897
369.243	0.04838888
369.458	0.04824196
369.673	0.04738214
369.888	0.04691954
370.104	0.04572455
370.319	0.04570237
370.534	0.04507671
370.749	0.04575429
370.964	0.0470334
371.179	0.04691756
371.395	0.04687639
371.61	0.0469013
371.825	0.04684331
372.04	0.04640051
372.255	0.04622978
372.47	0.04511847
372.685	0.04493907
372.9	0.04494828
373.115	0.0459988
373.33	0.04538498
373.545	0.04542233
373.76	0.04480475
373.975	0.0445046
374.19	0.04428122
374.405	0.04416794
374.62	0.04337283
374.835	0.04384229
375.05	0.04460943
375.265	0.04490647
375.48	0.04504462
375.695	0.04504443
375.91	0.04476489
376.125	0.04454555
376.339	0.04390776
376.554	0.04387149
376.769	0.043582
376.984	0.04391461
377.199	0.04412649
377.414	0.04452383
377.628	0.04502675
377.843	0.04559499
378.058	0.04496729
378.273	0.04575075
378.487	0.04644263
378.702	0.04675084
378.917	0.04647587
379.131	0.04602862
379.346	0.04574699
379.561	0.04632153
379.775	0.04588156
379.99	0.04520031
380.205	0.04537414
380.419	0.04552144
380.634	0.04504279
380.848	0.04549364
381.063	0.0452773
381.278	0.04579683
381.492	0.04550281
381.707	0.04621542
381.921	0.04611158
382.136	0.04715768
382.35	0.04715026
382.565	0.04709911
382.779	0.04644873
382.994	0.04684879
383.208	0.04577055
383.422	0.04598405
383.637	0.04570454
383.851	0.04576678
384.066	0.04631712
384.28	0.04603782
384.494	0.04609303
384.709	0.04634014
384.923	0.04633129
385.137	0.04585361
385.352	0.04605216
385.566	0.0455216
385.78	0.04632709
385.995	0.04599887
386.209	0.04569986
386.423	0.04554723
386.637	0.04569424
386.852	0.04599634
387.066	0.04590031
387.28	0.04540585
387.494	0.04552579
387.708	0.04590075
387.923	0.04572298
388.137	0.04639492
388.351	0.04566962
388.565	0.04598771
388.779	0.04597318
388.993	0.0463919
389.207	0.04614805
389.421	0.04616251
389.635	0.04534491
389.85	0.04562256
390.064	0.0453478
390.278	0.04599338
390.492	0.04637002
390.706	0.0466484
390.92	0.04723389
391.134	0.04773154
391.348	0.04782445
391.561	0.04795227
391.775	0.04713133
391.989	0.04640543
392.203	0.04598121
392.417	0.04572326
392.631	0.04584169
392.845	0.04574
393.059	0.04597288
393.273	0.04624135
393.486	0.04595904
393.7	0.04582203
393.914	0.04588182
394.128	0.04550381
394.342	0.04543198
394.555	0.04515527
394.769	0.0449201
394.983	0.0452697
395.197	0.04596388
395.41	0.04615338
395.624	0.04691603
395.838	0.04709814
396.051	0.04728677
396.265	0.04739158
396.479	0.04744502
396.692	0.04752914
396.906	0.04741479
397.12	0.04690622
397.333	0.04723947
397.547	0.04682623
397.76	0.04699862
397.974	0.04739911
398.187	0.04729109
398.401	0.04747784
398.614	0.04777348
398.828	0.04771536
399.041	0.04824035
399.255	0.04854719
399.468	0.04811514
399.682	0.0481049
399.895	0.04777414
400.109	0.04765494
400.322	0.04741482
400.536	0.04715943
400.749	0.04685859
400.962	0.04720183
401.176	0.04704726
401.389	0.04730206
401.602	0.04691144
401.816	0.04675904
402.029	0.04686091
402.242	0.04688966
402.456	0.04653125
402.669	0.04660756
402.882	0.04657782
403.095	0.04697302
403.309	0.04715622
403.522	0.04726399
403.735	0.04718039
403.948	0.04712448
404.161	0.04719042
404.375	0.04710807
404.588	0.04705664
404.801	0.04705234
405.014	0.04694911
405.227	0.04714612
405.44	0.04741517
405.653	0.04756755
405.866	0.04721119
406.079	0.04742841
406.293	0.04708099
406.506	0.0473224
406.719	0.04737859
406.932	0.04740303
407.145	0.04718971
407.358	0.04741709
407.571	0.04683815
407.784	0.04701824
407.996	0.04666484
408.209	0.046278
408.422	0.04591432
408.635	0.04577718
408.848	0.04572424
409.061	0.04544151
409.274	0.04542373
409.487	0.04503595
409.7	0.04506025
409.912	0.04519007
410.125	0.04499267
410.338	0.04500511
410.551	0.04516215
410.764	0.04494739
410.976	0.0452109
411.189	0.04510734
411.402	0.04511298
411.615	0.04515626
411.827	0.04501557
412.04	0.04516142
412.253	0.04521895
412.465	0.04524783
412.678	0.04534547
412.891	0.04544479
413.103	0.04535002
413.316	0.04534076
413.529	0.04550447
413.741	0.04557245
413.954	0.04555209
414.166	0.04555701
414.379	0.04510364
414.591	0.04505435
414.804	0.04476131
415.016	0.04441626
415.229	0.0438679
415.441	0.04405605
415.654	0.04395986
415.866	0.04409902
416.079	0.04388465
416.291	0.0440045
416.504	0.04396418
416.716	0.04427821
416.928	0.04385387
417.141	0.0435116
417.353	0.04351839
417.566	0.0436009
417.778	0.04349826
417.99	0.0431639
418.203	0.04303975
418.415	0.04289193
418.627	0.04287202
418.839	0.04261661
419.052	0.04272098
419.264	0.04256142
419.476	0.04271701
419.688	0.04267179
419.901	0.04246432
420.113	0.04247476
420.325	0.04234951
420.537	0.04206733
420.749	0.0419998
420.961	0.04193696
421.174	0.04171529
421.386	0.04170035
421.598	0.04160587
421.81	0.04147412
422.022	0.04132772
422.234	0.04128632
422.446	0.04122794
422.658	0.04109013
422.87	0.04101443
423.082	0.04102447
423.294	0.04104582
423.506	0.04082703
423.718	0.0405923
423.93	0.04024957
424.142	0.04012295
424.354	0.03995427
424.566	0.03953173
424.778	0.03944013
424.99	0.03933695
425.202	0.03931311
425.414	0.03934284
425.625	0.03930601
425.837	0.03916947
426.049	0.03920427
426.261	0.03886879
426.473	0.03859053
426.684	0.03837737
426.896	0.03820932
427.108	0.03783758
427.32	0.03761471
427.531	0.03740935
427.743	0.03734067
427.955	0.03749256
428.167	0.03722223
428.378	0.03686534
428.59	0.03699206
428.802	0.03705167
429.013	0.03687961
429.225	0.03670988
429.436	0.03647975
429.648	0.03636988
429.86	0.03634625
430.071	0.0361348
430.283	0.03595545
430.494	0.03592684
430.706	0.03569899
430.917	0.03547691
431.129	0.03537665
431.34	0.03519798
431.552	0.03515099
431.763	0.03488637
431.975	0.03469171
432.186	0.03446033
432.398	0.03436931
432.609	0.03434869
432.821	0.03440582
433.032	0.03414025
433.243	0.03422145
433.455	0.03409644
433.666	0.0341444
433.877	0.03428734
434.089	0.03407294
434.3	0.03381759
434.511	0.03373093
434.723	0.03322103
434.934	0.03317582
435.145	0.03316861
435.356	0.03287933
435.568	0.03288792
435.779	0.03280636
435.99	0.03267395
436.201	0.03267097
436.412	0.03227763
436.624	0.03216236
436.835	0.0317569
437.046	0.03147585
437.257	0.03127796
437.468	0.03098584
437.679	0.03087542
437.89	0.03060104
438.101	0.03020206
438.312	0.03021144
438.523	0.02988352
438.734	0.02964553
438.945	0.0296955
439.156	0.02957658
439.367	0.02972697
439.578	0.02978614
439.789	0.02959743
440	0.02965481
440.211	0.02935451
440.422	0.02913109
440.633	0.02901332
440.844	0.02864677
441.055	0.02846791
441.266	0.02827966
441.477	0.02803918
441.687	0.02795286
441.898	0.02765739
442.109	0.02725204
442.32	0.0271786
442.531	0.02681633
442.741	0.02655541
442.952	0.0264076
443.163	0.0262535
443.374	0.02613496
443.584	0.02604928
443.795	0.02591361
444.006	0.02573878
444.216	0.02554582
444.427	0.02531657
444.638	0.02522687
444.848	0.02498005
445.059	0.02480365
445.27	0.02457527
445.48	0.02437231
445.691	0.0242416
445.901	0.02408358
446.112	0.02393868
446.323	0.02390817
446.533	0.0238082
446.744	0.0237347
446.954	0.02366135
447.165	0.02369796
447.375	0.02363756
447.586	0.02350129
447.796	0.02335643
448.006	0.02321231
448.217	0.02300274
448.427	0.0228184
448.638	0.02254472
448.848	0.02227506
449.058	0.02208414
449.269	0.0218646
449.479	0.02163816
449.689	0.02145001
449.9	0.02126181
450.11	0.02116821
450.32	0.02106973
450.531	0.02088914
450.741	0.02075611
450.951	0.02062593
451.161	0.02050627
451.372	0.02043327
451.582	0.0203293
451.792	0.02016742
452.002	0.02000654
452.212	0.01976467
452.422	0.01974602
452.633	0.01967166
452.843	0.01946858
453.053	0.0192685
453.263	0.01921324
453.473	0.01911857
453.683	0.01908329
453.893	0.01878189
454.103	0.01861774
454.313	0.01848814
454.523	0.0183128
454.733	0.01797398
454.943	0.01777781
455.153	0.01764044
455.363	0.01749096
455.573	0.01736089
455.783	0.01729087
455.993	0.0171856
456.203	0.01731438
456.413	0.01729303
456.623	0.01707333
456.833	0.01708179
457.042	0.01682138
457.252	0.01672508
457.462	0.01663562
457.672	0.01645973
457.882	0.01636318
458.091	0.01636008
458.301	0.01618952
458.511	0.01608856
458.721	0.01587596
458.931	0.01564288
459.14	0.01562171
459.35	0.01544408
459.56	0.01534481
459.769	0.01529411
459.979	0.01536348
460.189	0.01525945
460.398	0.01515293
460.608	0.0149781
460.817	0.01491523
461.027	0.01474197
461.237	0.01465242
461.446	0.01440772
461.656	0.01445072
461.865	0.01442442
462.075	0.01425299
462.284	0.01403565
462.494	0.01388661
462.703	0.0136441
462.913	0.01355862
463.122	0.01344861
463.332	0.01331869
463.541	0.01336322
463.751	0.01343225
463.96	0.01340382
464.169	0.01332664
464.379	0.01332201
464.588	0.01320376
464.797	0.01310076
465.007	0.01287352
465.216	0.01283393
465.425	0.0128139
465.635	0.01275936
465.844	0.01269446
466.053	0.01253554
466.263	0.0125279
466.472	0.0124575
466.681	0.01227346
466.89	0.01215808
467.099	0.01210558
467.309	0.01202265
467.518	0.01202175
467.727	0.0119555
467.936	0.0118387
468.145	0.01178056
468.354	0.01164272
468.563	0.01155324
468.772	0.01143418
468.982	0.01137571
469.191	0.01124929
469.4	0.01129341
469.609	0.01111101
469.818	0.01107358
470.027	0.01094639
470.236	0.01088821
470.445	0.01078593
470.654	0.01072098
470.863	0.01063057
471.072	0.01071725
471.28	0.01066926
471.489	0.01064447
471.698	0.0105091
471.907	0.01047571
472.116	0.01044746
472.325	0.01037213
472.534	0.01027639
472.743	0.01026351
472.951	0.01035204
473.16	0.01030181
473.369	0.0102717
473.578	0.01030989
473.786	0.01023367
473.995	0.01017238
474.204	0.0101176
474.413	0.01001083
474.621	0.01004333
474.83	0.01004372
475.039	0.00992402
475.247	0.00985285
475.456	0.00982517
475.665	0.0097631
475.873	0.00974384
476.082	0.00974832
476.291	0.00965172
476.499	0.00971521
476.708	0.00985953
476.916	0.00982775
477.125	0.0097843
477.333	0.00971994
477.542	0.0096575
477.75	0.00959267
477.959	0.00955108
478.167	0.00946294
478.376	0.00941569
478.584	0.0094406
478.793	0.00942516
479.001	0.00943311
479.209	0.00939592
479.418	0.00931809
479.626	0.00928279
479.834	0.00928928
480.043	0.00922284
480.251	0.00924666
480.459	0.00913802
480.668	0.00920424
480.876	0.0091853
481.084	0.00913541
481.293	0.00912841
481.501	0.00915663
481.709	0.0091411
481.917	0.00921472
482.125	0.00917454
482.334	0.00908521
482.542	0.00911361
482.75	0.00906248
482.958	0.00900407
483.166	0.00893555
483.374	0.00889668
483.583	0.00897194
483.791	0.00900157
483.999	0.00894753
484.207	0.00894507
484.415	0.00898821
484.623	0.00898979
484.831	0.00894778
485.039	0.00884116
485.247	0.00885603
485.455	0.00891529
485.663	0.00895626
485.871	0.00900971
486.079	0.00905769
486.287	0.00919847
486.495	0.00921512
486.702	0.00927377
486.91	0.00921476
487.118	0.0092636
487.326	0.00923407
487.534	0.00921853
487.742	0.00911683
487.95	0.00917221
488.157	0.00913592
488.365	0.00927113
488.573	0.00922378
488.781	0.0092209
488.988	0.00926319
489.196	0.00928271
489.404	0.00932856
489.612	0.00935793
489.819	0.00937925
490.027	0.00938135
490.235	0.00938315
490.442	0.00939075
490.65	0.00945106
490.857	0.00941526
491.065	0.00938847
491.273	0.0093133
491.48	0.00941789
491.688	0.00950037
491.895	0.00954805
492.103	0.00954246
492.31	0.00955997
492.518	0.0096599
492.725	0.0097087
492.933	0.00971121
493.14	0.00974533
493.348	0.00969295
493.555	0.00978361
493.763	0.00980053
493.97	0.00980413
494.177	0.00980603
494.385	0.00982656
494.592	0.00989745
494.8	0.00998926
495.007	0.00997445
495.214	0.01000758
495.422	0.0100662
495.629	0.01013666
495.836	0.01016414
496.043	0.01013945
496.251	0.01019931
496.458	0.01023596
496.665	0.01040009
496.872	0.01040207
497.08	0.01047853
497.287	0.01057545
497.494	0.01063571
497.701	0.01068214
497.908	0.01068617
498.115	0.0106994
498.322	0.01083569
498.53	0.01082488
498.737	0.01084765
498.944	0.01095414
499.151	0.01100017
499.358	0.01111814
499.565	0.01114816
499.772	0.01119468
499.979	0.01128204
500.186	0.01130417
500.393	0.01129674
500.6	0.01136231
500.807	0.01135469
501.014	0.01141079
501.221	0.01138024
501.427	0.01138739
501.634	0.01144723
501.841	0.01145922
502.048	0.01150951
502.255	0.01164481
502.462	0.01169316
502.669	0.01178058
502.875	0.01185307
503.082	0.01193836
503.289	0.01202291
503.496	0.01208932
503.702	0.01210604
503.909	0.0121343
504.116	0.01218944
504.323	0.01222646
504.529	0.01228038
504.736	0.01237012
504.943	0.01249125
505.149	0.01253475
505.356	0.01265202
505.563	0.01274054
505.769	0.01286609
505.976	0.01294
506.182	0.01299604
506.389	0.01297675
506.595	0.01307175
506.802	0.01309605
507.008	0.01319881
507.215	0.01329673
507.421	0.01340078
507.628	0.01350675
507.834	0.01353024
508.041	0.01365442
508.247	0.01375066
508.454	0.01379705
508.66	0.01385521
508.866	0.01387211
509.073	0.01393071
509.279	0.01407554
509.486	0.01408433
509.692	0.01417825
509.898	0.01430434
510.105	0.01438225
510.311	0.01445827
510.517	0.0144953
510.723	0.01458577
510.93	0.01472735
511.136	0.01479048
511.342	0.01486971
511.548	0.01493906
511.754	0.01509635
511.961	0.01521954
512.167	0.01534824
512.373	0.01541811
512.579	0.01552839
512.785	0.01559399
512.991	0.01565041
513.197	0.01564265
513.404	0.01572257
513.61	0.01582167
513.816	0.01592738
514.022	0.01597952
514.228	0.01604144
514.434	0.01618843
514.64	0.01634341
514.846	0.01645825
515.052	0.01647605
515.258	0.0165742
515.464	0.01671101
515.669	0.01681404
515.875	0.01689105
516.081	0.01693807
516.287	0.01702736
516.493	0.01713299
516.699	0.01722286
516.905	0.01731027
517.111	0.01742771
517.316	0.01753109
517.522	0.01769986
517.728	0.01781589
517.934	0.0179144
518.139	0.01799073
518.345	0.0180537
518.551	0.01814125
518.757	0.01823287
518.962	0.01832714
519.168	0.01842511
519.374	0.01854866
519.579	0.0186841
519.785	0.01884246
519.991	0.01895103
520.196	0.01907189
520.402	0.01916309
520.607	0.01927701
520.813	0.01945875
521.018	0.019538
521.224	0.01966336
521.429	0.01980097
521.635	0.01988346
521.84	0.01998314
522.046	0.02005055
522.251	0.02010859
522.457	0.02022751
522.662	0.02030264
522.868	0.02041537
523.073	0.0205775
523.279	0.0207432
523.484	0.02087935
523.689	0.02103278
523.895	0.02117103
524.1	0.02130391
524.305	0.02143327
524.511	0.02155638
524.716	0.02165952
524.921	0.02183534
525.126	0.0218985
525.332	0.02200485
525.537	0.02215221
525.742	0.02230037
525.947	0.02246148
526.153	0.02257609
526.358	0.02272817
526.563	0.02289434
526.768	0.02307065
526.973	0.02320199
527.178	0.02333479
527.383	0.02349117
527.588	0.02366785
527.794	0.02372737
527.999	0.02390785
528.204	0.02406312
528.409	0.02420741
528.614	0.0242993
528.819	0.02439432
529.024	0.02451313
529.229	0.02472263
529.434	0.02480799
529.639	0.02487639
529.843	0.02501597
530.048	0.02519213
530.253	0.02534168
530.458	0.02554167
530.663	0.0256949
530.868	0.02589095
531.073	0.02608133
531.278	0.02627022
531.482	0.02643018
531.687	0.02658389
531.892	0.02669413
532.097	0.02681261
532.302	0.0269392
532.506	0.02713489
532.711	0.02722487
532.916	0.02740509
533.12	0.02757093
533.325	0.02775298
533.53	0.02793506
533.734	0.02813534
533.939	0.02826991
534.144	0.02845391
534.348	0.02860958
534.553	0.02878724
534.757	0.02892835
534.962	0.0290618
535.167	0.02922082
535.371	0.02941087
535.576	0.02961936
535.78	0.02978891
535.985	0.02995323
536.189	0.03013697
536.394	0.03033989
536.598	0.03053718
536.803	0.03075556
537.007	0.03093303
537.211	0.03108063
537.416	0.03125677
537.62	0.03147538
537.825	0.03169892
538.029	0.03183846
538.233	0.03196785
538.438	0.03212928
538.642	0.03234027
538.846	0.03256545
539.05	0.03274767
539.255	0.03297144
539.459	0.03319349
539.663	0.03342513
539.867	0.03362004
540.072	0.03382922
540.276	0.03400031
540.48	0.03418008
540.684	0.03427274
540.888	0.03443026
541.092	0.03460162
541.297	0.03481835
541.501	0.0350255
541.705	0.03519209
541.909	0.03541565
542.113	0.03564005
542.317	0.03588267
542.521	0.03607977
542.725	0.03629376
542.929	0.03651935
543.133	0.03678782
543.337	0.03700599
543.541	0.03720681
543.745	0.03741634
543.949	0.03767072
544.153	0.03784082
544.357	0.03803742
544.56	0.0382539
544.764	0.03845669
544.968	0.03868116
545.172	0.0388911
545.376	0.03907592
545.58	0.03932583
545.783	0.03950119
545.987	0.03970127
546.191	0.0399181
546.395	0.04019134
546.598	0.04045657
546.802	0.040672
547.006	0.04087994
547.21	0.04114918
547.413	0.04135422
547.617	0.04155311
547.821	0.0417295
548.024	0.04194268
548.228	0.04214397
548.431	0.04237567
548.635	0.04261559
548.839	0.04289499
549.042	0.04317555
549.246	0.04342436
549.449	0.04364327
549.653	0.04391572
549.856	0.04417462
550.06	0.0444316
550.263	0.04468283
550.467	0.04491747
550.67	0.04513376
550.874	0.04533998
551.077	0.04556352
551.28	0.04579565
551.484	0.0460344
551.687	0.04623992
551.891	0.04649915
552.094	0.0467649
552.297	0.04705811
552.501	0.04736853
552.704	0.0476334
552.907	0.04787552
553.11	0.04815273
553.314	0.04840482
553.517	0.04867123
553.72	0.04894909
553.923	0.04915991
554.127	0.04939418
554.33	0.04963785
554.533	0.0499054
554.736	0.05012872
554.939	0.0503718
555.142	0.05060571
555.345	0.05087805
555.549	0.051182
555.752	0.05142652
555.955	0.05168278
556.158	0.05196321
556.361	0.05228704
556.564	0.05255048
556.767	0.05286202
556.97	0.05315927
557.173	0.05343781
557.376	0.05369624
557.579	0.05397541
557.782	0.05420921
557.984	0.0545121
558.187	0.05476814
558.39	0.05502228
558.593	0.05531365
558.796	0.05558323
558.999	0.05585647
559.202	0.05615079
559.404	0.05638069
559.607	0.05665089
559.81	0.05694078
560.013	0.05722656
560.216	0.05753257
560.418	0.05785017
560.621	0.05817636
560.824	0.05856939
561.026	0.0589204
561.229	0.05921646
561.432	0.05955628
561.634	0.05987012
561.837	0.06013998
562.04	0.06045763
562.242	0.06072506
562.445	0.06099441
562.647	0.06131285
562.85	0.06157116
563.053	0.06186365
563.255	0.06221701
563.458	0.06248669
563.66	0.06278204
563.863	0.06309921
564.065	0.06339588
564.268	0.06371595
564.47	0.06405274
564.672	0.06432944
564.875	0.06462224
565.077	0.06489269
565.28	0.06522906
565.482	0.0655459
565.684	0.06582105
565.887	0.06605227
566.089	0.0663899
566.291	0.06670444
566.494	0.06706732
566.696	0.06730314
566.898	0.06761171
567.1	0.06795948
567.303	0.06832905
567.505	0.06863533
567.707	0.06891697
567.909	0.06921472
568.111	0.06958382
568.314	0.06992616
568.516	0.07021246
568.718	0.07055124
568.92	0.07089211
569.122	0.07124509
569.324	0.07157687
569.526	0.07188033
569.728	0.07221974
569.93	0.07257762
570.132	0.07288889
570.334	0.07318124
570.536	0.07351987
570.738	0.0738588
570.94	0.07418046
571.142	0.07446367
571.344	0.07484065
571.546	0.07513831
571.748	0.07548619
571.95	0.07579085
572.152	0.07609559
572.354	0.07646562
572.555	0.07678071
572.757	0.07707742
572.959	0.07745358
573.161	0.07779788
573.363	0.07813596
573.564	0.07851997
573.766	0.07885309
573.968	0.07922816
574.17	0.07957682
574.371	0.07991067
574.573	0.080205
574.775	0.08057702
574.976	0.08089188
575.178	0.08121646
575.38	0.08154579
575.581	0.08184296
575.783	0.08222907
575.985	0.08261442
576.186	0.08295443
576.388	0.0832956
576.589	0.08362204
576.791	0.08399726
576.992	0.08433352
577.194	0.0846356
577.395	0.08497049
577.597	0.0853145
577.798	0.08566765
578	0.08605594
578.201	0.08640898
578.402	0.08679059
578.604	0.08709464
578.805	0.08743843
579.007	0.08776828
579.208	0.08811805
579.409	0.08838679
579.611	0.08871538
579.812	0.08908884
580.013	0.08950744
580.215	0.08983131
580.416	0.09019987
580.617	0.09055247
580.818	0.09092812
581.019	0.09125231
581.221	0.09156524
581.422	0.09186589
581.623	0.09226421
581.824	0.09259535
582.025	0.09292265
582.226	0.09332983
582.428	0.09374934
582.629	0.09411288
582.83	0.09453742
583.031	0.09488021
583.232	0.09525734
583.433	0.09569169
583.634	0.09605285
583.835	0.09637133
584.036	0.09670726
584.237	0.09698271
584.438	0.0973466
584.639	0.09769785
584.84	0.09806069
585.041	0.09838426
585.242	0.09873865
585.442	0.09912556
585.643	0.09956149
585.844	0.09989216
586.045	0.1002346
586.246	0.10049689
586.447	0.1008572
586.647	0.10121513
586.848	0.1015707
587.049	0.10186758
587.25	0.10224887
587.45	0.10261223
587.651	0.10302043
587.852	0.10339065
588.053	0.10377686
588.253	0.10414376
588.454	0.10454145
588.655	0.10485781
588.855	0.10520424
589.056	0.10554932
589.256	0.10589242
589.457	0.10622987
589.658	0.10662754
589.858	0.10696035
590.059	0.10737046
590.259	0.10776971
590.46	0.10807122
590.66	0.10842098
590.861	0.10877358
591.061	0.10909842
591.262	0.10948707
591.462	0.10980583
591.662	0.11015803
591.863	0.11055413
592.063	0.11091154
592.264	0.11127537
592.464	0.11160413
592.664	0.11196068
592.865	0.11236086
593.065	0.11266226
593.265	0.11304823
593.465	0.11339523
593.666	0.1137233
593.866	0.11407096
594.066	0.11443379
594.266	0.11471632
594.467	0.11509494
594.667	0.11538469
594.867	0.11577587
595.067	0.1161304
595.267	0.11646131
595.467	0.11677641
595.668	0.11717066
595.868	0.11751207
596.068	0.11782776
596.268	0.11811312
596.468	0.11848096
596.668	0.11882265
596.868	0.11916637
597.068	0.11946909
597.268	0.11982484
597.468	0.12017253
597.668	0.12054193
597.868	0.12084644
598.068	0.1212085
598.268	0.12152556
598.467	0.12194455
598.667	0.1222196
598.867	0.12253583
599.067	0.1228683
599.267	0.12316053
599.467	0.12352015
599.667	0.12388341
599.866	0.12418057
600.066	0.12455744
600.266	0.1249319
600.466	0.12527882
600.665	0.1256613
600.865	0.12597708
601.065	0.12624521
601.264	0.12653417
601.464	0.12688565
601.664	0.12721801
601.863	0.12748394
602.063	0.12779661
602.263	0.12805299
602.462	0.12841419
602.662	0.12876639
602.861	0.12909447
603.061	0.12940634
603.26	0.12977942
603.46	0.13006271
603.659	0.13041222
603.859	0.13069651
604.058	0.13096736
604.258	0.13129595
604.457	0.13167543
604.657	0.13190511
604.856	0.13222683
605.056	0.1326031
605.255	0.13292908
605.454	0.1332747
605.654	0.13352301
605.853	0.13380322
606.052	0.13417449
606.252	0.13452308
606.451	0.13481482
606.65	0.13515317
606.849	0.13539785
607.049	0.13571597
607.248	0.13600466
607.447	0.13627451
607.646	0.13656602
607.845	0.13689502
608.045	0.13714539
608.244	0.13752022
608.443	0.13782973
608.642	0.13815232
608.841	0.13848125
609.04	0.13874581
609.239	0.13900542
609.438	0.13927908
609.637	0.13962024
609.836	0.13991226
610.035	0.14014624
610.234	0.14044218
610.433	0.14071507
610.632	0.14099587
610.831	0.14136873
611.03	0.14156952
611.229	0.14191201
611.428	0.14223046
611.627	0.14251728
611.826	0.14287427
612.025	0.14320717
612.224	0.14345201
612.422	0.14376983
612.621	0.14405966
612.82	0.14439824
613.019	0.14470438
613.218	0.14500287
613.416	0.14519135
613.615	0.14553316
613.814	0.1458304
614.012	0.14607445
614.211	0.14623611
614.41	0.14650418
614.608	0.14675904
614.807	0.14707551
615.006	0.14731109
615.204	0.14752012
615.403	0.14779716
615.602	0.14815166
615.8	0.14846572
615.999	0.14868634
616.197	0.14899553
616.396	0.14930831
616.594	0.14959916
616.793	0.14987134
616.991	0.15013565
617.19	0.15031264
617.388	0.15067655
617.586	0.15091419
617.785	0.15118571
617.983	0.15148995
618.182	0.15174413
618.38	0.15196185
618.578	0.15226235
618.777	0.15249446
618.975	0.15278369
619.173	0.15304813
619.372	0.15331707
619.57	0.15352729
619.768	0.15381427
619.966	0.15412907
620.165	0.15430974
620.363	0.15458376
620.561	0.15475436
620.759	0.15495779
620.957	0.15525174
621.155	0.15554204
621.354	0.15571406
621.552	0.15603545
621.75	0.15623423
621.948	0.15655189
622.146	0.15681876
622.344	0.15705689
622.542	0.15729092
622.74	0.15753273
622.938	0.15770616
623.136	0.15802686
623.334	0.15829148
623.532	0.15848146
623.73	0.15872125
623.928	0.15896269
624.126	0.15923665
624.324	0.15954591
624.522	0.1596117
624.719	0.15976351
624.917	0.16006861
625.115	0.1602545
625.313	0.16047384
625.511	0.16074877
625.708	0.1608834
625.906	0.16119623
626.104	0.16142073
626.302	0.16168409
626.499	0.16199848
626.697	0.16222369
626.895	0.16239204
627.093	0.16264022
627.29	0.16291289
627.488	0.16320441
627.686	0.16340865
627.883	0.16356177
628.081	0.16371806
628.278	0.16405529
628.476	0.1642866
628.673	0.16449259
628.871	0.16466686
629.068	0.16485249
629.266	0.16515081
629.463	0.16538518
629.661	0.16555204
629.858	0.16574876
630.056	0.16592998
630.253	0.16611968
630.451	0.16630768
630.648	0.16649316
630.845	0.16671471
631.043	0.16686703
631.24	0.167114
631.438	0.16734282
631.635	0.16756053
631.832	0.16774695
632.029	0.16798642
632.227	0.16818376
632.424	0.16844493
632.621	0.16861449
632.818	0.16882792
633.016	0.16907567
633.213	0.16928354
633.41	0.16948476
633.607	0.16970517
633.804	0.16987987
634.001	0.17005641
634.199	0.17025017
634.396	0.17044693
634.593	0.17061212
634.79	0.17077888
634.987	0.17103124
635.184	0.17120621
635.381	0.17148886
635.578	0.17171084
635.775	0.17185831
635.972	0.1720992
636.169	0.17228293
636.366	0.17238537
636.563	0.1725477
636.76	0.17267501
636.957	0.17286482
637.153	0.17301612
637.35	0.17320253
637.547	0.17338912
637.744	0.1736374
637.941	0.17386168
638.138	0.17407431
638.334	0.17420934
638.531	0.17447615
638.728	0.17466886
638.925	0.17490862
639.121	0.17506462
639.318	0.17524732
639.515	0.17538757
639.711	0.17562079
639.908	0.17571293
640.105	0.17582265
640.301	0.17588588
640.498	0.17607324
640.695	0.176278
640.891	0.17647699
641.088	0.17660025
641.284	0.17683065
641.481	0.17702092
641.677	0.17725377
641.874	0.17741001
642.07	0.17755478
642.267	0.17775688
642.463	0.17795713
642.66	0.17814991
642.856	0.17833813
643.053	0.17842688
643.249	0.1786139
643.445	0.17876199
643.642	0.17891569
643.838	0.1790521
644.034	0.17922019
644.231	0.17939164
644.427	0.1796287
644.623	0.17976435
644.82	0.1799644
645.016	0.18013788
645.212	0.18027582
645.408	0.18042382
645.604	0.18066355
645.801	0.18080806
645.997	0.18100474
646.193	0.18108737
646.389	0.18127655
646.585	0.1814741
646.781	0.18163233
646.977	0.18176846
647.173	0.18193954
647.37	0.18203661
647.566	0.18226617
647.762	0.18237353
647.958	0.18255491
648.154	0.18272494
648.35	0.18284787
648.546	0.18296059
648.742	0.18324932
648.937	0.1833232
649.133	0.18352216
649.329	0.18372542
649.525	0.18388036
649.721	0.18405949
649.917	0.18431489
650.113	0.18436994
650.309	0.18463099
650.504	0.18476457
650.7	0.18483942
650.896	0.18499762
651.092	0.18518174
651.287	0.18530797
651.483	0.1855112
651.679	0.18561304
651.875	0.18580679
652.07	0.18597429
652.266	0.18615322
652.462	0.18629259
652.657	0.18643879
652.853	0.18658243
653.048	0.18677367
653.244	0.18686985
653.44	0.18700623
653.635	0.18707085
653.831	0.18726555
654.026	0.18745379
654.222	0.18757694
654.417	0.18775115
654.613	0.18793775
654.808	0.18811847
655.004	0.18837597
655.199	0.18842437
655.394	0.18855137
655.59	0.18878871
655.785	0.1889172
655.98	0.18912378
656.176	0.18927851
656.371	0.189481
656.566	0.18970834
656.762	0.18982431
656.957	0.18992946
657.152	0.19004781
657.348	0.19017278
657.543	0.19032229
657.738	0.19044188
657.933	0.19055055
658.128	0.19069
658.324	0.19081805
658.519	0.19098551
658.714	0.19112173
658.909	0.19127875
659.104	0.19139383
659.299	0.19155411
659.494	0.19168833
659.689	0.19183022
659.884	0.1919679
660.079	0.19211011
660.274	0.19225849
660.469	0.1924303
660.664	0.19266536
660.859	0.19288665
661.054	0.19309133
661.249	0.19326374
661.444	0.19339581
661.639	0.19352553
661.834	0.19365414
662.029	0.19377759
662.224	0.19393897
662.418	0.19409846
662.613	0.19429488
662.808	0.19440726
663.003	0.19461027
663.198	0.19477993
663.392	0.19489998
663.587	0.19514127
663.782	0.19525138
663.977	0.19542961
664.171	0.19568856
664.366	0.19586753
664.561	0.19605556
664.755	0.19629467
664.95	0.19635425
665.144	0.19655328
665.339	0.19668571
665.534	0.19680731
665.728	0.19696731
665.923	0.19716057
666.117	0.19732203
666.312	0.19750409
666.506	0.19775426
666.701	0.19792218
666.895	0.19816576
667.09	0.19834554
667.284	0.19854681
667.479	0.19862593
667.673	0.19875297
667.867	0.19891399
668.062	0.19906032
668.256	0.19916579
668.45	0.19932611
668.645	0.1994432
668.839	0.19969994
669.033	0.19994966
669.228	0.20007698
669.422	0.20030999
669.616	0.20049832
669.81	0.20070585
670.004	0.2008214
670.199	0.20099189
670.393	0.20114301
670.587	0.2012944
670.781	0.2013988
670.975	0.20164342
671.169	0.20175249
671.363	0.20197818
671.558	0.20209538
671.752	0.20228057
671.946	0.20250144
672.14	0.20275351
672.334	0.20281399
672.528	0.20313923
672.722	0.20327865
672.916	0.20355278
673.11	0.20374164
673.304	0.20397147
673.497	0.20408538
673.691	0.20438683
673.885	0.20444906
674.079	0.20475732
674.273	0.20484746
674.467	0.20509043
674.661	0.2052075
674.854	0.2053959
675.048	0.20559154
675.242	0.20582055
675.436	0.20596868
675.629	0.20619044
675.823	0.20628619
676.017	0.20655893
676.211	0.20673647
676.404	0.20687819
676.598	0.20704453
676.792	0.20720893
676.985	0.20744247
677.179	0.20765833
677.372	0.20776686
677.566	0.20807451
677.76	0.208275
677.953	0.20850136
678.147	0.20871355
678.34	0.20894892
678.534	0.20917084
678.727	0.2094318
678.921	0.20963121
679.114	0.20981683
679.307	0.21003649
679.501	0.21026648
679.694	0.2104459
679.888	0.21064064
680.081	0.21082094
680.274	0.21096575
680.468	0.21116169
680.661	0.21136472
680.854	0.21161163
681.048	0.21182981
681.241	0.212023
681.434	0.2121684
681.627	0.21238083
681.821	0.212579
682.014	0.2128147
682.207	0.21288097
682.4	0.21310163
682.593	0.21334971
682.786	0.21358435
682.98	0.21376193
683.173	0.21406907
683.366	0.21423919
683.559	0.21448955
683.752	0.2146731
683.945	0.21488486
684.138	0.21513171
684.331	0.21537768
684.524	0.21561158
684.717	0.21576643
684.91	0.21604096
685.103	0.21625081
685.296	0.21643601
685.489	0.21662557
685.682	0.21683757
685.874	0.21704577
686.067	0.21734098
686.26	0.21755843
686.453	0.21773739
686.646	0.21797247
686.839	0.21825083
687.031	0.21849636
687.224	0.2186478
687.417	0.21892667
687.61	0.21912966
687.802	0.21940069
687.995	0.2196699
688.188	0.2198859
688.38	0.22008981
688.573	0.22035021
688.766	0.22050758
688.958	0.22073041
689.151	0.22092799
689.343	0.22116061
689.536	0.22139957
689.729	0.22163654
689.921	0.22187073
690.114	0.222029
690.306	0.2222545
690.499	0.22248167
690.691	0.22270654
690.884	0.22290502
691.076	0.22317753
691.268	0.22335505
691.461	0.22357723
691.653	0.22386994
691.846	0.2241348
692.038	0.2243462
692.23	0.22458322
692.423	0.22482186
692.615	0.22508685
692.807	0.22539278
692.999	0.22557446
693.192	0.22581828
693.384	0.22609336
693.576	0.22628789
693.768	0.22654344
693.961	0.22678489
694.153	0.22703949
694.345	0.22726057
694.537	0.22748048
694.729	0.22766032
694.921	0.22790452
695.113	0.22813713
695.305	0.22835586
695.498	0.22854396
695.69	0.22886211
695.882	0.22910483
696.074	0.22939066
696.266	0.22967213
696.458	0.22983177
696.65	0.23011299
696.842	0.23039975
697.033	0.23063435
697.225	0.23081141
697.417	0.23110462
697.609	0.23131411
697.801	0.23161317
697.993	0.23190988
698.185	0.23217231
698.376	0.23241837
698.568	0.23273015
698.76	0.23293941
698.952	0.23319194
699.144	0.23343912
699.335	0.23364498
699.527	0.23391993
699.719	0.2341301
699.91	0.23446331
700.102	0.23466368
700.294	0.23494934
700.485	0.2352019
700.677	0.2354387
700.869	0.23571642
701.06	0.23603154
701.252	0.23619633
701.443	0.23649523
701.635	0.23676499
701.826	0.23710964
702.018	0.23740087
702.209	0.23765045
702.401	0.23787445
702.592	0.23817711
702.784	0.23842244
702.975	0.23868709
703.166	0.23889868
703.358	0.23913101
703.549	0.23936593
703.741	0.23961108
703.932	0.23983901
704.123	0.24005295
704.315	0.24032368
704.506	0.24061366
704.697	0.2408587
704.888	0.24116541
705.08	0.24143974
705.271	0.241707
705.462	0.24201471
705.653	0.24221691
705.844	0.24239018
706.035	0.24265143
706.227	0.24282464
706.418	0.2430877
706.609	0.24337702
706.8	0.24367365
706.991	0.24393319
707.182	0.24420032
707.373	0.24445132
707.564	0.24475655
707.755	0.24496926
707.946	0.24519148
708.137	0.24537687
708.328	0.24563869
708.519	0.24592254
708.71	0.24621822
708.901	0.24647668
709.092	0.24676217
709.283	0.24708017
709.473	0.2473901
709.664	0.24765878
709.855	0.2479256
710.046	0.24818493
710.237	0.24838884
710.427	0.24862964
710.618	0.24887638
710.809	0.24908702
711	0.24935416
711.19	0.24953028
711.381	0.24981674
711.572	0.25007987
711.762	0.25035638
711.953	0.25060308
712.144	0.2508762
712.334	0.25112303
712.525	0.25152671
712.715	0.25173028
712.906	0.25194858
713.097	0.25214505
713.287	0.25235419
713.478	0.25259544
713.668	0.25289255
713.859	0.25305526
714.049	0.25335959
714.239	0.25365634
714.43	0.25393761
714.62	0.2541973
714.811	0.25447302
715.001	0.25474095
715.191	0.25503303
715.382	0.25521522
715.572	0.25554118
715.762	0.25580669
715.953	0.25610828
716.143	0.25639243
716.333	0.25660724
716.523	0.25682649
716.714	0.25717387
716.904	0.25741662
717.094	0.25773017
717.284	0.25788827
717.474	0.2581464
717.664	0.25846632
717.855	0.25871805
718.045	0.2589413
718.235	0.25919281
718.425	0.25951484
718.615	0.25989011
718.805	0.26014405
718.995	0.26040038
719.185	0.26076982
719.375	0.26103294
719.565	0.26129404
719.755	0.26150031
719.945	0.26171356
720.135	0.26201152
720.325	0.26232527
720.515	0.26254984
720.704	0.26277247
720.894	0.263145
721.084	0.26338666
721.274	0.26370942
721.464	0.26403985
721.654	0.26426586
721.843	0.26450668
722.033	0.26487238
722.223	0.26505324
722.413	0.26546837
722.602	0.26574967
722.792	0.2659512
722.982	0.26617998
723.171	0.26645045
723.361	0.26672032
723.55	0.26703217
723.74	0.26718645
723.93	0.267426
724.119	0.26770864
724.309	0.26800984
724.498	0.26830425
724.688	0.26857465
724.877	0.26878555
725.067	0.26901202
725.256	0.26920207
725.446	0.269415
725.635	0.26960503
725.825	0.26975386
726.014	0.26994646
726.203	0.27018481
726.393	0.27034255
726.582	0.27059483
726.771	0.27084543
726.961	0.27112332
727.15	0.27137282
727.339	0.27155005
727.529	0.27178123
727.718	0.27203962
727.907	0.27224717
728.096	0.27242096
728.286	0.27253111
728.475	0.27274337
728.664	0.27289776
728.853	0.27300956
729.042	0.27317224
729.231	0.27332556
729.42	0.27351125
729.609	0.27373301
729.799	0.27391067
729.988	0.27416843
730.177	0.27438305
730.366	0.27463799
730.555	0.27486521
730.744	0.27508695
730.933	0.27533382
731.122	0.27555767
731.31	0.27571061
731.499	0.27595981
731.688	0.27614989
731.877	0.27631534
732.066	0.27647612
732.255	0.27662201
732.444	0.27681916
732.632	0.27703257
732.821	0.2771961
733.01	0.27741071
733.199	0.27752856
733.388	0.27769967
733.576	0.27788668
733.765	0.27809718
733.954	0.27831321
734.142	0.27843763
734.331	0.27856668
734.52	0.27884415
734.708	0.27908272
734.897	0.27928395
735.086	0.27941473
735.274	0.27956161
735.463	0.27979041
735.651	0.27994056
735.84	0.28015144
736.028	0.28036968
736.217	0.2805521
736.405	0.28075511
736.594	0.28093227
736.782	0.28108011
736.971	0.28129074
737.159	0.28141471
737.347	0.28151556
737.536	0.28159415
737.724	0.28177554
737.912	0.28190191
738.101	0.28203878
738.289	0.2822153
738.477	0.28236504
738.666	0.28252459
738.854	0.28273558
739.042	0.28286899
739.23	0.2830629
739.418	0.28326537
739.607	0.2834101
739.795	0.2836353
739.983	0.28385254
740.171	0.28402944
740.359	0.2842023
740.547	0.28436269
740.735	0.28453609
740.923	0.28473488
741.112	0.2848585
741.3	0.28502115
741.488	0.28518948
741.676	0.28537896
741.864	0.28555237
742.052	0.28574829
742.239	0.28581587
742.427	0.28594264
742.615	0.28602251
742.803	0.28617892
742.991	0.28624025
743.179	0.28637084
743.367	0.28648984
743.555	0.28670633
743.742	0.28684925
743.93	0.28705743
744.118	0.28719671
744.306	0.28733205
744.494	0.2874737
744.681	0.28758004
744.869	0.28766204
745.057	0.28781373
745.244	0.28790308
745.432	0.28805387
745.62	0.28829981
745.807	0.28844795
745.995	0.28863206
746.182	0.28873559
746.37	0.28887184
746.558	0.28895464
746.745	0.2890091
746.933	0.28904582
747.12	0.2891622
747.308	0.28925582
747.495	0.28942108
747.683	0.28951051
747.87	0.28962502
748.057	0.2898222
748.245	0.29000238
748.432	0.29007823
748.62	0.29009794
748.807	0.29014654
748.994	0.29032123
749.182	0.29045893
749.369	0.29050612
749.556	0.29058814
749.743	0.29067739
749.931	0.29080439
750.118	0.29098377
750.305	0.29102805
750.492	0.29108317
750.68	0.29123492
750.867	0.29128911
751.054	0.29139661
751.241	0.29148251
751.428	0.29156705
751.615	0.29163649
751.802	0.29169625
751.989	0.2917183
752.176	0.2918614
752.363	0.29201853
752.55	0.29210969
752.737	0.29224769
752.924	0.29231343
753.111	0.29248188
753.298	0.29260841
753.485	0.29268436
753.672	0.2927425
753.859	0.29286153
754.046	0.29283251
754.233	0.29292301
754.42	0.29299105
754.606	0.29300528
754.793	0.29298077
754.98	0.29304882
755.167	0.29305809
755.353	0.29318359
755.54	0.2932555
755.727	0.29325225
755.914	0.29323484
756.1	0.29335519
756.287	0.2932966
756.474	0.2933484
756.66	0.29337552
756.847	0.29350711
757.033	0.29353833
757.22	0.29364454
757.407	0.29368975
757.593	0.29377911
757.78	0.29381809
757.966	0.29384075
758.153	0.2938005
758.339	0.29387611
758.526	0.29392617
758.712	0.29390801
758.898	0.29402636
759.085	0.29403425
759.271	0.29405273
759.458	0.29402248
759.644	0.29406144
759.83	0.29410951
760.017	0.29422087
760.203	0.2941661
760.389	0.29423202
760.576	0.29424833
760.762	0.29437714
760.948	0.2943799
761.134	0.29436467
761.32	0.29434918
761.507	0.29434747
761.693	0.29438963
761.879	0.29441213
762.065	0.29441409
762.251	0.29439271
762.437	0.29445729
762.623	0.29443883
762.809	0.29447447
762.995	0.29446366
763.181	0.29445007
763.367	0.29442572
763.553	0.29449241
763.739	0.29449063
763.925	0.29450456
764.111	0.29455016
764.297	0.2945542
764.483	0.29458373
764.669	0.29458341
764.855	0.29454422
765.041	0.29450096
765.227	0.29442465
765.412	0.29444926
765.598	0.29441345
765.784	0.2943785
765.97	0.29435036
766.156	0.2943348
766.341	0.29433521
766.527	0.2943603
766.713	0.29428023
766.898	0.29427904
767.084	0.29431393
767.27	0.29416646
767.455	0.29410871
767.641	0.2940627
767.827	0.29403886
768.012	0.29395665
768.198	0.2939144
768.383	0.29380548
768.569	0.29386714
768.754	0.29385306
768.94	0.29377932
769.125	0.29366705
769.311	0.29358696
769.496	0.29353637
769.682	0.2935062
769.867	0.29350233
770.052	0.29349042
770.238	0.29342645
770.423	0.29341717
770.608	0.29345051
770.794	0.29340331
770.979	0.29326597
771.164	0.29319672
771.35	0.29307596
771.535	0.293051
771.72	0.29297349
771.905	0.29287459
772.09	0.2927783
772.276	0.29283358
772.461	0.29270128
772.646	0.29269025
772.831	0.29261322
773.016	0.29254548
773.201	0.29242671
773.386	0.29237427
773.571	0.2922366
773.756	0.29217466
773.941	0.29201773
774.126	0.29200268
774.311	0.29192915
774.496	0.29190597
774.681	0.29174166
774.866	0.29166621
775.051	0.29156943
775.236	0.29151794
775.421	0.291294
775.606	0.29115037
775.791	0.29096463
775.976	0.29090973
776.16	0.29080179
776.345	0.29077514
776.53	0.29069559
776.715	0.29063474
776.899	0.29055508
777.084	0.29052649
777.269	0.29040821
777.454	0.29024446
777.638	0.29005485
777.823	0.28993141
778.008	0.28981236
778.192	0.28964937
778.377	0.28954227
778.561	0.28943835
778.746	0.28941117
778.931	0.28930238
779.115	0.28920557
779.3	0.28913198
779.484	0.2890769
779.669	0.28884725
779.853	0.28865724
780.037	0.28845851
780.222	0.28830126
780.406	0.28809426
780.591	0.28800177
780.775	0.2878465
780.959	0.28775072
781.144	0.28771058
781.328	0.28756266
781.512	0.28742479
781.697	0.28735397
781.881	0.28713774
782.065	0.28701066
782.249	0.28679587
782.434	0.28666448
782.618	0.28651439
782.802	0.28637797
782.986	0.28617341
783.17	0.28600856
783.354	0.28580009
783.539	0.28570772
783.723	0.28544784
783.907	0.28525236
784.091	0.28502635
784.275	0.28488562
784.459	0.28469161
784.643	0.28455011
784.827	0.2843459
785.011	0.2842222
785.195	0.28408565
785.379	0.28394715
785.563	0.28375464
785.747	0.2835817
785.93	0.28343188
786.114	0.28320656
786.298	0.28298318
786.482	0.28276635
786.666	0.2825949
786.85	0.28241032
787.033	0.28217904
787.217	0.28200653
787.401	0.28187765
787.585	0.28175891
787.768	0.28159955
787.952	0.28136909
788.136	0.28113026
788.319	0.28099155
788.503	0.28067689
788.687	0.28045258
788.87	0.28014752
789.054	0.27990061
789.237	0.27976653
789.421	0.27950471
789.605	0.27922715
789.788	0.27896813
789.972	0.27877512
790.155	0.27851174
790.338	0.27826528
790.522	0.27799226
790.705	0.27779356
790.889	0.27755786
791.072	0.27748767
791.256	0.27726881
791.439	0.27712505
791.622	0.27704541
791.806	0.27695656
791.989	0.27673253
792.172	0.2766096
792.355	0.27637457
792.539	0.27615435
792.722	0.27587886
792.905	0.27555262
793.088	0.27519946
793.271	0.27499855
793.455	0.27475949
793.638	0.27448693
793.821	0.27419558
794.004	0.2739803
794.187	0.27386731
794.37	0.27363795
794.553	0.2734233
794.736	0.27315992
794.919	0.27284284
795.102	0.27269756
795.285	0.27254382
795.468	0.27209562
795.651	0.27179404
795.834	0.27159403
796.017	0.27135075
796.2	0.27116966
796.383	0.27086923
796.566	0.27061603
796.749	0.27044176
796.931	0.27023757
797.114	0.26988237
797.297	0.26957032
797.48	0.26927305
797.663	0.26898833
797.845	0.26869859
798.028	0.26846134
798.211	0.26820073
798.393	0.26796125
798.576	0.26775827
798.759	0.26749584
798.941	0.26721265
799.124	0.26688058
799.307	0.26659638
799.489	0.26632952
799.672	0.26608869
799.854	0.26574226
800.037	0.26552524
800.219	0.26529348
800.402	0.26516571
800.584	0.26488191
800.767	0.26464835
800.949	0.26438083
801.132	0.26425502
801.314	0.26395881
801.496	0.26372739
801.679	0.26334588
801.861	0.26313478
802.043	0.2627474
802.226	0.26242407
802.408	0.26202741
802.59	0.26172625
802.772	0.26139582
802.955	0.26109627
803.137	0.26071114
803.319	0.26050603
803.501	0.26019267
803.684	0.25987129
803.866	0.25948965
804.048	0.25917883
804.23	0.25889519
804.412	0.25859769
804.594	0.25818829
804.776	0.25790868
804.958	0.25763514
805.14	0.2574362
805.322	0.2571495
805.504	0.25677277
805.686	0.25655661
805.868	0.25631029
806.05	0.25601415
806.232	0.25573466
806.414	0.25543136
806.596	0.25513806
806.778	0.25484437
806.96	0.25448493
807.141	0.25415577
807.323	0.25388217
807.505	0.25349777
807.687	0.25320116
807.869	0.25283089
808.05	0.25263256
808.232	0.25225039
808.414	0.2519201
808.595	0.25160184
808.777	0.25137053
808.959	0.25106001
809.14	0.25078878
809.322	0.25040351
809.504	0.25008728
809.685	0.24986133
809.867	0.24950305
810.048	0.24915467
810.23	0.24880124
810.411	0.24841624
810.593	0.24803867
810.774	0.24775659
810.956	0.24733052
811.137	0.24692223
811.319	0.24657977
811.5	0.2462268
811.681	0.24594687
811.863	0.24563699
812.044	0.24527347
812.225	0.2450056
812.407	0.24469325
812.588	0.24438964
812.769	0.24409264
812.951	0.2437769
813.132	0.24341145
813.313	0.24312872
813.494	0.24267396
813.675	0.24236183
813.857	0.24198426
814.038	0.24165371
814.219	0.24127619
814.4	0.24091701
814.581	0.24059506
814.762	0.24034528
814.943	0.23999161
815.124	0.23956677
815.305	0.23918028
815.486	0.23880557
815.667	0.23857484
815.848	0.23819004
816.029	0.23776884
816.21	0.23740869
816.391	0.23716053
816.572	0.23671733
816.753	0.23636669
816.934	0.23596907
817.115	0.23559721
817.295	0.23528197
817.476	0.2349158
817.657	0.23448804
817.838	0.23427719
818.019	0.23391327
818.199	0.23349558
818.38	0.23310895
818.561	0.23272972
818.741	0.23240291
818.922	0.23199553
819.103	0.23156352
819.283	0.23121062
819.464	0.23088861
819.645	0.23053429
819.825	0.23024241
820.006	0.229816
820.186	0.22950284
820.367	0.22915663
820.547	0.22883947
820.728	0.2284259
820.908	0.22797641
821.089	0.22759731
821.269	0.22731946
821.45	0.22696278
821.63	0.2265014
821.81	0.22610594
821.991	0.2258108
822.171	0.22558942
822.351	0.22517548
822.532	0.22470074
822.712	0.22431294
822.892	0.22397321
823.072	0.22352955
823.253	0.22310487
823.433	0.22270222
823.613	0.22229002
823.793	0.22192594
823.973	0.22161845
824.154	0.2213019
824.334	0.22097492
824.514	0.22058794
824.694	0.22018102
824.874	0.21973677
825.054	0.2193514
825.234	0.2189647
825.414	0.2185705
825.594	0.21816859
825.774	0.21781504
825.954	0.21748749
826.134	0.21720245
826.314	0.21683155
826.494	0.21636798
826.674	0.21592012
826.854	0.21548499
827.033	0.21497663
827.213	0.21461041
827.393	0.21414512
827.573	0.21383976
827.753	0.21346151
827.932	0.21313806
828.112	0.21287812
828.292	0.21262286
828.472	0.21214163
828.651	0.21184942
828.831	0.21141829
829.011	0.21112739
829.19	0.21065901
829.37	0.21022723
829.549	0.20980871
829.729	0.20941349
829.909	0.20892211
830.088	0.20852191
830.268	0.2079249
830.447	0.20755326
830.627	0.20713323
830.806	0.20676156
830.986	0.20635333
831.165	0.20604518
831.344	0.20564284
831.524	0.20537628
831.703	0.20496722
831.883	0.20450809
832.062	0.20405487
832.241	0.20363576
832.421	0.20322041
832.6	0.2028696
832.779	0.20242269
832.958	0.20199757
833.138	0.20165038
833.317	0.20132027
833.496	0.20096441
833.675	0.20059257
833.854	0.20023723
834.034	0.19988955
834.213	0.19949997
834.392	0.19909999
834.571	0.1986266
834.75	0.19824557
834.929	0.19777425
835.108	0.19725531
835.287	0.19675734
835.466	0.19639543
835.645	0.19602642
835.824	0.19567428
836.003	0.19524477
836.182	0.19492717
836.361	0.19458472
836.54	0.19424123
836.719	0.19383277
836.897	0.19343062
837.076	0.19292815
837.255	0.19246288
837.434	0.1919945
837.613	0.19147138
837.791	0.19112149
837.97	0.19069662
838.149	0.19023397
838.328	0.18987728
838.506	0.18955343
838.685	0.1891479
838.864	0.18885452
839.042	0.18839369
839.221	0.1880749
839.4	0.18770037
839.578	0.18729432
839.757	0.18685212
839.935	0.18648491
840.114	0.18610959
840.292	0.18578568
840.471	0.18537656
840.649	0.18496755
840.828	0.18457713
841.006	0.18418007
841.185	0.18373887
841.363	0.1833561
841.541	0.18292924
841.72	0.18255191
841.898	0.18220688
842.076	0.18177909
842.255	0.18129076
842.433	0.18088914
842.611	0.18041974
842.789	0.17994767
842.968	0.17944568
843.146	0.17899077
843.324	0.17875861
843.502	0.17850344
843.68	0.17814513
843.859	0.17779011
844.037	0.17743208
844.215	0.17712266
844.393	0.17678918
844.571	0.17631015
844.749	0.17591638
844.927	0.17550405
845.105	0.17503454
845.283	0.17463074
845.461	0.17418995
845.639	0.17374438
845.817	0.17325593
845.995	0.17289847
846.173	0.17253931
846.351	0.17220085
846.529	0.17186011
846.706	0.17143809
846.884	0.17105643
847.062	0.17066747
847.24	0.17018892
847.418	0.16971081
847.595	0.16928227
847.773	0.16878963
847.951	0.16839852
848.129	0.1679421
848.306	0.16762528
848.484	0.16722823
848.662	0.166899
848.839	0.16651939
849.017	0.16624707
849.194	0.1658676
849.372	0.16548067
849.549	0.1650265
849.727	0.16468642
849.905	0.16424023
850.082	0.16380773
850.26	0.16330907
850.437	0.16296486
850.614	0.16265152
850.792	0.16234139
850.969	0.16193015
851.147	0.16154257
851.324	0.1612419
851.501	0.16092338
851.679	0.16041035
851.856	0.15998312
852.033	0.15953174
852.211	0.15909847
852.388	0.15870229
852.565	0.15827803
852.742	0.15787559
852.92	0.15756273
853.097	0.15712751
853.274	0.15675138
853.451	0.15641778
853.628	0.15607138
853.805	0.15565892
853.982	0.15522022
854.159	0.15477691
854.336	0.15443093
854.514	0.15397155
854.691	0.15356448
854.868	0.15315207
855.045	0.15267899
855.221	0.1522132
855.398	0.15180516
855.575	0.15137884
855.752	0.15103815
855.929	0.15068739
856.106	0.15037927
856.283	0.15007341
856.46	0.14987123
856.637	0.14959208
856.813	0.14933321
856.99	0.14892931
857.167	0.14849984
857.344	0.14806088
857.52	0.14754623
857.697	0.14711435
857.874	0.14665289
858.05	0.1461973
858.227	0.1458335
858.404	0.14544423
858.58	0.14511621
858.757	0.14494769
858.933	0.144584
859.11	0.14431823
859.287	0.14385648
859.463	0.14344412
859.64	0.14310493
859.816	0.14262662
859.993	0.14213696
860.169	0.14172707
860.345	0.14124564
860.522	0.140961
860.698	0.1405644
860.875	0.14006626
861.051	0.13976706
861.227	0.13941428
861.404	0.13909379
861.58	0.13883734
861.756	0.138487
861.932	0.13824801
862.109	0.13795268
862.285	0.13753094
862.461	0.13719194
862.637	0.13673769
862.813	0.13619734
862.99	0.13566444
863.166	0.13524189
863.342	0.13492497
863.518	0.1344709
863.694	0.13412478
863.87	0.13380229
864.046	0.13353478
864.222	0.13323113
864.398	0.13288754
864.574	0.13246503
864.75	0.13219294
864.926	0.13181922
865.102	0.13139719
865.278	0.13098754
865.454	0.1306862
865.63	0.13019713
865.805	0.12981062
865.981	0.12940987
866.157	0.12909102
866.333	0.12879972
866.509	0.12851056
866.684	0.12811432
866.86	0.12792719
867.036	0.12765398
867.212	0.12738288
867.387	0.12702161
867.563	0.12676008
867.739	0.12635624
867.914	0.12607609
868.09	0.12562173
868.265	0.12520975
868.441	0.1247969
868.617	0.12444459
868.792	0.12394598
868.968	0.12365203
869.143	0.1232914
869.319	0.12306318
869.494	0.12274868
869.67	0.12243401
869.845	0.12208522
870.02	0.12176606
870.196	0.12136773
870.371	0.12093941
870.546	0.1204371
870.722	0.12008347
870.897	0.11960253
871.072	0.11919918
871.248	0.11877025
871.423	0.11839897
871.598	0.11813681
871.773	0.11780114
871.949	0.11744463
872.124	0.1171599
872.299	0.11676096
872.474	0.1164871
872.649	0.11624399
872.824	0.11581225
872.999	0.11545009
873.174	0.11506486
873.349	0.11477461
873.524	0.11443168
873.699	0.11410961
873.874	0.11372422
874.049	0.1135289
874.224	0.1133823
874.399	0.11302669
874.574	0.11272287
874.749	0.11252953
874.924	0.11220694
875.099	0.11182708
875.274	0.11130416
875.449	0.11076079
875.623	0.11036008
875.798	0.10994797
875.973	0.10952301
876.148	0.10907223
876.322	0.10867252
876.497	0.10836212
876.672	0.10809924
876.846	0.10791022
877.021	0.1076383
877.196	0.10728021
877.37	0.10699254
877.545	0.10675782
877.72	0.10652385
877.894	0.10620495
878.069	0.10583133
878.243	0.10540806
878.418	0.10509627
878.592	0.10468631
878.767	0.10426369
878.941	0.10389234
879.116	0.10356059
879.29	0.10319563
879.464	0.10302846
879.639	0.1026871
879.813	0.10253655
879.987	0.10235261
880.162	0.10201972
880.336	0.10178947
880.51	0.10162867
880.685	0.1012971
880.859	0.10109898
881.033	0.10069534
881.207	0.10020047
881.381	0.09993347
881.556	0.09959767
881.73	0.09920875
881.904	0.09884864
882.078	0.09848452
882.252	0.09821891
882.426	0.09814176
882.6	0.0979654
882.774	0.09766829
882.948	0.09743228
883.122	0.09706573
883.296	0.09683346
883.47	0.09667346
883.644	0.09634684
883.818	0.09586166
883.992	0.0955075
884.166	0.09525064
884.34	0.09504859
884.514	0.09487961
884.687	0.09452556
884.861	0.09414677
885.035	0.09385816
885.209	0.09355242
885.382	0.09323449
885.556	0.0929604
885.73	0.09256489
885.904	0.09214316
886.077	0.09184636
886.251	0.09169448
886.425	0.09147944
886.598	0.09113834
886.772	0.09070213
886.945	0.09021388
887.119	0.08989268
887.292	0.08957344
887.466	0.08915833
887.64	0.08878628
887.813	0.08853101
887.986	0.08843276
888.16	0.08838612
888.333	0.08829082
888.507	0.08813321
888.68	0.08790955
888.854	0.08772279
889.027	0.08743602
889.2	0.08705142
889.374	0.08669816
889.547	0.08633764
889.72	0.08603788
889.893	0.08577835
890.067	0.08535883
890.24	0.08499064
890.413	0.08467237
890.586	0.08423666
890.759	0.08391143
890.933	0.08359952
891.106	0.08322878
891.279	0.08317802
891.452	0.08302611
891.625	0.08283376
891.798	0.08268264
891.971	0.08242793
892.144	0.08203725
892.317	0.08179219
892.49	0.08135307
892.663	0.08093337
892.836	0.08064764
893.009	0.0803602
893.182	0.08007949
893.355	0.07986515
893.527	0.07959424
893.7	0.07942437
893.873	0.07915029
894.046	0.07888473
894.219	0.07871503
894.391	0.07845716
894.564	0.07827849
894.737	0.07797399
894.91	0.07769685
895.082	0.07750473
895.255	0.07713172
895.428	0.07671539
895.6	0.07639165
895.773	0.07612105
895.945	0.07588464
896.118	0.07561197
896.291	0.07549405
896.463	0.07533428
896.636	0.07516342
896.808	0.07504919
896.981	0.07474881
897.153	0.07456406
897.326	0.0742064
897.498	0.07371354
897.67	0.07352272
897.843	0.07328129
898.015	0.07306745
898.187	0.07289071
898.36	0.07252584
898.532	0.07235019
898.704	0.07232961
898.877	0.07191735
899.049	0.07158846
899.221	0.0713709
899.393	0.07116293
899.566	0.07111092
899.738	0.07098841
899.91	0.07064775
900.082	0.07056073
900.254	0.07044063
900.426	0.07016245
900.598	0.06983769
900.77	0.06943355
900.942	0.06905454
901.114	0.06873266
901.286	0.06837815
901.458	0.06801875
901.63	0.06769157
901.802	0.06747299
901.974	0.06731263
902.146	0.06711305
902.318	0.06704085
902.49	0.06684901
902.662	0.06663959
902.834	0.0665089
903.005	0.0662774
903.177	0.06604021
903.349	0.06574068
903.521	0.06542293
903.693	0.06530502
903.864	0.06510434
904.036	0.0648216
904.208	0.06453354
904.379	0.06418683
904.551	0.06395706
904.723	0.0638618
904.894	0.06359346
905.066	0.06342718
905.237	0.06325164
905.409	0.06313304
905.58	0.06313262
905.752	0.06298594
905.923	0.06258557
906.095	0.06222604
906.266	0.06190618
906.438	0.06156174
906.609	0.06138025
906.78	0.06097965
906.952	0.06071442
907.123	0.06053791
907.295	0.06040634
907.466	0.06025759
907.637	0.06013493
907.808	0.0599213
907.98	0.0598187
908.151	0.05970389
908.322	0.05958176
908.493	0.05939645
908.665	0.05918945
908.836	0.05891103
909.007	0.05868353
909.178	0.05858517
909.349	0.05816273
909.52	0.05783372
909.691	0.05748374
909.862	0.05722071
910.033	0.05699959
910.204	0.05676545
910.375	0.05643142
910.546	0.05635357
910.717	0.05612045
910.888	0.05610692
911.059	0.0560868
911.23	0.05598125
911.401	0.05566717
911.572	0.05543316
911.742	0.0552023
911.913	0.05504783
912.084	0.05475107
912.255	0.05429502
912.426	0.0539607
912.596	0.05370848
912.767	0.0535321
912.938	0.05326463
913.108	0.05292692
913.279	0.05273669
913.45	0.05261347
913.62	0.05242624
913.791	0.05229973
913.962	0.0519673
914.132	0.05192139
914.303	0.05181695
914.473	0.05157333
914.644	0.05138424
914.814	0.05117486
914.985	0.05094247
915.155	0.05083086
915.326	0.05037639
915.496	0.05035014
915.666	0.05027813
915.837	0.05006989
916.007	0.04997753
916.177	0.04984964
916.348	0.04960469
916.518	0.04980252
916.688	0.04961864
916.858	0.0494739
917.029	0.04928938
917.199	0.04913037
917.369	0.04899807
917.539	0.0489054
917.709	0.04842829
917.88	0.04820992
918.05	0.04792969
918.22	0.04768279
918.39	0.04734478
918.56	0.04711482
918.73	0.04692677
918.9	0.046951
919.07	0.04667166
919.24	0.04651023
919.41	0.04651901
919.58	0.04647886
919.75	0.04635326
919.92	0.04618914
920.09	0.04597961
920.26	0.04581621
920.429	0.04558909
920.599	0.04533985
920.769	0.04514057
920.939	0.04483021
921.109	0.04466232
921.278	0.04453248
921.448	0.04439336
921.618	0.04424772
921.787	0.04403213
921.957	0.04391341
922.127	0.0438337
922.296	0.04370101
922.466	0.04340913
922.636	0.04334609
922.805	0.04319408
922.975	0.0430505
923.144	0.04284291
923.314	0.04270814
923.483	0.04261467
923.653	0.04243095
923.822	0.04216561
923.992	0.0420063
924.161	0.04184904
924.331	0.0416719
924.5	0.04155383
924.669	0.04129761
924.839	0.04116856
925.008	0.04100549
925.177	0.04089164
925.347	0.04089249
925.516	0.04090957
925.685	0.04071868
925.854	0.04060767
926.023	0.04057247
926.193	0.04039233
926.362	0.04028797
926.531	0.04005542
926.7	0.03979405
926.869	0.03975161
927.038	0.03954065
927.207	0.03942196
927.376	0.03926469
927.545	0.0391055
927.715	0.03905606
927.884	0.0390367
928.052	0.03889207
928.221	0.03875074
928.39	0.03852195
928.559	0.03848061
928.728	0.03828654
928.897	0.03813337
929.066	0.03787308
929.235	0.03778116
929.404	0.03780281
929.572	0.03784927
929.741	0.03776889
929.91	0.03773463
930.079	0.03749028
930.247	0.03727337
930.416	0.03700445
930.585	0.03697566
930.753	0.03687894
930.922	0.03669892
931.091	0.03646397
931.259	0.03624078
931.428	0.03633836
931.596	0.036204
931.765	0.03586453
931.934	0.03556157
932.102	0.03547778
932.27	0.03549909
932.439	0.03536018
932.607	0.03517836
932.776	0.03518245
932.944	0.03507328
933.113	0.03493594
933.281	0.03469775
933.449	0.03449307
933.618	0.03453118
933.786	0.03441693
933.954	0.03424556
934.123	0.03430175
934.291	0.03416182
934.459	0.03407028
934.627	0.03395584
934.795	0.03382289
934.964	0.033865
935.132	0.03366961
935.3	0.0335889
935.468	0.03354858
935.636	0.03364442
935.804	0.03359704
935.972	0.03365416
936.14	0.03342482
936.308	0.03347889
936.476	0.03313513
936.644	0.03340139
936.812	0.03338637
936.98	0.03320196
937.148	0.03337783
937.316	0.03316581
937.484	0.03340549
937.652	0.03344232
937.82	0.03314604
937.987	0.03303532
938.155	0.03355144
938.323	0.03344674
938.491	0.03358901
938.658	0.03323552
938.826	0.03359132
938.994	0.03324056
939.162	0.03344066
939.329	0.03293745
939.497	0.03310953
939.665	0.03318734
939.832	0.03374838
940	0.0337162
940.167	0.03465725
940.335	0.03469771
940.502	0.03495531
940.67	0.03470727
940.837	0.03491821
941.005	0.03444407
941.172	0.03457209
941.34	0.03493096
941.507	0.03645438
941.674	0.03707709
941.842	0.0370105
942.009	0.03730287
942.177	0.03771966
942.344	0.0382768
942.511	0.03749776
942.678	0.03603627
942.846	0.03581916
943.013	0.03677087
943.18	0.03646987
943.347	0.0363697
943.514	0.03588977
943.682	0.03661154
943.849	0.03674041
944.016	0.03717237
944.183	0.0371964
944.35	0.03794881
944.517	0.03858777
944.684	0.03896217
944.851	0.0378261
945.018	0.0382751
945.185	0.0380854
945.352	0.03731138
945.519	0.03665819
945.686	0.03612171
945.853	0.03512134
946.02	0.03561608
946.187	0.03452992
946.353	0.03430444
946.52	0.0342159
946.687	0.03378682
946.854	0.03367758
947.021	0.03442539
947.187	0.0338313
947.354	0.03437758
947.521	0.03458304
947.687	0.03467766
947.854	0.03479724
948.021	0.03453277
948.187	0.03436561
948.354	0.0342498
948.52	0.03452423
948.687	0.03458671
948.854	0.03482111
949.02	0.03458018
949.187	0.03462128
949.353	0.0344267
949.52	0.0342703
949.686	0.03311085
949.852	0.03224964
950.019	0.03190829
950.185	0.03125359
950.352	0.03040494
950.518	0.02949295
950.684	0.02991339
950.851	0.02953268
951.017	0.02942661
951.183	0.02886675
951.349	0.02981807
951.516	0.02985239
951.682	0.02986036
951.848	0.02928432
952.014	0.02945584
952.18	0.02943788
952.346	0.02862071
952.512	0.02746117
952.679	0.02715822
952.845	0.02696947
953.011	0.02672377
953.177	0.02664812
953.343	0.0256158
953.509	0.025557
953.675	0.02568664
953.841	0.02528126
954.007	0.02562801
954.172	0.02593134
954.338	0.02548003
954.504	0.02607212
954.67	0.02633166
954.836	0.02629318
955.002	0.0268063
955.167	0.02618425
955.333	0.02508604
955.499	0.02481657
955.665	0.02455358
955.83	0.02453955
955.996	0.02430499
956.162	0.02367466
956.327	0.02383942
956.493	0.02425717
956.659	0.02431552
956.824	0.02407284
956.99	0.02359466
957.155	0.0232827
957.321	0.02336222
957.486	0.0226404
957.652	0.02199054
957.817	0.02200024
957.983	0.02144526
958.148	0.02161483
958.314	0.02145135
958.479	0.02105303
958.644	0.02174059
958.81	0.02203648
958.975	0.02163576
959.14	0.02157714
959.306	0.02092606
959.471	0.02107437
959.636	0.02125279
959.801	0.02038041
959.967	0.02013165
960.132	0.0202133
960.297	0.02027644
960.462	0.02077194
960.627	0.02054698
960.792	0.02031061
960.957	0.02047822
961.123	0.02046098
961.288	0.02027051
961.453	0.02006183
961.618	0.01969881
961.783	0.01941254
961.948	0.01933342
962.113	0.01938819
962.277	0.01915519
962.442	0.01882451
962.607	0.01899108
962.772	0.0187252
962.937	0.01881169
963.102	0.01839521
963.267	0.01817755
963.431	0.01806529
963.596	0.01837189
963.761	0.01824525
963.926	0.0181194
964.09	0.01835452
964.255	0.01838256
964.42	0.01836077
964.584	0.0187289
964.749	0.0184675
964.914	0.01833282
965.078	0.01806314
965.243	0.01758972
965.407	0.01762491
965.572	0.01714025
965.736	0.01657007
965.901	0.01635561
966.065	0.01620334
966.23	0.01669784
966.394	0.01686326
966.559	0.01688234
966.723	0.01654335
966.887	0.01661748
967.052	0.01647672
967.216	0.01639598
967.38	0.01615093
967.545	0.01600671
967.709	0.01615948
967.873	0.01659667
968.037	0.01680183
968.202	0.01730956
968.366	0.01783052
968.53	0.01758904
968.694	0.01805925
968.858	0.01803639
969.022	0.01807851
969.187	0.01760077
969.351	0.01719925
969.515	0.01663492
969.679	0.01698808
969.843	0.01621582
970.007	0.01587089
970.171	0.0160412
970.335	0.01639994
970.499	0.01631905
970.662	0.01639495
970.826	0.01619613
970.99	0.01632089
971.154	0.01620416
971.318	0.01556714
971.482	0.01523435
971.645	0.0154757
971.809	0.0153338
971.973	0.01545806
972.137	0.01553908
972.3	0.01585915
972.464	0.01632684
972.628	0.01589016
972.791	0.01552222
972.955	0.01558961
973.119	0.01502608
973.282	0.01495056
973.446	0.0148367
973.609	0.01460678
973.773	0.01498656
973.936	0.01489359
974.1	0.01477222
974.263	0.01479098
974.427	0.01463868
974.59	0.01432705
974.754	0.01443829
974.917	0.01443936
975.08	0.01436642
975.244	0.01420153
975.407	0.01432031
975.57	0.0140618
975.734	0.01396519
975.897	0.01375051
976.06	0.01348285
976.223	0.01333304
976.387	0.01339114
976.55	0.01355664
976.713	0.01325608
976.876	0.0133946
977.039	0.01334944
977.202	0.0135222
977.365	0.01347435
977.528	0.0131703
977.692	0.01246109
977.855	0.01301482
978.018	0.01285449
978.181	0.01284083
978.344	0.01301117
978.506	0.01335715
978.669	0.01352339
978.832	0.01378383
978.995	0.01371177
979.158	0.01362935
979.321	0.013026
979.484	0.01289464
979.646	0.01287181
979.809	0.01299045
979.972	0.01321222
980.135	0.01268361
980.297	0.01298968
980.46	0.01350467
980.623	0.01357766
980.786	0.01337084
980.948	0.01327483
981.111	0.01301126
981.273	0.0130644
981.436	0.01283005
981.599	0.01319447
981.761	0.01305475
981.924	0.01308669
982.086	0.01285389
982.249	0.01289053
982.411	0.0130725
982.573	0.0127272
982.736	0.01264836
982.898	0.01294869
983.061	0.01296645
983.223	0.01343982
983.385	0.0136926
983.548	0.01339618
983.71	0.0132482
983.872	0.01313365
984.034	0.01229554
984.197	0.01209845
984.359	0.0117516
984.521	0.01191545
984.683	0.01236094
984.845	0.01302292
985.008	0.01259337
985.17	0.012962
985.332	0.01286705
985.494	0.01295084
985.656	0.01257157
985.818	0.01232358
985.98	0.01222861
986.142	0.01215781
986.304	0.01263644
986.466	0.01219439
986.628	0.01201673
986.79	0.01215762
986.952	0.01206844
987.113	0.01200735
987.275	0.01178268
987.437	0.01116147
987.599	0.01145101
987.761	0.01137682
987.922	0.01121899
988.084	0.011386
988.246	0.01164342
988.408	0.012431
988.569	0.01282322
988.731	0.01334169
988.893	0.01346297
989.054	0.01372774
989.216	0.01321311
989.377	0.0132425
989.539	0.01288853
989.701	0.01260696
989.862	0.01263934
990.024	0.01228813
990.185	0.01238963
990.347	0.01271613
990.508	0.01197179
990.669	0.01257732
990.831	0.01190588
990.992	0.0116284
991.154	0.01169054
991.315	0.01079884
991.476	0.0114491
991.638	0.01149296
991.799	0.01109378
991.96	0.0110734
992.121	0.01106067
992.283	0.01119795
992.444	0.01183504
992.605	0.01194117
992.766	0.01152575
992.927	0.01132849
993.088	0.01168174
993.249	0.01178907
993.41	0.01158743
993.572	0.01147785
993.733	0.01112628
993.894	0.01216275
994.055	0.01213499
994.216	0.01283558
994.376	0.0128062
994.537	0.0128669
994.698	0.01321204
994.859	0.01292229
995.02	0.01263647
995.181	0.01236599
995.342	0.01207758
995.503	0.01187522
995.663	0.01213204
995.824	0.011754
995.985	0.01246155
996.146	0.01220969
996.306	0.01239865
996.467	0.01247754
996.628	0.01307079
996.788	0.01263009
996.949	0.01275233
997.11	0.01177695
997.27	0.01128693
997.431	0.01138199
997.591	0.01082924
997.752	0.01050539
997.912	0.01161857
998.073	0.0110959
998.233	0.01174145
998.394	0.01227039
998.554	0.01268719
998.714	0.01344619
998.875	0.0134361
999.035	0.01211534
999.196	0.01278896
999.356	0.01213964
999.516	0.01266228
999.676	0.01266266
999.837	0.01207614
999.997	0.01139997
1000.157	0.01221401
1000.317	0.01137565
1000.477	0.01190099
1000.638	0.01171294
1000.798	0.01105126
1000.958	0.0105324
1001.118	0.0117154
1001.278	0.01157467
1001.438	0.01218879
1001.598	0.01229245
1001.758	0.011776
1001.918	0.01249057
1002.078	0.01273138
1002.238	0.01191022
1002.398	0.01226416
1002.558	0.01269105
1002.718	0.01257373
1002.878	0.0125619
1003.037	0.01141317
1003.197	0.01222627
1003.357	0.01237962
1003.517	0.01299698
1003.677	0.01337735
1003.836	0.01320491
1003.996	0.0141147
1004.156	0.0148001
1004.315	0.01433555
1004.475	0.01387662
1004.635	0.01253771
1004.794	0.01125188
1004.954	0.01171592
1005.114	0.01139268
1005.273	0.01198301
1005.433	0.01252727
1005.592	0.01293039
1005.752	0.01250826
1005.911	0.01314274
1006.071	0.01229856
1006.23	0.01219862
1006.389	0.01189808
1006.549	0.01221437
1006.708	0.01266802
1006.868	0.01341295
1007.027	0.01289866
1007.186	0.01456728
1007.345	0.01446907
1007.505	0.01534551
1007.664	0.01565181
1007.823	0.01654213
1007.982	0.01702608
1008.142	0.01772357
1008.301	0.01695437
1008.46	0.01766234
1008.619	0.01706107
1008.778	0.01622312
1008.937	0.01613397
1009.096	0.01639444
1009.255	0.01675739
1009.414	0.01490202
1009.573	0.01540994
1009.732	0.01553971
1009.891	0.01541511
1010.05	0.01479599
1010.209	0.01409882
1010.368	0.01277869
1010.527	0.01335839
1010.686	0.01166692
1010.845	0.01136488
1011.003	0.01055553
1011.162	0.01137272
1011.321	0.01131223
1011.48	0.01218959
1011.638	0.01422402
1011.797	0.01541596
1011.956	0.01486394
1012.115	0.01709164
1012.273	0.01681624
1012.432	0.01814969
1012.59	0.01752489
1012.749	0.01565059
1012.908	0.01580653
1013.066	0.01735589
1013.225	0.01538267
1013.383	0.01606199
1013.542	0.01760661
1013.7	0.02157867
1013.859	0.0237448
1014.017	0.02284533
1014.175	0.02246732
1014.334	0.02449332
1014.492	0.02267005
1014.65	0.02108558
1014.809	0.01908729
1014.967	0.0189669
1015.125	0.01995113
1015.284	0.02028476
1015.442	0.02079913
1015.6	0.02272514
1015.758	0.02201677
1015.916	0.02086844
1016.075	0.02081481
1016.233	0.02142908
1016.391	0.02175525
1016.549	0.02298906
1016.707	0.01909215
1016.865	0.0218679
1017.023	0.02139126
1017.181	0.02001286
1017.339	0.0197621
1017.497	0.01777018
1017.655	0.0166853
1017.813	0.01915501
1017.971	0.01760953
1018.129	0.02015025
1018.286	0.0251814
1018.444	0.02312959
1018.602	0.02393879
1018.76	0.0223279
1018.918	0.02473943
1019.075	0.02594388
1019.233	0.0208022
1019.391	0.01894404
1019.549	0.0210943
1019.706	0.02328738
1019.864	0.02542393
1020.022	0.02350792
1020.179	0.02268063
1020.337	0.02640564
1020.494	0.02233136
1020.652	0.02300417
1020.809	0.02119444
1020.967	0.02076128
1021.124	0.02280492
1021.282	0.02325836
1021.439	0.02379371
1021.597	0.0259185
1021.754	0.02672041
1021.911	0.02914452
1022.069	0.0290939
1022.226	0.02498443
1022.384	0.02528651
1022.541	0.02723611
1022.698	0.02834381
1022.855	0.02943317
1023.013	0.02853843
1023.17	0.0306841
1023.327	0.03196782
1023.484	0.0318309
1023.641	0.03194462
1023.798	0.03495954
1023.956	0.03262032
1024.113	0.03253325
1024.27	0.03326567
1024.427	0.03665242
1024.584	0.03536321
1024.741	0.035098
1024.898	0.03000913
1025.055	0.03045798
1025.212	0.03078572
1025.369	0.02944486
1025.525	0.03176461
1025.682	0.03262078
1025.839	0.03235141
1025.996	0.03727482
1026.153	0.0350266
1026.31	0.03715185
1026.466	0.03702262
1026.623	0.03203341
1026.78	0.03396447
1026.937	0.0344563
1027.093	0.0298273
1027.25	0.03783888
1027.407	0.03318116
1027.563	0.03562578
1027.72	0.04086806
1027.876	0.03894475
1028.033	0.04022102
1028.19	0.04393054
1028.346	0.03611579
1028.503	0.04237537
1028.659	0.04192432
1028.816	0.03848395
1028.972	0.0413371
1029.128	0.04417828
1029.285	0.03427575
1029.441	0.04109831
1029.598	0.03833513
1029.754	0.04156613
1029.91	0.03912723
1030.067	0.03967107
1030.223	0.03638913
1030.379	0.0453254
1030.535	0.04306013
1030.691	0.03946401
1030.848	0.0432218
1031.004	0.04800191
1031.16	0.048867
1031.316	0.04851771
1031.472	0.05250459
1031.628	0.05118959
1031.784	0.05367785
1031.94	0.04959741
1032.096	0.05435218
1032.252	0.05984928
1032.408	0.06172476
1032.564	0.05681911
1032.72	0.06559756
1032.876	0.06502022
1033.032	0.06462687
1033.188	0.06504794
1033.344	0.05613778
1033.5	0.05360412
1033.655	0.05507964
1033.811	0.05018061
1033.967	0.05661458
