Data from 0_1_mm_pl_30pc_Absorbance__0__17-50-00-001.txt Node

Date: Wed Mar 01 17:50:00 CET 2023
User: Ange
Spectrometer: FLMT08341
Trigger mode: 0
Integration Time (sec): 1.000000E-2
Scans to average: 400
Electric dark correction enabled: true
Nonlinearity correction enabled: false
Boxcar width: 3
XAxis mode: Wavelengths
Number of Pixels in Spectrum: 3648
>>>>>Begin Spectral Data<<<<<
345.271	-0.02610747
345.487	-0.01263831
345.704	-0.0225669
345.921	-0.02360367
346.137	-0.00243098
346.354	-0.01125278
346.571	-0.01378266
346.787	-0.04359002
347.004	0.14219928
347.22	0.01197122
347.437	-0.04082536
347.653	0.16627749
347.87	0.10674811
348.086	-0
348.303	-0.13519929
348.519	0.08706124
348.736	0.07250001
348.952	0.0722498
349.169	0.07360121
349.385	0.07482001
349.601	0.0726658
349.818	0.07478938
350.034	0.07295981
350.251	0.07278405
350.467	0.07180718
350.683	0.07034289
350.9	0.07250613
351.116	0.0725595
351.332	0.07130934
351.549	0.0730763
351.765	0.07683878
351.981	0.07791539
352.197	0.07863468
352.414	0.08013891
352.63	0.08338168
352.846	0.08543577
353.062	0.08451906
353.278	0.08181745
353.495	0.08286409
353.711	0.08406612
353.927	0.08371416
354.143	0.08289406
354.359	0.08226891
354.575	0.08153548
354.792	0.08423831
355.008	0.08408507
355.224	0.0830638
355.44	0.08218266
355.656	0.08112206
355.872	0.0814955
356.088	0.08483104
356.304	0.0843159
356.52	0.08601022
356.736	0.08649906
356.952	0.08822155
357.168	0.08917861
357.384	0.09075325
357.6	0.0908052
357.816	0.09203764
358.032	0.09292366
358.248	0.09609772
358.464	0.09492169
358.679	0.09656279
358.895	0.09689483
359.111	0.0965942
359.327	0.09471971
359.543	0.09544423
359.759	0.09587373
359.974	0.0969694
360.19	0.09603249
360.406	0.09587954
360.622	0.09730102
360.838	0.09641054
361.053	0.0963368
361.269	0.09538919
361.485	0.09494345
361.701	0.09594048
361.916	0.09504098
362.132	0.09351254
362.348	0.09566309
362.563	0.09496414
362.779	0.0949968
362.995	0.09673583
363.21	0.09795396
363.426	0.09979812
363.641	0.10067903
363.857	0.10201248
364.073	0.10279702
364.288	0.10271102
364.504	0.103572
364.719	0.10383747
364.935	0.10274209
365.15	0.1041984
365.366	0.10416286
365.581	0.10462211
365.797	0.1068083
366.012	0.10625031
366.228	0.10482153
366.443	0.1060726
366.658	0.10642885
366.874	0.1040872
367.089	0.10621803
367.305	0.10543481
367.52	0.10603292
367.735	0.10650467
367.951	0.10642406
368.166	0.10605227
368.381	0.10952073
368.597	0.10798885
368.812	0.10826627
369.027	0.10852869
369.243	0.10932467
369.458	0.11159463
369.673	0.11160649
369.888	0.11132808
370.104	0.1123089
370.319	0.11290069
370.534	0.11307114
370.749	0.11383793
370.964	0.1137106
371.179	0.11414103
371.395	0.11381818
371.61	0.1131817
371.825	0.11348705
372.04	0.11455501
372.255	0.1142177
372.47	0.11393288
372.685	0.11431007
372.9	0.11473209
373.115	0.11485341
373.33	0.11517995
373.545	0.11538786
373.76	0.11584638
373.975	0.11566628
374.19	0.11467695
374.405	0.11532557
374.62	0.11704949
374.835	0.11759252
375.05	0.11835621
375.265	0.11886848
375.48	0.12039571
375.695	0.12371373
375.91	0.12399417
376.125	0.12341149
376.339	0.12358979
376.554	0.12345723
376.769	0.12374297
376.984	0.1233742
377.199	0.12319864
377.414	0.12408014
377.628	0.12536138
377.843	0.12582832
378.058	0.1255132
378.273	0.12651707
378.487	0.12661533
378.702	0.12656374
378.917	0.1267076
379.131	0.12628885
379.346	0.12582813
379.561	0.12564135
379.775	0.12618247
379.99	0.1260522
380.205	0.12628459
380.419	0.12526229
380.634	0.12411507
380.848	0.12556859
381.063	0.12719194
381.278	0.12774422
381.492	0.128192
381.707	0.12870999
381.921	0.12918815
382.136	0.13176257
382.35	0.13155958
382.565	0.13162298
382.779	0.13151326
382.994	0.13201063
383.208	0.13190043
383.422	0.13379412
383.637	0.13315735
383.851	0.13386514
384.066	0.13396407
384.28	0.13428659
384.494	0.13487236
384.709	0.13547531
384.923	0.13542266
385.137	0.13509908
385.352	0.13526925
385.566	0.13592582
385.78	0.13631918
385.995	0.13577191
386.209	0.13589848
386.423	0.13630561
386.637	0.13731528
386.852	0.13685496
387.066	0.13694802
387.28	0.13732639
387.494	0.13841137
387.708	0.1387615
387.923	0.13847113
388.137	0.13921818
388.351	0.14007682
388.565	0.14018399
388.779	0.13987205
388.993	0.1410887
389.207	0.14160172
389.421	0.1422559
389.635	0.14160761
389.85	0.14203101
390.064	0.14211029
390.278	0.14298862
390.492	0.14268313
390.706	0.1430347
390.92	0.1433576
391.134	0.14468232
391.348	0.14576603
391.561	0.14641973
391.775	0.14637902
391.989	0.1460628
392.203	0.14621081
392.417	0.1469695
392.631	0.14733537
392.845	0.14638288
393.059	0.14722209
393.273	0.14713194
393.486	0.14727899
393.7	0.146958
393.914	0.14709697
394.128	0.14698828
394.342	0.14745422
394.555	0.14681448
394.769	0.14727285
394.983	0.14771281
395.197	0.14826895
395.41	0.14815358
395.624	0.14851842
395.838	0.14886345
396.051	0.14976436
396.265	0.15006333
396.479	0.15067312
396.692	0.15130914
396.906	0.151034
397.12	0.151065
397.333	0.15130772
397.547	0.15150286
397.76	0.15205944
397.974	0.15231476
398.187	0.15275263
398.401	0.15318457
398.614	0.15340468
398.828	0.15350529
399.041	0.15341287
399.255	0.15385782
399.468	0.15405334
399.682	0.15367421
399.895	0.15384298
400.109	0.15412364
400.322	0.15466117
400.536	0.15407576
400.749	0.15380858
400.962	0.15356575
401.176	0.15384222
401.389	0.15450842
401.602	0.15392973
401.816	0.15383062
402.029	0.1549388
402.242	0.15511825
402.456	0.15535749
402.669	0.15526466
402.882	0.15408481
403.095	0.15454387
403.309	0.15443638
403.522	0.15424207
403.735	0.15389682
403.948	0.15400969
404.161	0.15483825
404.375	0.15579712
404.588	0.15629177
404.801	0.15646039
405.014	0.15647191
405.227	0.1573757
405.44	0.157641
405.653	0.15751794
405.866	0.15733213
406.079	0.15714547
406.293	0.15728041
406.506	0.157587
406.719	0.15685402
406.932	0.15671917
407.145	0.15618257
407.358	0.15665104
407.571	0.15637419
407.784	0.15675301
407.996	0.15629366
408.209	0.15633186
408.422	0.1559575
408.635	0.15582856
408.848	0.1558999
409.061	0.15552805
409.274	0.15499284
409.487	0.15486249
409.7	0.15475803
409.912	0.15483508
410.125	0.15492466
410.338	0.154408
410.551	0.15452817
410.764	0.15437515
410.976	0.15429992
411.189	0.15427362
411.402	0.15408544
411.615	0.15427046
411.827	0.15444164
412.04	0.15453243
412.253	0.15421896
412.465	0.15385707
412.678	0.15352718
412.891	0.15361307
413.103	0.15267811
413.316	0.15237513
413.529	0.15232114
413.741	0.1523219
413.954	0.15239099
414.166	0.15226155
414.379	0.15189065
414.591	0.15217444
414.804	0.1517732
415.016	0.15150208
415.229	0.1512315
415.441	0.15107729
415.654	0.15105214
415.866	0.15071739
416.079	0.15064906
416.291	0.15029338
416.504	0.15020357
416.716	0.15041538
416.928	0.15022667
417.141	0.14969059
417.353	0.14972468
417.566	0.14911515
417.778	0.14887546
417.99	0.14804065
418.203	0.14709166
418.415	0.14691323
418.627	0.1466208
418.839	0.14607698
419.052	0.14616031
419.264	0.14612781
419.476	0.14611012
419.688	0.1461539
419.901	0.14580452
420.113	0.14534701
420.325	0.14486689
420.537	0.14440266
420.749	0.144095
420.961	0.14376036
421.174	0.14332508
421.386	0.1426746
421.598	0.14258261
421.81	0.14238154
422.022	0.14213855
422.234	0.14162136
422.446	0.14108976
422.658	0.14085071
422.87	0.14053472
423.082	0.14032361
423.294	0.14001435
423.506	0.13936031
423.718	0.13910887
423.93	0.13869082
424.142	0.13803895
424.354	0.13763945
424.566	0.13714596
424.778	0.13672079
424.99	0.13628718
425.202	0.1356457
425.414	0.13534394
425.625	0.1351865
425.837	0.13472538
426.049	0.13424854
426.261	0.13369069
426.473	0.13322996
426.684	0.13270136
426.896	0.13240658
427.108	0.13175195
427.32	0.13141679
427.531	0.13082149
427.743	0.13053394
427.955	0.13016954
428.167	0.1296451
428.378	0.12888667
428.59	0.12845401
428.802	0.12803938
429.013	0.12750144
429.225	0.12699466
429.436	0.12640567
429.648	0.12608722
429.86	0.1257107
430.071	0.12521697
430.283	0.12448254
430.494	0.12394629
430.706	0.12342712
430.917	0.12288567
431.129	0.1222975
431.34	0.12180627
431.552	0.12138475
431.763	0.12064171
431.975	0.12021022
432.186	0.11950796
432.398	0.11902202
432.609	0.11825412
432.821	0.11773821
433.032	0.11717396
433.243	0.11677382
433.455	0.11629855
433.666	0.11590986
433.877	0.11548985
434.089	0.11503806
434.3	0.11446809
434.511	0.11377421
434.723	0.11327876
434.934	0.11285635
435.145	0.11221272
435.356	0.11162545
435.568	0.11131127
435.779	0.11092299
435.99	0.11029004
436.201	0.10983622
436.412	0.10926172
436.624	0.10897542
436.835	0.10861692
437.046	0.10818031
437.257	0.10757128
437.468	0.10729605
437.679	0.10665935
437.89	0.106102
438.101	0.10558284
438.312	0.10488205
438.523	0.1041438
438.734	0.10357111
438.945	0.10288616
439.156	0.10247619
439.367	0.10190876
439.578	0.10135361
439.789	0.10068771
440	0.10020783
440.211	0.09974849
440.422	0.09925547
440.633	0.09868393
440.844	0.0980058
441.055	0.0972125
441.266	0.09692135
441.477	0.0964312
441.687	0.09574696
441.898	0.09521262
442.109	0.09455552
442.32	0.09417412
442.531	0.09367728
442.741	0.09289178
442.952	0.09210202
443.163	0.09142867
443.374	0.09064922
443.584	0.09003681
443.795	0.08931622
444.006	0.0886695
444.216	0.08821216
444.427	0.08768803
444.638	0.08698117
444.848	0.08648493
445.059	0.08591208
445.27	0.08511516
445.48	0.08437787
445.691	0.08357507
445.901	0.08296026
446.112	0.08248809
446.323	0.08177676
446.533	0.0812047
446.744	0.08079995
446.954	0.08027647
447.165	0.07976802
447.375	0.07924687
447.586	0.07871879
447.796	0.0781922
448.006	0.07763413
448.217	0.07703412
448.427	0.07650243
448.638	0.07596665
448.848	0.07537188
449.058	0.07484865
449.269	0.07431525
449.479	0.07371008
449.689	0.07311283
449.9	0.07264413
450.11	0.07192795
450.32	0.07139383
450.531	0.07076142
450.741	0.07018444
450.951	0.06965309
451.161	0.0692
451.372	0.06851049
451.582	0.0681761
451.792	0.06759337
452.002	0.06699889
452.212	0.06658788
452.422	0.06599595
452.633	0.06550841
452.843	0.06519389
453.053	0.06465437
453.263	0.0641011
453.473	0.06367679
453.683	0.0632842
453.893	0.0628219
454.103	0.06240411
454.313	0.06183443
454.523	0.06136472
454.733	0.06105434
454.943	0.06065636
455.153	0.06013924
455.363	0.0596354
455.573	0.05897378
455.783	0.05860048
455.993	0.05801196
456.203	0.05758633
456.413	0.05703697
456.623	0.05665176
456.833	0.05626036
457.042	0.05587449
457.252	0.05529688
457.462	0.05490797
457.672	0.05446156
457.882	0.05414184
458.091	0.05355776
458.301	0.05302493
458.511	0.05263437
458.721	0.05216125
458.931	0.05177264
459.14	0.05132231
459.35	0.05097563
459.56	0.05059018
459.769	0.0502789
459.979	0.04986391
460.189	0.04961362
460.398	0.04926371
460.608	0.0488216
460.817	0.04834908
461.027	0.04800767
461.237	0.04765195
461.446	0.04727133
461.656	0.04689088
461.865	0.0464942
462.075	0.04612504
462.284	0.04576167
462.494	0.04547652
462.703	0.04518408
462.913	0.044758
463.122	0.04445968
463.332	0.04416063
463.541	0.04385553
463.751	0.04347397
463.96	0.04300632
464.169	0.04253173
464.379	0.04224275
464.588	0.04190153
464.797	0.04154835
465.007	0.04128807
465.216	0.04101184
465.425	0.0407672
465.635	0.04056813
465.844	0.04044794
466.053	0.04021723
466.263	0.03988868
466.472	0.03946022
466.681	0.03916538
466.89	0.03878521
467.099	0.03863287
467.309	0.03812224
467.518	0.0375844
467.727	0.03735759
467.936	0.0371451
468.145	0.03684467
468.354	0.03669342
468.563	0.03629671
468.772	0.03605056
468.982	0.03591134
469.191	0.03550741
469.4	0.03529796
469.609	0.03516199
469.818	0.03480472
470.027	0.03454039
470.236	0.03434811
470.445	0.03413684
470.654	0.03396911
470.863	0.03368977
471.072	0.03334206
471.28	0.03310167
471.489	0.03297377
471.698	0.03277788
471.907	0.03260742
472.116	0.03239535
472.325	0.03221713
472.534	0.03209681
472.743	0.0319013
472.951	0.03152945
473.16	0.03133897
473.369	0.03109618
473.578	0.03090984
473.786	0.03068706
473.995	0.030504
474.204	0.03029999
474.413	0.03018777
474.621	0.03004219
474.83	0.02987093
475.039	0.02969805
475.247	0.02949522
475.456	0.02934013
475.665	0.02913796
475.873	0.02900412
476.082	0.028756
476.291	0.02866208
476.499	0.02856286
476.708	0.0285039
476.916	0.02839791
477.125	0.02837804
477.333	0.02825035
477.542	0.02812966
477.75	0.02806985
477.959	0.02786956
478.167	0.02773352
478.376	0.02745089
478.584	0.02730317
478.793	0.02711986
479.001	0.02701138
479.209	0.02670394
479.418	0.02661164
479.626	0.02648776
479.834	0.02648499
480.043	0.0264031
480.251	0.02631486
480.459	0.02623847
480.668	0.02621194
480.876	0.0261642
481.084	0.02604012
481.293	0.02596102
481.501	0.02588067
481.709	0.02581644
481.917	0.02578954
482.125	0.02571421
482.334	0.0256504
482.542	0.02563294
482.75	0.02549528
482.958	0.02537662
483.166	0.02534024
483.374	0.02517352
483.583	0.02514247
483.791	0.0251064
483.999	0.0249874
484.207	0.02497485
484.415	0.0249625
484.623	0.02488395
484.831	0.02490234
485.039	0.02483475
485.247	0.02471438
485.455	0.02474206
485.663	0.02460425
485.871	0.0245314
486.079	0.02450594
486.287	0.0243782
486.495	0.02430346
486.702	0.02426166
486.91	0.02417224
487.118	0.02423112
487.326	0.02421044
487.534	0.02420071
487.742	0.02422365
487.95	0.02422851
488.157	0.02419794
488.365	0.02415228
488.573	0.02412362
488.781	0.02413079
488.988	0.02410651
489.196	0.02410478
489.404	0.02413122
489.612	0.02417856
489.819	0.02424392
490.027	0.02422125
490.235	0.02424532
490.442	0.02419616
490.65	0.02420357
490.857	0.02415346
491.065	0.02412954
491.273	0.02414128
491.48	0.02414883
491.688	0.02416304
491.895	0.02419113
492.103	0.02418855
492.31	0.02423337
492.518	0.02422655
492.725	0.02415121
492.933	0.02421868
493.14	0.02414147
493.348	0.02419098
493.555	0.02423801
493.763	0.02425772
493.97	0.0242791
494.177	0.02439032
494.385	0.02442612
494.592	0.02448041
494.8	0.02446178
495.007	0.02444212
495.214	0.02448321
495.422	0.02453832
495.629	0.0245367
495.836	0.02454541
496.043	0.02464842
496.251	0.02473876
496.458	0.02485331
496.665	0.02489527
496.872	0.02496362
497.08	0.02502233
497.287	0.02503123
497.494	0.02503071
497.701	0.02503702
497.908	0.0250103
498.115	0.02500131
498.322	0.02501028
498.53	0.02504826
498.737	0.02521245
498.944	0.0253035
499.151	0.02539846
499.358	0.0255
499.565	0.02562392
499.772	0.02572626
499.979	0.02582807
500.186	0.02588766
500.393	0.02595522
500.6	0.02606633
500.807	0.02617383
501.014	0.02626774
501.221	0.02637682
501.427	0.02646762
501.634	0.02647189
501.841	0.0265206
502.048	0.02656732
502.255	0.02666554
502.462	0.02673752
502.669	0.02680517
502.875	0.02687377
503.082	0.02692029
503.289	0.02701243
503.496	0.027042
503.702	0.02704084
503.909	0.02710674
504.116	0.02716782
504.323	0.02723056
504.529	0.02737738
504.736	0.02743029
504.943	0.02757382
505.149	0.0277035
505.356	0.02778991
505.563	0.02788326
505.769	0.0279969
505.976	0.02810043
506.182	0.02821967
506.389	0.02830467
506.595	0.02839276
506.802	0.02850306
507.008	0.0286587
507.215	0.02878845
507.421	0.02889684
507.628	0.02904267
507.834	0.02911764
508.041	0.02917968
508.247	0.02927943
508.454	0.02931852
508.66	0.02939908
508.866	0.0295123
509.073	0.02963449
509.279	0.02977925
509.486	0.02992136
509.692	0.03004765
509.898	0.03018297
510.105	0.03028925
510.311	0.03041056
510.517	0.03043342
510.723	0.03054547
510.93	0.03070352
511.136	0.0308926
511.342	0.03102895
511.548	0.03118109
511.754	0.03134265
511.961	0.03158018
512.167	0.03171869
512.373	0.03187448
512.579	0.03195325
512.785	0.03207907
512.991	0.03220473
513.197	0.03230475
513.404	0.03239555
513.61	0.03251308
513.816	0.03259589
514.022	0.03272112
514.228	0.03285874
514.434	0.03302716
514.64	0.03311272
514.846	0.03323655
515.052	0.03345919
515.258	0.03362644
515.464	0.03377502
515.669	0.03388187
515.875	0.03398498
516.081	0.03418739
516.287	0.03434126
516.493	0.03445547
516.699	0.0346142
516.905	0.0347133
517.111	0.03487606
517.316	0.03499436
517.522	0.03509093
517.728	0.0352891
517.934	0.03541761
518.139	0.03555681
518.345	0.03576015
518.551	0.03600209
518.757	0.03614551
518.962	0.03636296
519.168	0.03648928
519.374	0.03668422
519.579	0.03688932
519.785	0.03707533
519.991	0.03719078
520.196	0.03737825
520.402	0.03750929
520.607	0.03771485
520.813	0.03782025
521.018	0.03792345
521.224	0.03802531
521.429	0.03818728
521.635	0.03839728
521.84	0.03860553
522.046	0.03880507
522.251	0.03902333
522.457	0.03919371
522.662	0.03938709
522.868	0.03954738
523.073	0.03967312
523.279	0.03982232
523.484	0.03994463
523.689	0.04009849
523.895	0.04030409
524.1	0.04047368
524.305	0.04062366
524.511	0.04088185
524.716	0.04109052
524.921	0.04127015
525.126	0.04146957
525.332	0.04166545
525.537	0.04189182
525.742	0.04214618
525.947	0.04227395
526.153	0.04240127
526.358	0.04265772
526.563	0.04291298
526.768	0.04307903
526.973	0.04328121
527.178	0.04349787
527.383	0.04369522
527.588	0.04391731
527.794	0.0440497
527.999	0.04415582
528.204	0.04435722
528.409	0.04453261
528.614	0.0447326
528.819	0.04496487
529.024	0.04521474
529.229	0.04539202
529.434	0.04563764
529.639	0.04585913
529.843	0.04608402
530.048	0.04624879
530.253	0.04649266
530.458	0.04668561
530.663	0.04694442
530.868	0.04710003
531.073	0.04732676
531.278	0.04749344
531.482	0.04771904
531.687	0.04789658
531.892	0.04809199
532.097	0.04828386
532.302	0.04850304
532.506	0.04868072
532.711	0.04891041
532.916	0.04911314
533.12	0.0493124
533.325	0.04952997
533.53	0.04976932
533.734	0.05004728
533.939	0.0503055
534.144	0.05056344
534.348	0.05079199
534.553	0.05106438
534.757	0.05130493
534.962	0.051557
535.167	0.05179277
535.371	0.05198934
535.576	0.05223611
535.78	0.05246904
535.985	0.05264859
536.189	0.05286515
536.394	0.05304807
536.598	0.05327527
536.803	0.05356573
537.007	0.05374859
537.211	0.05400943
537.416	0.05423241
537.62	0.0544515
537.825	0.05466624
538.029	0.05490627
538.233	0.05509905
538.438	0.05534562
538.642	0.05556774
538.846	0.05591249
539.05	0.05613098
539.255	0.05638239
539.459	0.05660418
539.663	0.0568289
539.867	0.05706495
540.072	0.05732063
540.276	0.05749491
540.48	0.05778413
540.684	0.0580501
540.888	0.0583704
541.092	0.05865835
541.297	0.05894943
541.501	0.05917257
541.705	0.05940055
541.909	0.05960964
542.113	0.05986687
542.317	0.06004551
542.521	0.06027224
542.725	0.06049007
542.929	0.06073266
543.133	0.0610185
543.337	0.06131212
543.541	0.06154986
543.745	0.06178374
543.949	0.06203684
544.153	0.06229921
544.357	0.06254571
544.56	0.06279242
544.764	0.06305775
544.968	0.06329352
545.172	0.06356902
545.376	0.0638545
545.58	0.06410356
545.783	0.0644072
545.987	0.06466247
546.191	0.06490972
546.395	0.06522537
546.598	0.06552021
546.802	0.06575245
547.006	0.06604772
547.21	0.06628423
547.413	0.06658276
547.617	0.0668683
547.821	0.06709353
548.024	0.0673346
548.228	0.06756159
548.431	0.06777508
548.635	0.06802894
548.839	0.06824089
549.042	0.06846924
549.246	0.06875586
549.449	0.06903515
549.653	0.06935331
549.856	0.06967725
550.06	0.06996927
550.263	0.0702819
550.467	0.07059578
550.67	0.07086282
550.874	0.07110392
551.077	0.07138634
551.28	0.07168861
551.484	0.07194518
551.687	0.07213794
551.891	0.07237414
552.094	0.07260415
552.297	0.07291534
552.501	0.07319008
552.704	0.07342778
552.907	0.07373792
553.11	0.07406871
553.314	0.07440554
553.517	0.07469977
553.72	0.07496446
553.923	0.07526165
554.127	0.07549728
554.33	0.07570378
554.533	0.07601622
554.736	0.07623539
554.939	0.07654829
555.142	0.0768288
555.345	0.07708969
555.549	0.07736473
555.752	0.07768857
555.955	0.07794398
556.158	0.078231
556.361	0.07850754
556.564	0.07878513
556.767	0.07907663
556.97	0.07939623
557.173	0.07973641
557.376	0.08008686
557.579	0.08038959
557.782	0.08068399
557.984	0.08096996
558.187	0.08126196
558.39	0.08152795
558.593	0.08177183
558.796	0.08200736
558.999	0.0822919
559.202	0.0825542
559.404	0.08284457
559.607	0.08310468
559.81	0.08346647
560.013	0.08377172
560.216	0.08406222
560.418	0.08434065
560.621	0.08467138
560.824	0.08496094
561.026	0.08527654
561.229	0.08552621
561.432	0.08580296
561.634	0.08609113
561.837	0.08636843
562.04	0.08660577
562.242	0.08695088
562.445	0.08721728
562.647	0.08753751
562.85	0.08779381
563.053	0.08810129
563.255	0.08845111
563.458	0.08880251
563.66	0.08908112
563.863	0.08943603
564.065	0.08970843
564.268	0.09000595
564.47	0.0902608
564.672	0.0904516
564.875	0.09066149
565.077	0.09087722
565.28	0.09114197
565.482	0.09140561
565.684	0.09167845
565.887	0.09191296
566.089	0.0923021
566.291	0.09260618
566.494	0.09294315
566.696	0.09322099
566.898	0.09353524
567.1	0.09385566
567.303	0.09421066
567.505	0.09444081
567.707	0.09469676
567.909	0.09493392
568.111	0.0951964
568.314	0.09543615
568.516	0.09569962
568.718	0.09592981
568.92	0.0962133
569.122	0.09653468
569.324	0.09688001
569.526	0.09710773
569.728	0.09744253
569.93	0.09770707
570.132	0.09807239
570.334	0.09843021
570.536	0.0987093
570.738	0.09896853
570.94	0.09931138
571.142	0.09958757
571.344	0.09987823
571.546	0.10011322
571.748	0.10038182
571.95	0.1006659
572.152	0.10095557
572.354	0.10125181
572.555	0.10152051
572.757	0.10185114
572.959	0.10214538
573.161	0.10239489
573.363	0.10264439
573.564	0.10294295
573.766	0.10315974
573.968	0.10344849
574.17	0.10373811
574.371	0.10402284
574.573	0.10425553
574.775	0.10450732
574.976	0.10473194
575.178	0.10502176
575.38	0.10528628
575.581	0.10552399
575.783	0.10575925
575.985	0.10603011
576.186	0.10638472
576.388	0.10666361
576.589	0.1069798
576.791	0.10730165
576.992	0.10761444
577.194	0.10790248
577.395	0.10818139
577.597	0.10845507
577.798	0.10874127
578	0.1089379
578.201	0.10918934
578.402	0.10940991
578.604	0.10966917
578.805	0.1100051
579.007	0.11027429
579.208	0.11059457
579.409	0.11092034
579.611	0.11121713
579.812	0.11156271
580.013	0.11182892
580.215	0.11204297
580.416	0.11237801
580.617	0.11262415
580.818	0.11290197
581.019	0.11309199
581.221	0.11329094
581.422	0.11359834
581.623	0.11392758
581.824	0.11409882
582.025	0.11434608
582.226	0.11459191
582.428	0.11491348
582.629	0.11516115
582.83	0.11539003
583.031	0.11557173
583.232	0.11585445
583.433	0.11612718
583.634	0.11637026
583.835	0.11659318
584.036	0.11687462
584.237	0.11716607
584.438	0.11745176
584.639	0.11765189
584.84	0.11789408
585.041	0.11817201
585.242	0.11847698
585.442	0.11869388
585.643	0.11895082
585.844	0.11917662
586.045	0.11949918
586.246	0.11969593
586.447	0.11990176
586.647	0.12006967
586.848	0.12029118
587.049	0.1204637
587.25	0.12071643
587.45	0.12088442
587.651	0.12111551
587.852	0.12137428
588.053	0.12168784
588.253	0.12197964
588.454	0.12226029
588.655	0.12246017
588.855	0.12270753
589.056	0.12294311
589.256	0.12317911
589.457	0.12334625
589.658	0.12358294
589.858	0.12380801
590.059	0.12408671
590.259	0.12433642
590.46	0.12459909
590.66	0.12484546
590.861	0.12506204
591.061	0.12523799
591.262	0.12549604
591.462	0.12573217
591.662	0.1259223
591.863	0.12607035
592.063	0.12621722
592.264	0.12644413
592.464	0.12662461
592.664	0.1267757
592.865	0.12700116
593.065	0.1271649
593.265	0.12741743
593.465	0.12761855
593.666	0.12781736
593.866	0.12800816
594.066	0.12822299
594.266	0.12830809
594.467	0.12852907
594.667	0.12870774
594.867	0.12899057
595.067	0.12918183
595.267	0.1293942
595.467	0.12956128
595.668	0.12981713
595.868	0.13003906
596.068	0.13027342
596.268	0.13038005
596.468	0.13057727
596.668	0.13081004
596.868	0.13099633
597.068	0.13118579
597.268	0.13139602
597.468	0.13153169
597.668	0.13176763
597.868	0.13194156
598.068	0.13209892
598.268	0.132297
598.467	0.1325215
598.667	0.13262258
598.867	0.13273496
599.067	0.13289792
599.267	0.1330572
599.467	0.13321911
599.667	0.13337439
599.866	0.13346498
600.066	0.13363535
600.266	0.13376685
600.466	0.13387513
600.665	0.1340141
600.865	0.13417732
601.065	0.13433638
601.264	0.13451329
601.464	0.13468587
601.664	0.13495832
601.863	0.13516596
602.063	0.13532192
602.263	0.13539853
602.462	0.13555413
602.662	0.13569346
602.861	0.13587168
603.061	0.1359892
603.26	0.13613077
603.46	0.13627415
603.659	0.13648187
603.859	0.13660916
604.058	0.13677157
604.258	0.13695441
604.457	0.13714302
604.657	0.13718746
604.856	0.13722854
605.056	0.13733424
605.255	0.13737859
605.454	0.13747821
605.654	0.13746967
605.853	0.13753768
606.052	0.13769484
606.252	0.13793379
606.451	0.13809657
606.65	0.13835825
606.849	0.13843995
607.049	0.13859208
607.248	0.1387152
607.447	0.13883033
607.646	0.13893212
607.845	0.13902192
608.045	0.1390094
608.244	0.13916716
608.443	0.13925351
608.642	0.13939456
608.841	0.13946076
609.04	0.1394933
609.239	0.13961433
609.438	0.13970119
609.637	0.1397667
609.836	0.13988433
610.035	0.1399215
610.234	0.14013819
610.433	0.14023328
610.632	0.14028128
610.831	0.14047632
611.03	0.14055287
611.229	0.14070996
611.428	0.14086962
611.627	0.14091625
611.826	0.1410602
612.025	0.14123517
612.224	0.14127089
612.422	0.1413865
612.621	0.14146656
612.82	0.14150479
613.019	0.14154228
613.218	0.14160339
613.416	0.14158044
613.615	0.14171999
613.814	0.14179813
614.012	0.14186354
614.211	0.14187183
614.41	0.14195876
614.608	0.14208068
614.807	0.14221925
615.006	0.14226481
615.204	0.14230162
615.403	0.14233569
615.602	0.14246371
615.8	0.14258944
615.999	0.14259437
616.197	0.14260593
616.396	0.14271975
616.594	0.14279568
616.793	0.14287977
616.991	0.14293812
617.19	0.14289345
617.388	0.14299773
617.586	0.14303096
617.785	0.14298266
617.983	0.14298126
618.182	0.14294327
618.38	0.14288422
618.578	0.14292683
618.777	0.14293447
618.975	0.1430368
619.173	0.1430751
619.372	0.14312512
619.57	0.14314996
619.768	0.14322596
619.966	0.14327431
620.165	0.14325505
620.363	0.14324908
620.561	0.14320202
620.759	0.14324351
620.957	0.14332836
621.155	0.14337844
621.354	0.14337272
621.552	0.1435006
621.75	0.14349486
621.948	0.14363031
622.146	0.14368196
622.344	0.14372703
622.542	0.14376373
622.74	0.1438031
622.938	0.14369173
623.136	0.14379348
623.334	0.14381547
623.532	0.14372753
623.73	0.14368102
623.928	0.14372162
624.126	0.14376895
624.324	0.14388761
624.522	0.14378292
624.719	0.14376182
624.917	0.14387926
625.115	0.14388535
625.313	0.14392978
625.511	0.14396783
625.708	0.14388439
625.906	0.14394259
626.104	0.14389389
626.302	0.14391266
626.499	0.14396091
626.697	0.14392856
626.895	0.14383151
627.093	0.14383451
627.29	0.14382896
627.488	0.14384227
627.686	0.14377909
627.883	0.14367299
628.081	0.14354342
628.278	0.14359471
628.476	0.14358518
628.673	0.14353522
628.871	0.14354534
629.068	0.14355804
629.266	0.14363698
629.463	0.14366488
629.661	0.14364438
629.858	0.14365604
630.056	0.14366783
630.253	0.14364359
630.451	0.14366627
630.648	0.14364953
630.845	0.14363375
631.043	0.1436055
631.24	0.14359805
631.438	0.14357155
631.635	0.14356155
631.832	0.1434262
632.029	0.14341004
632.227	0.14343679
632.424	0.14346073
632.621	0.14337824
632.818	0.14329623
633.016	0.14323838
633.213	0.14317397
633.41	0.14311656
633.607	0.14300403
633.804	0.14286757
634.001	0.14280287
634.199	0.14282803
634.396	0.14276359
634.593	0.14272183
634.79	0.14269141
634.987	0.14268543
635.184	0.14269946
635.381	0.14273227
635.578	0.14269401
635.775	0.14270148
635.972	0.14273416
636.169	0.14266288
636.366	0.1426064
636.563	0.14247081
636.76	0.14229093
636.957	0.14215977
637.153	0.14199173
637.35	0.14190203
637.547	0.14184564
637.744	0.14178471
637.941	0.14180679
638.138	0.1418882
638.334	0.14184238
638.531	0.14185009
638.728	0.14177733
638.925	0.14176967
639.121	0.14167714
639.318	0.14159254
639.515	0.14144356
639.711	0.14145029
639.908	0.14136204
640.105	0.14129584
640.301	0.14111928
640.498	0.14106761
640.695	0.14105064
640.891	0.14095982
641.088	0.14085073
641.284	0.14078149
641.481	0.14072466
641.677	0.14071417
641.874	0.1406052
642.07	0.1404916
642.267	0.14051865
642.463	0.14039754
642.66	0.1403332
642.856	0.14021393
643.053	0.14007749
643.249	0.14004567
643.445	0.13992876
643.642	0.13981374
643.838	0.13981059
644.034	0.13972677
644.231	0.13963994
644.427	0.13964266
644.623	0.13959252
644.82	0.13958499
645.016	0.13944344
645.212	0.13930427
645.408	0.13926016
645.604	0.13927625
645.801	0.13917618
645.997	0.13907793
646.193	0.13893804
646.389	0.1389714
646.585	0.13895147
646.781	0.13890079
646.977	0.13878015
647.173	0.13867316
647.37	0.13853429
647.566	0.1384578
647.762	0.13829176
647.958	0.13816802
648.154	0.13797647
648.35	0.13784787
648.546	0.13779236
648.742	0.13781006
648.937	0.13765931
649.133	0.13762892
649.329	0.1375976
649.525	0.13755935
649.721	0.1374433
649.917	0.13735431
650.113	0.13714419
650.309	0.1371302
650.504	0.13693261
650.7	0.13683058
650.896	0.13679816
651.092	0.13673976
651.287	0.13662613
651.483	0.13663376
651.679	0.1365172
651.875	0.13652118
652.07	0.1363566
652.266	0.1362242
652.462	0.13614411
652.657	0.1360506
652.853	0.13586965
653.048	0.13577165
653.244	0.13554172
653.44	0.13544048
653.635	0.13527302
653.831	0.13517487
654.026	0.1350278
654.222	0.13491739
654.417	0.13483778
654.613	0.1348435
654.808	0.13476685
655.004	0.13471027
655.199	0.13458918
655.394	0.13450477
655.59	0.13448114
655.785	0.13436719
655.98	0.13427188
656.176	0.13416221
656.371	0.1340779
656.566	0.13396537
656.762	0.13379804
656.957	0.13367465
657.152	0.13353964
657.348	0.13343106
657.543	0.13333944
657.738	0.1332534
657.933	0.13315522
658.128	0.13304567
658.324	0.13286973
658.519	0.13272686
658.714	0.13257067
658.909	0.1323538
659.104	0.1321831
659.299	0.13205886
659.494	0.13195405
659.689	0.13184119
659.884	0.13176569
660.079	0.13166528
660.274	0.13156144
660.469	0.1314263
660.664	0.13136427
660.859	0.13129826
661.054	0.1312069
661.249	0.13112412
661.444	0.13103042
661.639	0.13098109
661.834	0.13092249
662.029	0.13079384
662.224	0.13069796
662.418	0.13065302
662.613	0.13051409
662.808	0.13033771
663.003	0.13023985
663.198	0.13011577
663.392	0.12997947
663.587	0.12988818
663.782	0.129693
663.977	0.12959451
664.171	0.12951862
664.366	0.12942331
664.561	0.1293909
664.755	0.12941224
664.95	0.129325
665.144	0.12924178
665.339	0.1292152
665.534	0.12914929
665.728	0.12907625
665.923	0.12893354
666.117	0.12876005
666.312	0.12862225
666.506	0.12854116
666.701	0.12830461
666.895	0.12815301
667.09	0.12801925
667.284	0.127944
667.479	0.12783148
667.673	0.1277247
667.867	0.12762376
668.062	0.12755542
668.256	0.12744582
668.45	0.12732118
668.645	0.12713797
668.839	0.12703733
669.033	0.12696325
669.228	0.12687828
669.422	0.1267686
669.616	0.12663106
669.81	0.1265283
670.004	0.12638934
670.199	0.12618948
670.393	0.1259577
670.587	0.12582409
670.781	0.12573126
670.975	0.12570291
671.169	0.12559229
671.363	0.12549385
671.558	0.12543595
671.752	0.12545669
671.946	0.12538655
672.14	0.12532932
672.334	0.12521985
672.528	0.12524336
672.722	0.12516907
672.916	0.12511112
673.11	0.12491721
673.304	0.12483311
673.497	0.12464021
673.691	0.12451891
673.885	0.12429435
674.079	0.12420482
674.273	0.12409662
674.467	0.12406352
674.661	0.12394225
674.854	0.12389399
675.048	0.1238487
675.242	0.12379181
675.436	0.12371282
675.629	0.1236414
675.823	0.12347678
676.017	0.12337117
676.211	0.12322046
676.404	0.12307095
676.598	0.12297487
676.792	0.12285322
676.985	0.12271281
677.179	0.12265687
677.372	0.12254644
677.566	0.12258166
677.76	0.12251684
677.953	0.12239503
678.147	0.1223678
678.34	0.12234259
678.534	0.12223041
678.727	0.12221962
678.921	0.12214869
679.114	0.1220202
679.307	0.1219706
679.501	0.12189583
679.694	0.12178807
679.888	0.1217451
680.081	0.12159799
680.274	0.12146061
680.468	0.1214555
680.661	0.12137107
680.854	0.12130508
681.048	0.12122831
681.241	0.12117074
681.434	0.12110192
681.627	0.12100729
681.821	0.12087122
682.014	0.12088716
682.207	0.1207902
682.4	0.12067958
682.593	0.12059822
682.786	0.12048551
682.98	0.12039481
683.173	0.12037748
683.366	0.12018792
683.559	0.12001024
683.752	0.11994382
683.945	0.11986047
684.138	0.1198742
684.331	0.11980857
684.524	0.11973468
684.717	0.11965518
684.91	0.11964036
685.103	0.11953861
685.296	0.11948277
685.489	0.1193708
685.682	0.11929001
685.874	0.11916931
686.067	0.1190674
686.26	0.11899124
686.453	0.11894114
686.646	0.11882263
686.839	0.11880026
687.031	0.11874682
687.224	0.11864247
687.417	0.11860781
687.61	0.11852763
687.802	0.11846331
687.995	0.1184683
688.188	0.11838555
688.38	0.11833156
688.573	0.11836432
688.766	0.11832341
688.958	0.11827548
689.151	0.11817334
689.343	0.11805644
689.536	0.11795888
689.729	0.11784788
689.921	0.11776357
690.114	0.11765085
690.306	0.11760794
690.499	0.11759367
690.691	0.11755211
690.884	0.11747744
691.076	0.11747207
691.268	0.1173558
691.461	0.11731641
691.653	0.11724868
691.846	0.11723215
692.038	0.11719675
692.23	0.11712091
692.423	0.1170777
692.615	0.11699251
692.807	0.11691702
692.999	0.11687208
693.192	0.1167683
693.384	0.11673974
693.576	0.11669443
693.768	0.11660709
693.961	0.11661051
694.153	0.11662208
694.345	0.11654782
694.537	0.11650443
694.729	0.11635398
694.921	0.11629905
695.113	0.11628156
695.305	0.1162472
695.498	0.1161156
695.69	0.11611492
695.882	0.11604457
696.074	0.11607245
696.266	0.11602466
696.458	0.11593387
696.65	0.11592948
696.842	0.11599752
697.033	0.11591026
697.225	0.11584777
697.417	0.11583731
697.609	0.11582482
697.801	0.11586981
697.993	0.11580163
698.185	0.11571702
698.376	0.11569872
698.568	0.11569205
698.76	0.11561986
698.952	0.11559809
699.144	0.1154958
699.335	0.11544597
699.527	0.11537292
699.719	0.11530082
699.91	0.11528243
700.102	0.11518194
700.294	0.11512837
700.485	0.11511317
700.677	0.11506967
700.869	0.11504853
701.06	0.11504995
701.252	0.11499141
701.443	0.11498623
701.635	0.11495604
701.826	0.11490949
702.018	0.11491093
702.209	0.11489736
702.401	0.11484008
702.592	0.11481324
702.784	0.11479724
702.975	0.1147652
703.166	0.11473972
703.358	0.11464009
703.549	0.11465108
703.741	0.11469527
703.932	0.11472293
704.123	0.1147381
704.315	0.1147317
704.506	0.11471546
704.697	0.11466641
704.888	0.11452226
705.08	0.11443019
705.271	0.11438755
705.462	0.11429149
705.653	0.11426763
705.844	0.11422697
706.035	0.11425023
706.227	0.11429412
706.418	0.11431794
706.609	0.11426592
706.8	0.11428808
706.991	0.11427721
707.182	0.11425207
707.373	0.11420579
707.564	0.1142396
707.755	0.11418502
707.946	0.11421543
708.137	0.11420188
708.328	0.11416786
708.519	0.11418359
708.71	0.11424101
708.901	0.11418686
709.092	0.11416807
709.283	0.11408449
709.473	0.11407391
709.664	0.11404303
709.855	0.11399833
710.046	0.11397749
710.237	0.1139998
710.427	0.11406252
710.618	0.11413268
710.809	0.11413189
711	0.11418872
711.19	0.11421879
711.381	0.11423222
711.572	0.11422615
711.762	0.11421593
711.953	0.11415455
712.144	0.11410417
712.334	0.11402604
712.525	0.11401903
712.715	0.11398673
712.906	0.11397986
713.097	0.11390566
713.287	0.11385946
713.478	0.11391038
713.668	0.11395724
713.859	0.11384923
714.049	0.11378887
714.239	0.11371967
714.43	0.11368991
714.62	0.11371242
714.811	0.11363369
715.001	0.11360377
715.191	0.11367901
715.382	0.11367866
715.572	0.11374434
715.762	0.11375376
715.953	0.11379645
716.143	0.11387119
716.333	0.11384994
716.523	0.11387736
716.714	0.11397993
716.904	0.11398001
717.094	0.11406902
717.284	0.11404902
717.474	0.11403458
717.664	0.11411537
717.855	0.11410614
718.045	0.11399976
718.235	0.11396762
718.425	0.11391888
718.615	0.11390256
718.805	0.11389882
718.995	0.11382923
719.185	0.11389567
719.375	0.11397049
719.565	0.11400305
719.755	0.11401287
719.945	0.11409257
720.135	0.11415062
720.325	0.11419414
720.515	0.11417503
720.704	0.1142396
720.894	0.11431275
721.084	0.11438806
721.274	0.11439508
721.464	0.11436097
721.654	0.11440857
721.843	0.11444156
722.033	0.11445889
722.223	0.1144167
722.413	0.11440836
722.602	0.11446464
722.792	0.11454591
722.982	0.11453423
723.171	0.11451379
723.361	0.11456225
723.55	0.11470576
723.74	0.11472481
723.93	0.11470149
724.119	0.11477562
724.309	0.11486723
724.498	0.11490322
724.688	0.11487152
724.877	0.11477836
725.067	0.11479667
725.256	0.11482091
725.446	0.11471874
725.635	0.11465846
725.825	0.11469186
726.014	0.11466504
726.203	0.11468589
726.393	0.11466469
726.582	0.11468588
726.771	0.11476294
726.961	0.11478766
727.15	0.11472165
727.339	0.11471205
727.529	0.11474591
727.718	0.11476623
727.907	0.1147473
728.096	0.11473267
728.286	0.1147817
728.475	0.11486836
728.664	0.1149447
728.853	0.11498313
729.042	0.11499404
729.231	0.11495544
729.42	0.11491441
729.609	0.11484489
729.799	0.11476762
729.988	0.11478643
730.177	0.11470887
730.366	0.11469524
730.555	0.11470442
730.744	0.11469866
730.933	0.11470061
731.122	0.11468552
731.31	0.11461997
731.499	0.11457493
731.688	0.11454276
731.877	0.11447714
732.066	0.11450741
732.255	0.11450204
732.444	0.11454228
732.632	0.11456123
732.821	0.11462315
733.01	0.11468059
733.199	0.11474704
733.388	0.11478282
733.576	0.11478419
733.765	0.11484451
733.954	0.11482395
734.142	0.11482769
734.331	0.11481826
734.52	0.11484821
734.708	0.11485155
734.897	0.11487931
735.086	0.11479402
735.274	0.11482652
735.463	0.11482188
735.651	0.11483565
735.84	0.11481327
736.028	0.11478746
736.217	0.11476282
736.405	0.11477104
736.594	0.11475695
736.782	0.11474592
736.971	0.11478338
737.159	0.11479655
737.347	0.11481686
737.536	0.11486848
737.724	0.11490524
737.912	0.11488748
738.101	0.11493617
738.289	0.11488607
738.477	0.11489385
738.666	0.11486597
738.854	0.11482809
739.042	0.11484206
739.23	0.11486037
739.418	0.11485762
739.607	0.11485323
739.795	0.11490339
739.983	0.11492926
740.171	0.1149503
740.359	0.11497348
740.547	0.11498155
740.735	0.11499598
740.923	0.11506977
741.112	0.11504481
741.3	0.11503335
741.488	0.11499369
741.676	0.11495675
741.864	0.11495621
742.052	0.1149408
742.239	0.11491663
742.427	0.11493498
742.615	0.11493181
742.803	0.11496212
742.991	0.1149209
743.179	0.11487326
743.367	0.11485875
743.555	0.11489328
743.742	0.11487862
743.93	0.11488978
744.118	0.11488109
744.306	0.11493801
744.494	0.1149951
744.681	0.11495701
744.869	0.11485739
745.057	0.11483516
745.244	0.11480316
745.432	0.11478886
745.62	0.11473571
745.807	0.11466762
745.995	0.11467844
746.182	0.11470523
746.37	0.114723
746.558	0.11476565
746.745	0.11480787
746.933	0.11489873
747.12	0.11495307
747.308	0.11499471
747.495	0.11500144
747.683	0.11498886
747.87	0.11494781
748.057	0.11494752
748.245	0.11494747
748.432	0.11500051
748.62	0.11503969
748.807	0.11507998
748.994	0.11506052
749.182	0.11505309
749.369	0.11507708
749.556	0.11509705
749.743	0.11509928
749.931	0.11510067
750.118	0.11510692
750.305	0.11517207
750.492	0.11520165
750.68	0.11520989
750.867	0.11516827
751.054	0.11517387
751.241	0.11515934
751.428	0.11514143
751.615	0.11509923
751.802	0.11511134
751.989	0.11503352
752.176	0.11506802
752.363	0.11503105
752.55	0.11499672
752.737	0.11503667
752.924	0.11504406
753.111	0.11504363
753.298	0.115123
753.485	0.11512201
753.672	0.11506859
753.859	0.11502836
754.046	0.11490704
754.233	0.11488864
754.42	0.11490703
754.606	0.11489994
754.793	0.11481291
754.98	0.11483521
755.167	0.11477328
755.353	0.11478724
755.54	0.114759
755.727	0.11462424
755.914	0.11454329
756.1	0.11448229
756.287	0.11444461
756.474	0.11451676
756.66	0.11454487
756.847	0.11453441
757.033	0.11460833
757.22	0.11460804
757.407	0.11470561
757.593	0.11474019
757.78	0.1147245
757.966	0.11474046
758.153	0.11478874
758.339	0.11474163
758.526	0.11475798
758.712	0.11474981
758.898	0.1148114
759.085	0.11480004
759.271	0.11476338
759.458	0.11475174
759.644	0.11480534
759.83	0.11479674
760.017	0.11474859
760.203	0.11466508
760.389	0.11471294
760.576	0.11469566
760.762	0.11471805
760.948	0.11465179
761.134	0.1146103
761.32	0.11458931
761.507	0.11455567
761.693	0.11452796
761.879	0.11448021
762.065	0.11431454
762.251	0.11427977
762.437	0.11426317
762.623	0.11424733
762.809	0.11419332
762.995	0.11410501
763.181	0.11404518
763.367	0.11413667
763.553	0.11413708
763.739	0.11410275
763.925	0.11406934
764.111	0.11408285
764.297	0.11406602
764.483	0.11404223
764.669	0.11394734
764.855	0.11390826
765.041	0.11393728
765.227	0.11394736
765.412	0.11397028
765.598	0.11395249
765.784	0.11396831
765.97	0.11399879
766.156	0.11402086
766.341	0.11391017
766.527	0.11384558
766.713	0.11374756
766.898	0.1136196
767.084	0.11350447
767.27	0.11340917
767.455	0.11331599
767.641	0.11326096
767.827	0.11318241
768.012	0.11311029
768.198	0.11314428
768.383	0.11317797
768.569	0.11325095
768.754	0.1133126
768.94	0.11339933
769.125	0.11345832
769.311	0.11351842
769.496	0.11348403
769.682	0.11343354
769.867	0.11325338
770.052	0.11306784
770.238	0.1128881
770.423	0.11276207
770.608	0.11257413
770.794	0.11245089
770.979	0.11237041
771.164	0.11233657
771.35	0.11235677
771.535	0.11237143
771.72	0.11237943
771.905	0.11243393
772.09	0.11247848
772.276	0.11246907
772.461	0.11244691
772.646	0.11238778
772.831	0.1123591
773.016	0.11233386
773.201	0.11230036
773.386	0.11223012
773.571	0.11220761
773.756	0.11215467
773.941	0.11208555
774.126	0.11202623
774.311	0.11192474
774.496	0.11185726
774.681	0.11185801
774.866	0.11187936
775.051	0.11186798
775.236	0.1118806
775.421	0.11188241
775.606	0.11184245
775.791	0.11181652
775.976	0.11169794
776.16	0.11157901
776.345	0.11153598
776.53	0.11151972
776.715	0.11142525
776.899	0.11129711
777.084	0.11118488
777.269	0.1111744
777.454	0.11112665
777.638	0.11111121
777.823	0.11103346
778.008	0.11098311
778.192	0.11104833
778.377	0.11103169
778.561	0.1110004
778.746	0.11097223
778.931	0.11091874
779.115	0.11085025
779.3	0.11077805
779.484	0.11067706
779.669	0.1105878
779.853	0.11048755
780.037	0.11038157
780.222	0.11022079
780.406	0.11007875
780.591	0.11005017
780.775	0.10999294
780.959	0.10999596
781.144	0.10989012
781.328	0.10979131
781.512	0.10970473
781.697	0.10968612
781.881	0.10957074
782.065	0.10941876
782.249	0.10923264
782.434	0.10913304
782.618	0.10904034
782.802	0.10901548
782.986	0.10896662
783.17	0.10895191
783.354	0.10902063
783.539	0.1090041
783.723	0.10899406
783.907	0.1089947
784.091	0.10887661
784.275	0.10875995
784.459	0.10856796
784.643	0.10839937
784.827	0.10830967
785.011	0.10827224
785.195	0.10815248
785.379	0.10816167
785.563	0.10811202
785.747	0.10814189
785.93	0.10810533
786.114	0.10801077
786.298	0.10785714
786.482	0.10775393
786.666	0.10762923
786.85	0.10748577
787.033	0.10735065
787.217	0.10717944
787.401	0.1071825
787.585	0.10722302
787.768	0.1072519
787.952	0.10720019
788.136	0.1072406
788.319	0.10716796
788.503	0.10705777
788.687	0.10690993
788.87	0.10671786
789.054	0.10649466
789.237	0.10634294
789.421	0.1061977
789.605	0.10607044
789.788	0.10604396
789.972	0.10601203
790.155	0.10588899
790.338	0.10582303
790.522	0.10566269
790.705	0.10550955
790.889	0.10543413
791.072	0.1053365
791.256	0.10511713
791.439	0.1050906
791.622	0.10502006
791.806	0.10510252
791.989	0.10511248
792.172	0.10505212
792.355	0.10496791
792.539	0.10500789
792.722	0.10491049
792.905	0.10481296
793.088	0.10456411
793.271	0.10434593
793.455	0.10415897
793.638	0.10402916
793.821	0.10380248
794.004	0.10363624
794.187	0.10348241
794.37	0.1033533
794.553	0.10329836
794.736	0.1032775
794.919	0.10320467
795.102	0.10321584
795.285	0.103218
795.468	0.10317882
795.651	0.10321725
795.834	0.10315474
796.017	0.10305803
796.2	0.10296792
796.383	0.10280819
796.566	0.10267119
796.749	0.10262449
796.931	0.10252869
797.114	0.10232277
797.297	0.10220789
797.48	0.10202543
797.663	0.10198052
797.845	0.10187815
798.028	0.10182367
798.211	0.1016852
798.393	0.10174524
798.576	0.10167658
798.759	0.10170604
798.941	0.1015938
799.124	0.10148451
799.307	0.10130327
799.489	0.10120605
799.672	0.10099533
799.854	0.10082782
800.037	0.10061607
800.219	0.10044113
800.402	0.10029561
800.584	0.10009821
800.767	0.09984963
800.949	0.09970976
801.132	0.09956675
801.314	0.09946713
801.496	0.09932962
801.679	0.09928795
801.861	0.09918888
802.043	0.0991723
802.226	0.09910298
802.408	0.09905785
802.59	0.09894643
802.772	0.09882496
802.955	0.09865714
803.137	0.09856086
803.319	0.09846133
803.501	0.09830751
803.684	0.09817233
803.866	0.09809332
804.048	0.09807451
804.23	0.09807189
804.412	0.09804401
804.594	0.09791799
804.776	0.09786972
804.958	0.09775019
805.14	0.09765907
805.322	0.09754598
805.504	0.09732848
805.686	0.09716785
805.868	0.09707487
806.05	0.09691603
806.232	0.09679707
806.414	0.09664445
806.596	0.09647171
806.778	0.09635536
806.96	0.09622482
807.141	0.09605072
807.323	0.09589953
807.505	0.09573356
807.687	0.09559337
807.869	0.09552159
808.05	0.09539282
808.232	0.09520782
808.414	0.0951255
808.595	0.09499762
808.777	0.09496031
808.959	0.09487483
809.14	0.09480788
809.322	0.09472383
809.504	0.09471404
809.685	0.09460857
809.867	0.09456466
810.048	0.09446007
810.23	0.09433781
810.411	0.09403799
810.593	0.09379599
810.774	0.09353232
810.956	0.09338186
811.137	0.09318545
811.319	0.09298602
811.5	0.09289187
811.681	0.09279706
811.863	0.09273322
812.044	0.09263419
812.225	0.0925634
812.407	0.09243624
812.588	0.09229265
812.769	0.09205794
812.951	0.09193325
813.132	0.09181963
813.313	0.09178932
813.494	0.09171205
813.675	0.09171355
813.857	0.09169913
814.038	0.09173212
814.219	0.0917068
814.4	0.09160588
814.581	0.09145539
814.762	0.09119971
814.943	0.09099885
815.124	0.09079088
815.305	0.09060179
815.486	0.09041243
815.667	0.09022812
815.848	0.09009178
816.029	0.08996406
816.21	0.08976957
816.391	0.08967891
816.572	0.08959827
816.753	0.08944391
816.934	0.08934233
817.115	0.08912343
817.295	0.08895606
817.476	0.08881748
817.657	0.0886801
817.838	0.08847182
818.019	0.08836429
818.199	0.08816558
818.38	0.08800651
818.561	0.08785828
818.741	0.08769641
818.922	0.08740471
819.103	0.08722901
819.283	0.08702887
819.464	0.08696531
819.645	0.08693922
819.825	0.08685113
820.006	0.08673909
820.186	0.08670493
820.367	0.08656063
820.547	0.08641654
820.728	0.08622469
820.908	0.08601011
821.089	0.08585073
821.269	0.08567974
821.45	0.08544459
821.63	0.08523733
821.81	0.08512108
821.991	0.08498394
822.171	0.08491303
822.351	0.08481307
822.532	0.08474341
822.712	0.08475367
822.892	0.08469922
823.072	0.08455978
823.253	0.08443494
823.433	0.08424362
823.613	0.08409521
823.793	0.08390769
823.973	0.08371722
824.154	0.08354324
824.334	0.08343882
824.514	0.08331836
824.694	0.08315111
824.874	0.0829757
825.054	0.08289999
825.234	0.08277219
825.414	0.08267614
825.594	0.08254265
825.774	0.08241259
825.954	0.0823467
826.134	0.08224594
826.314	0.08213301
826.494	0.08194448
826.674	0.08178419
826.854	0.08165085
827.033	0.08151894
827.213	0.0813981
827.393	0.0812179
827.573	0.08106408
827.753	0.08095193
827.932	0.08075864
828.112	0.08055165
828.292	0.08030783
828.472	0.08004278
828.651	0.07985258
828.831	0.07948021
829.011	0.07917485
829.19	0.0789679
829.37	0.07880755
829.549	0.07869314
829.729	0.07861127
829.909	0.07842345
830.088	0.07836779
830.268	0.07819479
830.447	0.07799919
830.627	0.07782282
830.806	0.07756335
830.986	0.07731317
831.165	0.0771801
831.344	0.07704861
831.524	0.07700601
831.703	0.07702395
831.883	0.07692041
832.062	0.07689744
832.241	0.07677922
832.421	0.07668465
832.6	0.07649406
832.779	0.07635886
832.958	0.07609019
833.138	0.07584408
833.317	0.07557889
833.496	0.07534681
833.675	0.07517317
833.854	0.07518586
834.034	0.0751344
834.213	0.07510531
834.392	0.07507578
834.571	0.07493049
834.75	0.07487089
834.929	0.07478574
835.108	0.07452318
835.287	0.0742041
835.466	0.07396871
835.645	0.07369369
835.824	0.07360189
836.003	0.07349685
836.182	0.0733885
836.361	0.073313
836.54	0.07332334
836.719	0.07327924
836.897	0.07322376
837.076	0.07312181
837.255	0.07297968
837.434	0.07272581
837.613	0.07249538
837.791	0.07231059
837.97	0.07214115
838.149	0.07206261
838.328	0.07196738
838.506	0.07187595
838.685	0.07174975
838.864	0.07168134
839.042	0.07143131
839.221	0.07112845
839.4	0.07080244
839.578	0.0705003
839.757	0.07021009
839.935	0.07006417
840.114	0.06988786
840.292	0.06992309
840.471	0.06991186
840.649	0.0698705
840.828	0.06982463
841.006	0.06971641
841.185	0.06951863
841.363	0.06936738
841.541	0.06916595
841.72	0.0690662
841.898	0.06895643
842.076	0.06877885
842.255	0.06869046
842.433	0.06859526
842.611	0.068454
842.789	0.06823932
842.968	0.06803734
843.146	0.06782754
843.324	0.06759417
843.502	0.06738969
843.68	0.06720742
843.859	0.06703258
844.037	0.06688386
844.215	0.06664256
844.393	0.06655635
844.571	0.06650534
844.749	0.06638879
844.927	0.06621176
845.105	0.0660006
845.283	0.06577356
845.461	0.06564849
845.639	0.06546748
845.817	0.06525262
845.995	0.06511018
846.173	0.065111
846.351	0.06509567
846.529	0.06505425
846.706	0.0650086
846.884	0.0647943
847.062	0.06468162
847.24	0.06446195
847.418	0.06417057
847.595	0.06390876
847.773	0.06366601
847.951	0.0633867
848.129	0.06321827
848.306	0.06307502
848.484	0.06297003
848.662	0.06290636
848.839	0.0627803
849.017	0.06277034
849.194	0.06265982
849.372	0.06259258
849.549	0.06250612
849.727	0.06237807
849.905	0.06217113
850.082	0.06205952
850.26	0.06185894
850.437	0.06165705
850.614	0.06151221
850.792	0.06136621
850.969	0.06131188
851.147	0.06120841
851.324	0.06107196
851.501	0.06091472
851.679	0.06075967
851.856	0.06060152
852.033	0.06032028
852.211	0.05998451
852.388	0.05972743
852.565	0.05949917
852.742	0.05928648
852.92	0.05923329
853.097	0.05894042
853.274	0.0587249
853.451	0.05855679
853.628	0.05850031
853.805	0.05847471
853.982	0.05837966
854.159	0.05816336
854.336	0.05812902
854.514	0.05807771
854.691	0.05798529
854.868	0.05783159
855.045	0.05762709
855.221	0.05744568
855.398	0.05726652
855.575	0.05710879
855.752	0.05700491
855.929	0.05687552
856.106	0.05666774
856.283	0.05649179
856.46	0.05637924
856.637	0.05633201
856.813	0.05617997
856.99	0.05596889
857.167	0.05574277
857.344	0.05562246
857.52	0.05535163
857.697	0.05522877
857.874	0.05501583
858.05	0.05482305
858.227	0.05459546
858.404	0.05449615
858.58	0.05431967
858.757	0.05427218
858.933	0.05406154
859.11	0.0539827
859.287	0.05390412
859.463	0.0538422
859.64	0.0537309
859.816	0.05358233
859.993	0.05345411
860.169	0.05335796
860.345	0.05312656
860.522	0.05302
860.698	0.05293014
860.875	0.05289017
861.051	0.05288187
861.227	0.05279722
861.404	0.05270537
861.58	0.05265323
861.756	0.05254656
861.932	0.05241607
862.109	0.05222129
862.285	0.05197982
862.461	0.05185474
862.637	0.05165609
862.813	0.05156698
862.99	0.0513088
863.166	0.05104867
863.342	0.05093034
863.518	0.05088529
863.694	0.05077168
863.87	0.05069439
864.046	0.05043837
864.222	0.05043555
864.398	0.05051142
864.574	0.05039961
864.75	0.05028353
864.926	0.05017636
865.102	0.05001183
865.278	0.05002021
865.454	0.04989712
865.63	0.04969814
865.805	0.04951127
865.981	0.04939422
866.157	0.04923006
866.333	0.04905879
866.509	0.04883086
866.684	0.04868093
866.86	0.04852259
867.036	0.04838885
867.212	0.04809312
867.387	0.04791767
867.563	0.0477826
867.739	0.04769749
867.914	0.04757713
868.09	0.04757114
868.265	0.04747824
868.441	0.0474376
868.617	0.04734258
868.792	0.04723031
868.968	0.04701833
869.143	0.04676163
869.319	0.04645189
869.494	0.04631279
869.67	0.04618525
869.845	0.04599064
870.02	0.04586457
870.196	0.04586017
870.371	0.04589063
870.546	0.04590248
870.722	0.04587581
870.897	0.04582703
871.072	0.04577119
871.248	0.0456583
871.423	0.04545758
871.598	0.04534242
871.773	0.04518359
871.949	0.04506334
872.124	0.04491178
872.299	0.04472853
872.474	0.0445818
872.649	0.04442767
872.824	0.0442038
872.999	0.04398069
873.174	0.04378894
873.349	0.04365145
873.524	0.0435303
873.699	0.04336526
873.874	0.04321397
874.049	0.04302754
874.224	0.04297154
874.399	0.04274148
874.574	0.0425366
874.749	0.04234159
874.924	0.04230523
875.099	0.042258
875.274	0.04221713
875.449	0.04209961
875.623	0.04207559
875.798	0.04193876
875.973	0.04184593
876.148	0.04162018
876.322	0.04147547
876.497	0.04120229
876.672	0.0409255
876.846	0.04055533
877.021	0.04037184
877.196	0.04013531
877.37	0.04003894
877.545	0.03993192
877.72	0.03993298
877.894	0.03991506
878.069	0.03998187
878.243	0.03989926
878.418	0.03985434
878.592	0.03970256
878.767	0.03955438
878.941	0.03944242
879.116	0.03937193
879.29	0.03918943
879.464	0.03903622
879.639	0.03891939
879.813	0.03889482
879.987	0.03877226
880.162	0.03861768
880.336	0.03844805
880.51	0.03839216
880.685	0.03836388
880.859	0.03836661
881.033	0.03824824
881.207	0.0381439
881.381	0.03793415
881.556	0.03772439
881.73	0.03752211
881.904	0.03728634
882.078	0.03718337
882.252	0.03700908
882.426	0.0368407
882.6	0.03677268
882.774	0.03668184
882.948	0.03657341
883.122	0.0365437
883.296	0.0363239
883.47	0.03617307
883.644	0.03610003
883.818	0.03601261
883.992	0.03604252
884.166	0.03596472
884.34	0.03589949
884.514	0.03590492
884.687	0.03589059
884.861	0.03572335
885.035	0.03568706
885.209	0.03557764
885.382	0.03557339
885.556	0.03542406
885.73	0.03519834
885.904	0.03499366
886.077	0.03487549
886.251	0.03468534
886.425	0.03449758
886.598	0.03424492
886.772	0.03418404
886.945	0.03410826
887.119	0.03405633
887.292	0.03396895
887.466	0.0338529
887.64	0.03374337
887.813	0.03368889
887.986	0.03346053
888.16	0.03327704
888.333	0.03313376
888.507	0.03292217
888.68	0.03260357
888.854	0.03243733
889.027	0.03227265
889.2	0.03224046
889.374	0.03214548
889.547	0.03202342
889.72	0.03209185
889.893	0.03225226
890.067	0.03219137
890.24	0.03214511
890.413	0.03200301
890.586	0.03193861
890.759	0.03187958
890.933	0.03177691
891.106	0.03165857
891.279	0.03162466
891.452	0.03150254
891.625	0.0314627
891.798	0.03130263
891.971	0.03115554
892.144	0.0310345
892.317	0.03102048
892.49	0.03102486
892.663	0.03111392
892.836	0.03096624
893.009	0.03101022
893.182	0.03093953
893.355	0.03089877
893.527	0.03065447
893.7	0.03037497
893.873	0.03009113
894.046	0.02998444
894.219	0.02973504
894.391	0.0296254
894.564	0.0294012
894.737	0.02922533
894.91	0.02905873
895.082	0.02889613
895.255	0.02870742
895.428	0.0286796
895.6	0.02858971
895.773	0.02841456
895.945	0.02837971
896.118	0.02832764
896.291	0.02828608
896.463	0.0282029
896.636	0.02803151
896.808	0.02788107
896.981	0.02775047
897.153	0.02765518
897.326	0.02752691
897.498	0.02741819
897.67	0.02737638
897.843	0.02734148
898.015	0.02743873
898.187	0.02757779
898.36	0.02753294
898.532	0.02749385
898.704	0.02752563
898.877	0.02754647
899.049	0.02750869
899.221	0.02735917
899.393	0.02716004
899.566	0.02697645
899.738	0.02681962
899.91	0.02662684
900.082	0.02650246
900.254	0.0262893
900.426	0.02619319
900.598	0.02612633
900.77	0.02609764
900.942	0.02621075
901.114	0.02610311
901.286	0.02592715
901.458	0.02584823
901.63	0.02543195
901.802	0.02522554
901.974	0.0250174
902.146	0.02473289
902.318	0.02456284
902.49	0.02445972
902.662	0.02446482
902.834	0.02461696
903.005	0.0246013
903.177	0.02465472
903.349	0.02469187
903.521	0.02488835
903.693	0.02501815
903.864	0.02492696
904.036	0.02496402
904.208	0.02497511
904.379	0.02486379
904.551	0.02493731
904.723	0.0247008
904.894	0.02442488
905.066	0.02426076
905.237	0.02397595
905.409	0.02374049
905.58	0.02359964
905.752	0.02336739
905.923	0.02323074
906.095	0.02317193
906.266	0.02327265
906.438	0.02319905
906.609	0.02315165
906.78	0.02322973
906.952	0.0231134
907.123	0.02310657
907.295	0.02306983
907.466	0.0227767
907.637	0.02284914
907.808	0.02282571
907.98	0.02275154
908.151	0.02279469
908.322	0.02257093
908.493	0.02246411
908.665	0.02253932
908.836	0.0223658
909.007	0.02229828
909.178	0.02213316
909.349	0.02185818
909.52	0.02187817
909.691	0.0217726
909.862	0.0216396
910.033	0.0215535
910.204	0.02141058
910.375	0.02135099
910.546	0.02125998
910.717	0.02122874
910.888	0.02114487
911.059	0.02107534
911.23	0.02110046
911.401	0.02116319
911.572	0.02111654
911.742	0.02107806
911.913	0.02093167
912.084	0.02089352
912.255	0.02086076
912.426	0.02078614
912.596	0.02062371
912.767	0.02056139
912.938	0.0205414
913.108	0.02061357
913.279	0.02053336
913.45	0.02044107
913.62	0.02038863
913.791	0.02040612
913.962	0.02043831
914.132	0.02043303
914.303	0.02026159
914.473	0.02018712
914.644	0.02004667
914.814	0.01996257
914.985	0.01987248
915.155	0.01970423
915.326	0.01952391
915.496	0.01951724
915.666	0.01949781
915.837	0.01951869
916.007	0.01942374
916.177	0.01923957
916.348	0.01902698
916.518	0.01898785
916.688	0.01879003
916.858	0.01865829
917.029	0.01846826
917.199	0.01844976
917.369	0.01854613
917.539	0.01874002
917.709	0.01875693
917.88	0.018705
918.05	0.01865555
918.22	0.01866117
918.39	0.01841718
918.56	0.01818117
918.73	0.01799907
918.9	0.0178161
919.07	0.01759763
919.24	0.01750836
919.41	0.01727611
919.58	0.01715793
919.75	0.01699805
919.92	0.01676638
920.09	0.01664329
920.26	0.01661653
920.429	0.01651194
920.599	0.01659426
920.769	0.0167205
920.939	0.01682802
921.109	0.01690718
921.278	0.0169075
921.448	0.01705848
921.618	0.01706492
921.787	0.01711686
921.957	0.01695387
922.127	0.01696562
922.296	0.01691319
922.466	0.01692362
922.636	0.01692118
922.805	0.01700077
922.975	0.01686329
923.144	0.01687008
923.314	0.01683441
923.483	0.01663803
923.653	0.01652175
923.822	0.01640279
923.992	0.01620332
924.161	0.01611879
924.331	0.01594282
924.5	0.01575354
924.669	0.01566424
924.839	0.0157321
925.008	0.01570926
925.177	0.01559972
925.347	0.01556777
925.516	0.01561608
925.685	0.01549785
925.854	0.01564473
926.023	0.01528881
926.193	0.01515839
926.362	0.01512551
926.531	0.01499832
926.7	0.01491005
926.869	0.01492113
927.038	0.01480552
927.207	0.01494314
927.376	0.01486552
927.545	0.01481692
927.715	0.01472102
927.884	0.01468901
928.052	0.01470107
928.221	0.01480718
928.39	0.01466127
928.559	0.014625
928.728	0.01453857
928.897	0.01461508
929.066	0.01465555
929.235	0.01463735
929.404	0.01444008
929.572	0.01450981
929.741	0.01445163
929.91	0.01435365
930.079	0.01433237
930.247	0.0141011
930.416	0.01408258
930.585	0.01405874
930.753	0.01400023
930.922	0.01399631
931.091	0.01407617
931.259	0.01398326
931.428	0.01396705
931.596	0.01359925
931.765	0.01351766
931.934	0.01353853
932.102	0.01347709
932.27	0.01344618
932.439	0.01332674
932.607	0.01338926
932.776	0.01347687
932.944	0.01338632
933.113	0.01322297
933.281	0.01323196
933.449	0.01325277
933.618	0.01331405
933.786	0.0133147
933.954	0.01341592
934.123	0.01342047
934.291	0.01342018
934.459	0.01335017
934.627	0.0132463
934.795	0.01320497
934.964	0.01318739
935.132	0.01335201
935.3	0.01344526
935.468	0.01345156
935.636	0.01326732
935.804	0.01339304
935.972	0.01316879
936.14	0.01295509
936.308	0.01281278
936.476	0.01279714
936.644	0.01284631
936.812	0.01325353
936.98	0.01336188
937.148	0.0137883
937.316	0.01442327
937.484	0.01450762
937.652	0.01461741
937.82	0.01474977
937.987	0.01451374
938.155	0.01461425
938.323	0.01452322
938.491	0.01412171
938.658	0.01402801
938.826	0.01366595
938.994	0.01383203
939.162	0.01374188
939.329	0.01323165
939.497	0.01310358
939.665	0.01283665
939.832	0.01292183
940	0.01381572
940.167	0.01378513
940.335	0.01411814
940.502	0.01465723
940.67	0.01511228
940.837	0.0160715
941.005	0.01658848
941.172	0.01639598
941.34	0.01630942
941.507	0.01665161
941.674	0.01646822
941.842	0.01732499
942.009	0.01772578
942.177	0.01733682
942.344	0.01724548
942.511	0.0178179
942.678	0.01769661
942.846	0.01770099
943.013	0.01772716
943.18	0.0175176
943.347	0.01712146
943.514	0.01740529
943.682	0.01734934
943.849	0.01744485
944.016	0.01823165
944.183	0.01816326
944.35	0.01800381
944.517	0.01872104
944.684	0.0182931
944.851	0.01785496
945.018	0.01748559
945.185	0.01727787
945.352	0.01656976
945.519	0.01642126
945.686	0.01629093
945.853	0.01652667
946.02	0.01677102
946.187	0.01703629
946.353	0.01669353
946.52	0.01705774
946.687	0.01620507
946.854	0.01623462
947.021	0.01551382
947.187	0.01570277
947.354	0.01585957
947.521	0.01613879
947.687	0.01585209
947.854	0.01694284
948.021	0.01732542
948.187	0.01773128
948.354	0.01765189
948.52	0.01700473
948.687	0.01675721
948.854	0.0170219
949.02	0.01611454
949.187	0.01549652
949.353	0.01550821
949.52	0.01566498
949.686	0.01576205
949.852	0.01503683
950.019	0.01471761
950.185	0.01461232
950.352	0.01465801
950.518	0.01443065
950.684	0.01379102
950.851	0.01357859
951.017	0.01438285
951.183	0.01376161
951.349	0.01359397
951.516	0.01305898
951.682	0.01310897
951.848	0.01283977
952.014	0.01273572
952.18	0.01178203
952.346	0.0122257
952.512	0.01244559
952.679	0.01209283
952.845	0.01197292
953.011	0.0123127
953.177	0.01254152
953.343	0.01247909
953.509	0.01219452
953.675	0.01225847
953.841	0.01187029
954.007	0.01160708
954.172	0.01159623
954.338	0.01152736
954.504	0.01149098
954.67	0.01152092
954.836	0.01110098
955.002	0.01171453
955.167	0.01180822
955.333	0.01110528
955.499	0.0110699
955.665	0.01139766
955.83	0.01146082
955.996	0.0115661
956.162	0.01116494
956.327	0.01137738
956.493	0.01171424
956.659	0.01127561
956.824	0.01076592
956.99	0.0104011
957.155	0.01014801
957.321	0.01088732
957.486	0.01080139
957.652	0.01090299
957.817	0.01108622
957.983	0.01128525
958.148	0.01153274
958.314	0.01162993
958.479	0.01100014
958.644	0.0108562
958.81	0.01059688
958.975	0.01004564
959.14	0.00990674
959.306	0.00976625
959.471	0.00981381
959.636	0.00955894
959.801	0.00947099
959.967	0.00947864
960.132	0.00994172
960.297	0.01008241
960.462	0.00998687
960.627	0.00973804
960.792	0.0098985
960.957	0.00961954
961.123	0.00946882
961.288	0.00955038
961.453	0.0094907
961.618	0.00891394
961.783	0.00875592
961.948	0.00848663
962.113	0.00861453
962.277	0.00868723
962.442	0.00832145
962.607	0.00837097
962.772	0.00879736
962.937	0.00881111
963.102	0.00928325
963.267	0.0091091
963.431	0.00864032
963.596	0.00842739
963.761	0.0081583
963.926	0.00792478
964.09	0.00763409
964.255	0.00743792
964.42	0.0073694
964.584	0.00768812
964.749	0.00781685
964.914	0.00798086
965.078	0.00779708
965.243	0.00831815
965.407	0.00846298
965.572	0.00825003
965.736	0.00839479
965.901	0.00820697
966.065	0.00802488
966.23	0.00837238
966.394	0.00794973
966.559	0.00783459
966.723	0.00792984
966.887	0.00768061
967.052	0.00760547
967.216	0.00727326
967.38	0.00695171
967.545	0.0067967
967.709	0.00614874
967.873	0.00581278
968.037	0.00584025
968.202	0.00597754
968.366	0.00605865
968.53	0.0063988
968.694	0.0065634
968.858	0.00706833
969.022	0.00751554
969.187	0.00729782
969.351	0.00757169
969.515	0.00748887
969.679	0.00729205
969.843	0.0072339
970.007	0.00710454
970.171	0.00702544
970.335	0.0069311
970.499	0.00657405
970.662	0.0067169
970.826	0.00641809
970.99	0.00622974
971.154	0.00621766
971.318	0.00653292
971.482	0.00694334
971.645	0.00697901
971.809	0.00679876
971.973	0.00722727
972.137	0.00780806
972.3	0.00802854
972.464	0.00754828
972.628	0.00753029
972.791	0.00750322
972.955	0.00772125
973.119	0.0074817
973.282	0.00718429
973.446	0.00701892
973.609	0.00723261
973.773	0.00696536
973.936	0.00725373
974.1	0.00701114
974.263	0.00706642
974.427	0.0067548
974.59	0.00682191
974.754	0.00644136
974.917	0.00650391
975.08	0.00604019
975.244	0.00575237
975.407	0.00572924
975.57	0.00593443
975.734	0.00566709
975.897	0.00585121
976.06	0.00574037
976.223	0.00603433
976.387	0.00652693
976.55	0.006256
976.713	0.00657902
976.876	0.00650371
977.039	0.00608019
977.202	0.00613569
977.365	0.00607971
977.528	0.00617973
977.692	0.00621511
977.855	0.00594661
978.018	0.0061288
978.181	0.00656549
978.344	0.00685771
978.506	0.00729973
978.669	0.00708107
978.832	0.00700885
978.995	0.00706921
979.158	0.00695633
979.321	0.00698348
979.484	0.00682646
979.646	0.00674572
979.809	0.0069168
979.972	0.00711042
980.135	0.0071034
980.297	0.00728289
980.46	0.00698083
980.623	0.00673624
980.786	0.00600119
980.948	0.00597181
981.111	0.00602641
981.273	0.00564502
981.436	0.00520536
981.599	0.00515947
981.761	0.00500118
981.924	0.00565302
982.086	0.00601549
982.249	0.00601946
982.411	0.00635018
982.573	0.00696369
982.736	0.00709508
982.898	0.00735586
983.061	0.00714723
983.223	0.00680191
983.385	0.00666301
983.548	0.006902
983.71	0.00671983
983.872	0.00687653
984.034	0.00684612
984.197	0.00634617
984.359	0.00634517
984.521	0.00696555
984.683	0.00675878
984.845	0.00677048
985.008	0.00681899
985.17	0.00674787
985.332	0.00732227
985.494	0.0069318
985.656	0.00594628
985.818	0.00588957
985.98	0.00559852
986.142	0.00601796
986.304	0.00639955
986.466	0.00663422
986.628	0.00692595
986.79	0.00745506
986.952	0.00792626
987.113	0.00778478
987.275	0.00712482
987.437	0.0065639
987.599	0.00629687
987.761	0.00662521
987.922	0.006624
988.084	0.00641385
988.246	0.00712324
988.408	0.00777751
988.569	0.00793947
988.731	0.00801696
988.893	0.00720588
989.054	0.00641511
989.216	0.00582302
989.377	0.00569025
989.539	0.00559036
989.701	0.00579602
989.862	0.00587708
990.024	0.00626146
990.185	0.00679061
990.347	0.00658916
990.508	0.00603125
990.669	0.00568672
990.831	0.00539201
990.992	0.00500214
991.154	0.00458196
991.315	0.00537715
991.476	0.00571773
991.638	0.00570703
991.799	0.00563655
991.96	0.00525176
992.121	0.0054296
992.283	0.00612987
992.444	0.00577947
992.605	0.00601121
992.766	0.0065135
992.927	0.00655438
993.088	0.00732878
993.249	0.00767025
993.41	0.00811792
993.572	0.00793347
993.733	0.00702235
993.894	0.00706453
994.055	0.00706055
994.216	0.00693356
994.376	0.00577272
994.537	0.004925
994.698	0.00504663
994.859	0.00618124
995.02	0.00548145
995.181	0.00549059
995.342	0.00495908
995.503	0.00507645
995.663	0.00528478
995.824	0.00492973
995.985	0.00454508
996.146	0.0048461
996.306	0.00534986
996.467	0.00593014
996.628	0.0063801
996.788	0.00623992
996.949	0.00644403
997.11	0.00652606
997.27	0.00638878
997.431	0.00589566
997.591	0.00564585
997.752	0.00612579
997.912	0.0061042
998.073	0.00663647
998.233	0.00659071
998.394	0.00667155
998.554	0.00698991
998.714	0.00663568
998.875	0.0064986
999.035	0.0063469
999.196	0.00575431
999.356	0.00597491
999.516	0.00572189
999.676	0.0047735
999.837	0.00569225
999.997	0.00541218
1000.157	0.00620053
1000.317	0.00639195
1000.477	0.00681739
1000.638	0.0072665
1000.798	0.00759928
1000.958	0.0073246
1001.118	0.00781232
1001.278	0.00716889
1001.438	0.00722075
1001.598	0.00656382
1001.758	0.00653438
1001.918	0.00814742
1002.078	0.00834408
1002.238	0.00844296
1002.398	0.00891055
1002.558	0.00891323
1002.718	0.00892167
1002.878	0.00891797
1003.037	0.00806944
1003.197	0.00837117
1003.357	0.00798007
1003.517	0.00694018
1003.677	0.00713886
1003.836	0.00734827
1003.996	0.00777713
1004.156	0.00792758
1004.315	0.00707511
1004.475	0.00765259
1004.635	0.00933912
1004.794	0.00948807
1004.954	0.0091833
1005.114	0.00836032
1005.273	0.00768675
1005.433	0.0086231
1005.592	0.00833326
1005.752	0.0078487
1005.911	0.00643177
1006.071	0.00622094
1006.23	0.00778974
1006.389	0.0090727
1006.549	0.00893928
1006.708	0.00804286
1006.868	0.00670306
1007.027	0.00795647
1007.186	0.00808794
1007.345	0.00839142
1007.505	0.00724838
1007.664	0.00682435
1007.823	0.00813062
1007.982	0.00951397
1008.142	0.0101168
1008.301	0.01169251
1008.46	0.0090632
1008.619	0.00999686
1008.778	0.00973054
1008.937	0.00903901
1009.096	0.00891253
1009.255	0.00778787
1009.414	0.0076444
1009.573	0.00850446
1009.732	0.00913732
1009.891	0.00879149
1010.05	0.00853473
1010.209	0.00864779
1010.368	0.00928149
1010.527	0.00768899
1010.686	0.00927914
1010.845	0.00717269
1011.003	0.00711035
1011.162	0.0087648
1011.321	0.0094318
1011.48	0.01055547
1011.638	0.01086722
1011.797	0.01057351
1011.956	0.01044432
1012.115	0.01159528
1012.273	0.0110749
1012.432	0.01130462
1012.59	0.01145748
1012.749	0.01122169
1012.908	0.01119678
1013.066	0.01084448
1013.225	0.00977693
1013.383	0.00861312
1013.542	0.00648633
1013.7	0.00406496
1013.859	0.00394454
1014.017	0.00277912
1014.175	0.00373891
1014.334	0.00331364
1014.492	0.00514492
1014.65	0.0069237
1014.809	0.00814974
1014.967	0.00889649
1015.125	0.00980488
1015.284	0.01137782
1015.442	0.01185303
1015.6	0.00899515
1015.758	0.00663036
1015.916	0.00657364
1016.075	0.00878844
1016.233	0.00868232
1016.391	0.00745603
1016.549	0.00936263
1016.707	0.01193586
1016.865	0.01327873
1017.023	0.01258661
1017.181	0.01017268
1017.339	0.01049526
1017.497	0.01082783
1017.655	0.01238817
1017.813	0.01228673
1017.971	0.01365802
1018.129	0.01602064
1018.286	0.01831856
1018.444	0.01819766
1018.602	0.0188115
1018.76	0.01719723
1018.918	0.01848754
1019.075	0.01839996
1019.233	0.01766643
1019.391	0.01725124
1019.549	0.01684326
1019.706	0.01811138
1019.864	0.01875418
1020.022	0.01546575
1020.179	0.01396229
1020.337	0.01434849
1020.494	0.01287637
1020.652	0.01409354
1020.809	0.01114764
1020.967	0.01091686
1021.124	0.01440005
1021.282	0.01621904
1021.439	0.01646546
1021.597	0.01704165
1021.754	0.01593922
1021.911	0.01910041
1022.069	0.01695471
1022.226	0.01440025
1022.384	0.01437893
1022.541	0.01356158
1022.698	0.01598034
1022.855	0.01428873
1023.013	0.01224548
1023.17	0.01185586
1023.327	0.01073033
1023.484	0.01114599
1023.641	0.0098972
1023.798	0.00513751
1023.956	0.00729628
1024.113	0.00920896
1024.27	0.0092546
1024.427	0.0111199
1024.584	0.01218634
1024.741	0.01472951
1024.898	0.01522428
1025.055	0.01708248
1025.212	0.01898871
1025.369	0.01982488
1025.525	0.01962183
1025.682	0.02016239
1025.839	0.02053576
1025.996	0.02280739
1026.153	0.02215971
1026.31	0.01617142
1026.466	0.01925061
1026.623	0.02432121
1026.78	0.02525399
1026.937	0.02415105
1027.093	0.02522775
1027.25	0.02428752
1027.407	0.0274337
1027.563	0.02263363
1027.72	0.02012184
1027.876	0.02002701
1028.033	0.02273956
1028.19	0.02345484
1028.346	0.02329147
1028.503	0.02623978
1028.659	0.02911935
1028.816	0.02895935
1028.972	0.03175205
1029.128	0.03490308
1029.285	0.0348907
1029.441	0.0348115
1029.598	0.03533172
1029.754	0.03653485
1029.91	0.03701892
1030.067	0.03201262
1030.223	0.02539558
1030.379	0.02589737
1030.535	0.0226617
1030.691	0.02418555
1030.848	0.02280117
1031.004	0.02103917
1031.16	0.02396979
1031.316	0.02466007
1031.472	0.0236792
1031.628	0.03163175
1031.784	0.02679424
1031.94	0.03311254
1032.096	0.03625871
1032.252	0.03590005
1032.408	0.03490676
1032.564	0.02897482
1032.72	0.02664823
1032.876	0.02810737
1033.032	0.02856044
1033.188	0.02616559
1033.344	0.02426631
1033.5	0.02713569
1033.655	0.03203282
1033.811	0.03452657
1033.967	0.03694441
