Data from 1_mm_pl_30pc_Absorbance__0__16-59-47-316.txt Node

Date: Wed Mar 08 16:59:47 CET 2023
User: Ange
Spectrometer: FLMT08341
Trigger mode: 0
Integration Time (sec): 1.000000E-2
Scans to average: 400
Electric dark correction enabled: true
Nonlinearity correction enabled: false
Boxcar width: 3
XAxis mode: Wavelengths
Number of Pixels in Spectrum: 3648
>>>>>Begin Spectral Data<<<<<
345.271	0.018767
345.487	0.01036968
345.704	0.00174769
345.921	0.00527484
346.137	0.02056562
346.354	0.01687846
346.571	0.04232384
346.787	-0.04651297
347.004	-0.00869182
347.22	-0.11483184
347.437	-0.02829892
347.653	0.18754072
347.87	-0.20367394
348.086	-0.4119126
348.303	0.07927272
348.519	0.28983667
348.736	0.31029025
348.952	0.31923031
349.169	0.33898457
349.385	0.35158863
349.601	0.35217183
349.818	0.34900691
350.034	0.34922687
350.251	0.34440338
350.467	0.34979582
350.683	0.33719076
350.9	0.33751064
351.116	0.33277736
351.332	0.33176536
351.549	0.34410638
351.765	0.3551035
351.981	0.36043656
352.197	0.3759328
352.414	0.39115919
352.63	0.40061713
352.846	0.41036964
353.062	0.40298822
353.278	0.39508297
353.495	0.40495621
353.711	0.40607138
353.927	0.40894392
354.143	0.41310072
354.359	0.40964037
354.575	0.40634614
354.792	0.41733142
355.008	0.40663733
355.224	0.40061461
355.44	0.39421576
355.656	0.39148436
355.872	0.39850432
356.088	0.42067072
356.304	0.42786883
356.52	0.43434493
356.736	0.44485411
356.952	0.45413873
357.168	0.46028643
357.384	0.46718354
357.6	0.45426365
357.816	0.45902923
358.032	0.46803146
358.248	0.47664781
358.464	0.47879551
358.679	0.485844
358.895	0.48341609
359.111	0.49633029
359.327	0.48719542
359.543	0.4899507
359.759	0.49813451
359.974	0.4971483
360.19	0.4952754
360.406	0.49876554
360.622	0.49433971
360.838	0.49332836
361.053	0.49636875
361.269	0.49614173
361.485	0.50072926
361.701	0.50536285
361.916	0.50228217
362.132	0.505758
362.348	0.51361203
362.563	0.51650586
362.779	0.51442595
362.995	0.5191689
363.21	0.52704505
363.426	0.53051546
363.641	0.5296409
363.857	0.53597482
364.073	0.53358151
364.288	0.53062316
364.504	0.5378601
364.719	0.53540212
364.935	0.53792254
365.15	0.54457591
365.366	0.54558067
365.581	0.55565633
365.797	0.5635412
366.012	0.55850017
366.228	0.55722181
366.443	0.57039557
366.658	0.57247569
366.874	0.56926844
367.089	0.57238284
367.305	0.57448337
367.52	0.57949861
367.735	0.58198736
367.951	0.57641344
368.166	0.58035115
368.381	0.59151885
368.597	0.58963411
368.812	0.59613852
369.027	0.60030316
369.243	0.60680525
369.458	0.62170272
369.673	0.62254272
369.888	0.62272961
370.104	0.62100896
370.319	0.62600174
370.534	0.6210807
370.749	0.61956748
370.964	0.6170252
371.179	0.6175513
371.395	0.61541907
371.61	0.62304995
371.825	0.61490369
372.04	0.62095887
372.255	0.6191793
372.47	0.61540677
372.685	0.61161963
372.9	0.61215926
373.115	0.6084599
373.33	0.61531802
373.545	0.61852257
373.76	0.62624192
373.975	0.62711562
374.19	0.62914795
374.405	0.63521836
374.62	0.64805404
374.835	0.65542824
375.05	0.65813335
375.265	0.66097969
375.48	0.66486333
375.695	0.68031967
375.91	0.6799498
376.125	0.66843271
376.339	0.66017036
376.554	0.66102804
376.769	0.66277835
376.984	0.66309457
377.199	0.66484142
377.414	0.66370301
377.628	0.67617286
377.843	0.68280347
378.058	0.68795594
378.273	0.69468298
378.487	0.69815945
378.702	0.69999205
378.917	0.70473989
379.131	0.69979271
379.346	0.69426622
379.561	0.69242082
379.775	0.68781353
379.99	0.68558777
380.205	0.67928982
380.419	0.6757126
380.634	0.67132082
380.848	0.68125503
381.063	0.68263401
381.278	0.69243522
381.492	0.691517
381.707	0.70094883
381.921	0.70406099
382.136	0.71722521
382.35	0.71310874
382.565	0.71170696
382.779	0.709569
382.994	0.71570905
383.208	0.7107248
383.422	0.71955703
383.637	0.7187085
383.851	0.72853404
384.066	0.73781467
384.28	0.74154116
384.494	0.74502687
384.709	0.75163946
384.923	0.75157917
385.137	0.74749086
385.352	0.74725317
385.566	0.74829592
385.78	0.74885268
385.995	0.74515008
386.209	0.74218851
386.423	0.74839515
386.637	0.75388516
386.852	0.74983385
387.066	0.75053343
387.28	0.74656998
387.494	0.75549204
387.708	0.76105533
387.923	0.75714737
388.137	0.76364922
388.351	0.76980207
388.565	0.77458995
388.779	0.7815712
388.993	0.78948621
389.207	0.7912053
389.421	0.79728176
389.635	0.79333536
389.85	0.79461566
390.064	0.79626973
390.278	0.79875421
390.492	0.79936462
390.706	0.80342234
390.92	0.80405722
391.134	0.8134992
391.348	0.82387164
391.561	0.82163531
391.775	0.82112385
391.989	0.81624211
392.203	0.82047893
392.417	0.82363146
392.631	0.82781445
392.845	0.82273813
393.059	0.83084571
393.273	0.83154356
393.486	0.82911342
393.7	0.82270014
393.914	0.82871331
394.128	0.82781004
394.342	0.82572668
394.555	0.81898562
394.769	0.82034516
394.983	0.82824499
395.197	0.83563806
395.41	0.83439061
395.624	0.83541138
395.838	0.83870066
396.051	0.84976958
396.265	0.8499095
396.479	0.85205471
396.692	0.85221644
396.906	0.85063709
397.12	0.84958837
397.333	0.85565556
397.547	0.8519623
397.76	0.85656865
397.974	0.85809301
398.187	0.86019242
398.401	0.86528251
398.614	0.8680419
398.828	0.8678119
399.041	0.87156437
399.255	0.87258257
399.468	0.87349566
399.682	0.87558546
399.895	0.87961323
400.109	0.87969087
400.322	0.87911383
400.536	0.87343436
400.749	0.88012082
400.962	0.88157863
401.176	0.8825136
401.389	0.87962829
401.602	0.87439757
401.816	0.87888804
402.029	0.88628424
402.242	0.88208814
402.456	0.88194464
402.669	0.877947
402.882	0.87237997
403.095	0.88230806
403.309	0.88180264
403.522	0.88359972
403.735	0.88316308
403.948	0.88389425
404.161	0.89781546
404.375	0.90303669
404.588	0.9017893
404.801	0.90334632
405.014	0.90011535
405.227	0.9083995
405.44	0.9122438
405.653	0.90943648
405.866	0.90817233
406.079	0.90755969
406.293	0.90629938
406.506	0.90764903
406.719	0.90309411
406.932	0.90027221
407.145	0.8961703
407.358	0.90374553
407.571	0.90081573
407.784	0.90388055
407.996	0.90657933
408.209	0.90474618
408.422	0.90399756
408.635	0.90632636
408.848	0.90559978
409.061	0.90294911
409.274	0.90027609
409.487	0.89778774
409.7	0.89901042
409.912	0.9025171
410.125	0.90182462
410.338	0.90128322
410.551	0.9044703
410.764	0.90637207
410.976	0.90760337
411.189	0.90817345
411.402	0.90329073
411.615	0.9056693
411.827	0.90529492
412.04	0.90597187
412.253	0.90380032
412.465	0.90176942
412.678	0.89975329
412.891	0.903931
413.103	0.89659274
413.316	0.89455066
413.529	0.89731308
413.741	0.90004744
413.954	0.90229055
414.166	0.90356326
414.379	0.90118937
414.591	0.90487496
414.804	0.90177094
415.016	0.89807365
415.229	0.89461429
415.441	0.89102236
415.654	0.89206901
415.866	0.89182873
416.079	0.8925618
416.291	0.89281864
416.504	0.89656855
416.716	0.89725231
416.928	0.89824298
417.141	0.89518744
417.353	0.89620623
417.566	0.89048984
417.778	0.89112788
417.99	0.88397528
418.203	0.88015449
418.415	0.87900362
418.627	0.87852692
418.839	0.87590107
419.052	0.88044818
419.264	0.87925947
419.476	0.88168171
419.688	0.88303734
419.901	0.8819091
420.113	0.8800672
420.325	0.87797131
420.537	0.87262862
420.749	0.87288139
420.961	0.87182524
421.174	0.86928868
421.386	0.86604506
421.598	0.86478334
421.81	0.86344274
422.022	0.86189029
422.234	0.85966328
422.446	0.85674109
422.658	0.85493082
422.87	0.85504737
423.082	0.85278972
423.294	0.85053211
423.506	0.85053867
423.718	0.84833303
423.93	0.84434359
424.142	0.8407932
424.354	0.83756646
424.566	0.83584215
424.778	0.83485034
424.99	0.83214862
425.202	0.82887403
425.414	0.82835962
425.625	0.82933598
425.837	0.82575268
426.049	0.82528113
426.261	0.82219659
426.473	0.81852796
426.684	0.81721418
426.896	0.81676213
427.108	0.81247909
427.32	0.81278625
427.531	0.80874937
427.743	0.80751663
427.955	0.80863241
428.167	0.80580198
428.378	0.80239471
428.59	0.80104914
428.802	0.79798277
429.013	0.79544948
429.225	0.79167877
429.436	0.7874225
429.648	0.7859017
429.86	0.78405628
430.071	0.78202884
430.283	0.78025226
430.494	0.77768433
430.706	0.77627926
430.917	0.77334977
431.129	0.77094151
431.34	0.76788658
431.552	0.76581829
431.763	0.76201402
431.975	0.76113906
432.186	0.75693055
432.398	0.754671
432.609	0.74940977
432.821	0.7470671
433.032	0.7436795
433.243	0.74090698
433.455	0.73707702
433.666	0.73561266
433.877	0.73405794
434.089	0.73147333
434.3	0.72750366
434.511	0.72314437
434.723	0.7201675
434.934	0.71597843
435.145	0.71130334
435.356	0.70635119
435.568	0.70388756
435.779	0.7007963
435.99	0.6970706
436.201	0.69399782
436.412	0.691168
436.624	0.68953173
436.835	0.68771337
437.046	0.68577574
437.257	0.68309179
437.468	0.68265298
437.679	0.68066328
437.89	0.67821197
438.101	0.67582894
438.312	0.67278851
438.523	0.66940212
438.734	0.66690223
438.945	0.66343001
439.156	0.65911026
439.367	0.65612639
439.578	0.65334785
439.789	0.64926978
440	0.64658013
440.211	0.64257711
440.422	0.63960634
440.633	0.63760249
440.844	0.63386026
441.055	0.63042192
441.266	0.62850413
441.477	0.62438411
441.687	0.6218972
441.898	0.61884109
442.109	0.61493635
442.32	0.61199692
442.531	0.60749042
442.741	0.60247793
442.952	0.5996352
443.163	0.59632099
443.374	0.59233838
443.584	0.58883864
443.795	0.58596595
444.006	0.58344316
444.216	0.58071224
444.427	0.57645044
444.638	0.57291142
444.848	0.56969432
445.059	0.56659844
445.27	0.56278433
445.48	0.55908322
445.691	0.55614233
445.901	0.55381901
446.112	0.55065415
446.323	0.54689667
446.533	0.54355591
446.744	0.53996483
446.954	0.53638352
447.165	0.53292344
447.375	0.53005302
447.586	0.5272098
447.796	0.52461411
448.006	0.52138188
448.217	0.51897016
448.427	0.51609714
448.638	0.51247527
448.848	0.50857664
449.058	0.50494555
449.269	0.50160347
449.479	0.49852105
449.689	0.49515613
449.9	0.49227785
450.11	0.48947213
450.32	0.48723804
450.531	0.48383256
450.741	0.48054169
450.951	0.47762566
451.161	0.47441616
451.372	0.47119904
451.582	0.4691684
451.792	0.46530697
452.002	0.46244971
452.212	0.45925193
452.422	0.45609407
452.633	0.452866
452.843	0.45024393
453.053	0.4456977
453.263	0.44296984
453.473	0.43979248
453.683	0.43735502
453.893	0.43421788
454.103	0.43184552
454.313	0.42887217
454.523	0.42659845
454.733	0.4238978
454.943	0.42166829
455.153	0.41890041
455.363	0.41609586
455.573	0.41307078
455.783	0.41032905
455.993	0.40738858
456.203	0.40491266
456.413	0.40211992
456.623	0.39915329
456.833	0.39704943
457.042	0.39436348
457.252	0.39173027
457.462	0.38915508
457.672	0.38641121
457.882	0.38385845
458.091	0.38129238
458.301	0.37831438
458.511	0.37589409
458.721	0.3731219
458.931	0.3706636
459.14	0.3682079
459.35	0.36597082
459.56	0.36377117
459.769	0.36170675
459.979	0.35905218
460.189	0.35682302
460.398	0.35426726
460.608	0.35224009
460.817	0.34974505
461.027	0.34749614
461.237	0.34505162
461.446	0.34299273
461.656	0.34094378
461.865	0.33868025
462.075	0.33622848
462.284	0.33404436
462.494	0.33149824
462.703	0.3289499
462.913	0.32675679
463.122	0.32449909
463.332	0.32249089
463.541	0.32069693
463.751	0.318635
463.96	0.3168485
464.169	0.31518438
464.379	0.31349932
464.588	0.31158662
464.797	0.3096968
465.007	0.30759031
465.216	0.30581242
465.425	0.30409724
465.635	0.30246837
465.844	0.30057711
466.053	0.29887554
466.263	0.29718864
466.472	0.29545056
466.681	0.29382798
466.89	0.29209333
467.099	0.29024477
467.309	0.28853338
467.518	0.28710884
467.727	0.28550529
467.936	0.2839109
468.145	0.28240136
468.354	0.28096836
468.563	0.27937338
468.772	0.27778631
468.982	0.27609292
469.191	0.27480129
469.4	0.27332873
469.609	0.27173809
469.818	0.27034368
470.027	0.26906979
470.236	0.26769594
470.445	0.26646157
470.654	0.2649053
470.863	0.26352662
471.072	0.26233585
471.28	0.26083746
471.489	0.25966355
471.698	0.25855309
471.907	0.25735789
472.116	0.25624366
472.325	0.25521399
472.534	0.25416779
472.743	0.2530954
472.951	0.25204654
473.16	0.25098967
473.369	0.24988249
473.578	0.2488371
473.786	0.24778352
473.995	0.24666241
474.204	0.24589056
474.413	0.24492139
474.621	0.244061
474.83	0.24332617
475.039	0.24250224
475.247	0.24160895
475.456	0.24075823
475.665	0.23982031
475.873	0.23883954
476.082	0.23764174
476.291	0.23660391
476.499	0.23584547
476.708	0.23498838
476.916	0.23423388
477.125	0.23338981
477.333	0.23270774
477.542	0.23221342
477.75	0.23149075
477.959	0.23084237
478.167	0.23040507
478.376	0.22968843
478.584	0.22911307
478.793	0.22848227
479.001	0.22782707
479.209	0.22724729
479.418	0.22659597
479.626	0.22589903
479.834	0.2253651
480.043	0.22485274
480.251	0.22434527
480.459	0.22385252
480.668	0.22359147
480.876	0.22319131
481.084	0.22274752
481.293	0.22233745
481.501	0.22186404
481.709	0.22156277
481.917	0.22126622
482.125	0.22094553
482.334	0.22062166
482.542	0.22029949
482.75	0.22000498
482.958	0.21982982
483.166	0.2195103
483.374	0.21927039
483.583	0.21894234
483.791	0.21871261
483.999	0.21847465
484.207	0.21828097
484.415	0.21805873
484.623	0.21783817
484.831	0.217602
485.039	0.21744437
485.247	0.21730248
485.455	0.21721422
485.663	0.21708152
485.871	0.21704423
486.079	0.21692496
486.287	0.21687887
486.495	0.21674049
486.702	0.2166164
486.91	0.2165483
487.118	0.21648508
487.326	0.21634962
487.534	0.21644762
487.742	0.21656443
487.95	0.21667091
488.157	0.21665311
488.365	0.21669352
488.573	0.21681405
488.781	0.21699461
488.988	0.21707015
489.196	0.21704729
489.404	0.21712548
489.612	0.21742275
489.819	0.21768318
490.027	0.21791388
490.235	0.21802401
490.442	0.21815928
490.65	0.21837472
490.857	0.21870504
491.065	0.21885002
491.273	0.21902165
491.48	0.21919809
491.688	0.2194988
491.895	0.2198706
492.103	0.2201849
492.31	0.2204263
492.518	0.22070347
492.725	0.22106855
492.933	0.22142749
493.14	0.22176742
493.348	0.22210614
493.555	0.22255323
493.763	0.22287663
493.97	0.22336557
494.177	0.22377656
494.385	0.22424466
494.592	0.22462068
494.8	0.22497376
495.007	0.22538287
495.214	0.22587263
495.422	0.22637398
495.629	0.2268458
495.836	0.22731745
496.043	0.22789061
496.251	0.22851441
496.458	0.22904453
496.665	0.22956919
496.872	0.23005996
497.08	0.23054797
497.287	0.23097687
497.494	0.23153547
497.701	0.23202152
497.908	0.23259288
498.115	0.23306196
498.322	0.23361795
498.53	0.23412094
498.737	0.23473259
498.944	0.2352596
499.151	0.23584947
499.358	0.23636724
499.565	0.23700567
499.772	0.23760346
499.979	0.23834901
500.186	0.23908383
500.393	0.23973999
500.6	0.2403725
500.807	0.24108837
501.014	0.24179686
501.221	0.24254468
501.427	0.24328152
501.634	0.24400342
501.841	0.24481231
502.048	0.24558596
502.255	0.24622319
502.462	0.2469327
502.669	0.24763705
502.875	0.24834422
503.082	0.24894576
503.289	0.24955745
503.496	0.25028564
503.702	0.25109328
503.909	0.25195142
504.116	0.2527966
504.323	0.25359143
504.529	0.25445867
504.736	0.25529327
504.943	0.25609759
505.149	0.25698337
505.356	0.25785277
505.563	0.25875601
505.769	0.25966355
505.976	0.26058816
506.182	0.26157046
506.389	0.26255768
506.595	0.26351944
506.802	0.2644562
507.008	0.26528962
507.215	0.26618307
507.421	0.26716169
507.628	0.26805065
507.834	0.26900262
508.041	0.26990799
508.247	0.2707462
508.454	0.27171785
508.66	0.27265352
508.866	0.27355403
509.073	0.2745508
509.279	0.27543492
509.486	0.27631464
509.692	0.27729504
509.898	0.27826263
510.105	0.27927849
510.311	0.28023745
510.517	0.28122243
510.723	0.28218925
510.93	0.28320988
511.136	0.28425875
511.342	0.28529717
511.548	0.28629559
511.754	0.28728059
511.961	0.28827555
512.167	0.28929074
512.373	0.2903036
512.579	0.29136074
512.785	0.29238746
512.991	0.29341093
513.197	0.29457177
513.404	0.2957557
513.61	0.29697553
513.816	0.2981575
514.022	0.29928186
514.228	0.30040774
514.434	0.30157068
514.64	0.30266197
514.846	0.3037214
515.052	0.30469838
515.258	0.3057137
515.464	0.30684471
515.669	0.30801546
515.875	0.30920309
516.081	0.31039764
516.287	0.31160722
516.493	0.31296185
516.699	0.31425413
516.905	0.31541797
517.111	0.31657105
517.316	0.31772159
517.522	0.31890019
517.728	0.32011319
517.934	0.3212373
518.139	0.32244092
518.345	0.32367384
518.551	0.32488534
518.757	0.32604224
518.962	0.32716024
519.168	0.32840638
519.374	0.32963441
519.579	0.33081111
519.785	0.33204192
519.991	0.33325883
520.196	0.33448455
520.402	0.33575373
520.607	0.33692974
520.813	0.33819722
521.018	0.33942982
521.224	0.34053929
521.429	0.34181621
521.635	0.34313449
521.84	0.34435271
522.046	0.34561929
522.251	0.34688652
522.457	0.34818717
522.662	0.3496485
522.868	0.35097485
523.073	0.35224692
523.279	0.35365941
523.484	0.35488392
523.689	0.35621463
523.895	0.35755174
524.1	0.35878999
524.305	0.36008527
524.511	0.36137443
524.716	0.36264712
524.921	0.36403691
525.126	0.36532681
525.332	0.36663224
525.537	0.36785862
525.742	0.36913256
525.947	0.37043613
526.153	0.37174417
526.358	0.37304945
526.563	0.37435188
526.768	0.37568881
526.973	0.37711932
527.178	0.37850807
527.383	0.3798609
527.588	0.38114215
527.794	0.38240068
527.999	0.38370526
528.204	0.38501607
528.409	0.38625752
528.614	0.3876573
528.819	0.3890326
529.024	0.39038925
529.229	0.39168213
529.434	0.39314779
529.639	0.39448844
529.843	0.3959114
530.048	0.39716353
530.253	0.39849638
530.458	0.39992455
530.663	0.40136662
530.868	0.4027261
531.073	0.40402433
531.278	0.40534515
531.482	0.40673082
531.687	0.40814802
531.892	0.40950044
532.097	0.41089974
532.302	0.41229964
532.506	0.41376442
532.711	0.4152123
532.916	0.41660316
533.12	0.41796114
533.325	0.41932785
533.53	0.42076034
533.734	0.42222444
533.939	0.42367487
534.144	0.42519817
534.348	0.42676422
534.553	0.4283094
534.757	0.42982127
534.962	0.43126792
535.167	0.43268165
535.371	0.43403246
535.576	0.43546158
535.78	0.43678082
535.985	0.43823694
536.189	0.43959621
536.394	0.44109621
536.598	0.44251116
536.803	0.44402462
537.007	0.44533528
537.211	0.44679177
537.416	0.44801261
537.62	0.44941739
537.825	0.45074622
538.029	0.45218584
538.233	0.45353519
538.438	0.45511676
538.642	0.45649234
538.846	0.45811568
539.05	0.45963186
539.255	0.46103913
539.459	0.46250426
539.663	0.46399269
539.867	0.46533622
540.072	0.46682015
540.276	0.46830913
540.48	0.46985855
540.684	0.47138491
540.888	0.47295136
541.092	0.47436715
541.297	0.47583234
541.501	0.47727732
541.705	0.47867734
541.909	0.47994402
542.113	0.48121156
542.317	0.48254472
542.521	0.48402261
542.725	0.48542299
542.929	0.48685525
543.133	0.48819475
543.337	0.48973113
543.541	0.49127346
543.745	0.49258841
543.949	0.49401535
544.153	0.49534924
544.357	0.49670959
544.56	0.49818284
544.764	0.49959541
544.968	0.5010242
545.172	0.50239106
545.376	0.50384951
545.58	0.50545264
545.783	0.50701559
545.987	0.508379
546.191	0.50976354
546.395	0.51123938
546.598	0.51299784
546.802	0.51455572
547.006	0.51594169
547.21	0.5171836
547.413	0.51867111
547.617	0.52019969
547.821	0.5216635
548.024	0.52300593
548.228	0.5242642
548.431	0.52572873
548.635	0.52720673
548.839	0.52860225
549.042	0.53003392
549.246	0.53134818
549.449	0.53273646
549.653	0.53424651
549.856	0.53569458
550.06	0.53716965
550.263	0.53866006
550.467	0.54011058
550.67	0.5416584
550.874	0.54307384
551.077	0.54455773
551.28	0.54603898
551.484	0.54752808
551.687	0.54901215
551.891	0.55047964
552.094	0.55186871
552.297	0.55341188
552.501	0.55490852
552.704	0.55643772
552.907	0.55786572
553.11	0.55921045
553.314	0.56053771
553.517	0.56187641
553.72	0.56322214
553.923	0.56457813
554.127	0.56588904
554.33	0.56717966
554.533	0.56865326
554.736	0.56993963
554.939	0.57127503
555.142	0.57257727
555.345	0.5739222
555.549	0.57533139
555.752	0.57669447
555.955	0.57796706
556.158	0.57950167
556.361	0.58087961
556.564	0.5822623
556.767	0.58365873
556.97	0.58500651
557.173	0.58648271
557.376	0.58803069
557.579	0.58928885
557.782	0.59074251
557.984	0.59216686
558.187	0.59356885
558.39	0.59489518
558.593	0.59628415
558.796	0.59749289
558.999	0.59875501
559.202	0.60008882
559.404	0.60128976
559.607	0.60257662
559.81	0.60387066
560.013	0.605127
560.216	0.60639963
560.418	0.60790537
560.621	0.60927204
560.824	0.61071207
561.026	0.61208374
561.229	0.61344458
561.432	0.61475019
561.634	0.61616432
561.837	0.61730128
562.04	0.61845787
562.242	0.6197503
562.445	0.62093331
562.647	0.62217755
562.85	0.62329178
563.053	0.62436136
563.255	0.62572239
563.458	0.62699302
563.66	0.62823168
563.863	0.62956324
564.065	0.63090403
564.268	0.63219007
564.47	0.63355519
564.672	0.63474342
564.875	0.63612439
565.077	0.63735673
565.28	0.63853888
565.482	0.63984079
565.684	0.6411814
565.887	0.64252251
566.089	0.64392228
566.291	0.64511172
566.494	0.6463916
566.696	0.64765404
566.898	0.64890453
567.1	0.65021755
567.303	0.65153003
567.505	0.65274175
567.707	0.65384536
567.909	0.65487099
568.111	0.65600982
568.314	0.65716235
568.516	0.65828646
568.718	0.65931315
568.92	0.66035682
569.122	0.66152347
569.324	0.66279854
569.526	0.6638725
569.728	0.66505373
569.93	0.66614944
570.132	0.66726118
570.334	0.66845208
570.536	0.66956678
570.738	0.67058165
570.94	0.67165876
571.142	0.6728075
571.344	0.67385488
571.546	0.67490875
571.748	0.6760416
571.95	0.67709448
572.152	0.67819856
572.354	0.67930306
572.555	0.68034536
572.757	0.68163801
572.959	0.68275121
573.161	0.68359358
573.363	0.68481427
573.564	0.68611238
573.766	0.687131
573.968	0.68814674
574.17	0.68882034
574.371	0.689854
574.573	0.69097778
574.775	0.69183434
574.976	0.69265705
575.178	0.69357862
575.38	0.69439672
575.581	0.69532163
575.783	0.69628613
575.985	0.69726646
576.186	0.69834379
576.388	0.69928176
576.589	0.70022859
576.791	0.70136356
576.992	0.70252497
577.194	0.70344979
577.395	0.70432325
577.597	0.70524737
577.798	0.70620504
578	0.70716914
578.201	0.70801205
578.402	0.70884956
578.604	0.70958851
578.805	0.71053508
579.007	0.71132106
579.208	0.71223031
579.409	0.71314738
579.611	0.71389892
579.812	0.71487712
580.013	0.71577944
580.215	0.7163865
580.416	0.71717224
580.617	0.71783676
580.818	0.71868783
581.019	0.71946654
581.221	0.72025704
581.422	0.72112798
581.623	0.72218002
581.824	0.7228694
582.025	0.72375167
582.226	0.72453439
582.428	0.72541477
582.629	0.72604794
582.83	0.72672491
583.031	0.72729804
583.232	0.72830933
583.433	0.72910947
583.634	0.72972674
583.835	0.73043824
584.036	0.7311005
584.237	0.73185973
584.438	0.73260585
584.639	0.7330584
584.84	0.73369868
585.041	0.73426059
585.242	0.73474312
585.442	0.73541962
585.643	0.73614301
585.844	0.73676713
586.045	0.73756774
586.246	0.73799259
586.447	0.7386675
586.647	0.73924268
586.848	0.73983009
587.049	0.74022562
587.25	0.74062146
587.45	0.74103449
587.651	0.74168079
587.852	0.74227319
588.053	0.74305904
588.253	0.74354012
588.454	0.7442277
588.655	0.74489356
588.855	0.74538457
589.056	0.74596547
589.256	0.74652437
589.457	0.74683064
589.658	0.74743638
589.858	0.74777733
590.059	0.74825126
590.259	0.74879066
590.46	0.74910342
590.66	0.74948541
590.861	0.74989018
591.061	0.75017731
591.262	0.75065233
591.462	0.75109731
591.662	0.7514668
591.863	0.75189525
592.063	0.75232097
592.264	0.75281851
592.464	0.75335222
592.664	0.75374165
592.865	0.75423127
593.065	0.75448223
593.265	0.7550122
593.465	0.75528268
593.666	0.75551349
593.866	0.75579844
594.066	0.75611324
594.266	0.75632189
594.467	0.75648323
594.667	0.75663911
594.867	0.75689507
595.067	0.75720986
595.267	0.75736393
595.467	0.75751728
595.668	0.75766369
595.868	0.7580699
596.068	0.75829388
596.268	0.75851556
596.468	0.75878425
596.668	0.75912937
596.868	0.75938336
597.068	0.7597898
597.268	0.76014174
597.468	0.76030214
597.668	0.7604285
597.868	0.76045567
598.068	0.76053363
598.268	0.76067472
598.467	0.76069816
598.667	0.76060789
598.867	0.76063985
599.067	0.76081589
599.267	0.76100501
599.467	0.76104029
599.667	0.76101748
599.866	0.76111387
600.066	0.7612899
600.266	0.76134457
600.466	0.76139418
600.665	0.76135745
600.865	0.7613031
601.065	0.76149339
601.264	0.76139284
601.464	0.76135743
601.664	0.76145464
601.863	0.76143078
602.063	0.76151764
602.263	0.76136432
602.462	0.76132701
602.662	0.76132819
602.861	0.76117791
603.061	0.76114645
603.26	0.76103939
603.46	0.76087853
603.659	0.76109492
603.859	0.76099103
604.058	0.76091932
604.258	0.76100352
604.457	0.76110636
604.657	0.76099406
604.856	0.76085723
605.056	0.76077343
605.255	0.76061908
605.454	0.76046295
605.654	0.76014646
605.853	0.75979702
606.052	0.75949674
606.252	0.75929326
606.451	0.75910437
606.65	0.75908089
606.849	0.75880876
607.049	0.75862443
607.248	0.75828437
607.447	0.75826402
607.646	0.7582693
607.845	0.75799119
608.045	0.75747338
608.244	0.7573624
608.443	0.75717823
608.642	0.75712733
608.841	0.7567396
609.04	0.75627576
609.239	0.75601258
609.438	0.75579231
609.637	0.7555143
609.836	0.75523907
610.035	0.75486786
610.234	0.75464696
610.433	0.75437755
610.632	0.75404482
610.831	0.75371463
611.03	0.75326094
611.229	0.75299727
611.428	0.75267122
611.627	0.75238381
611.826	0.75196757
612.025	0.75170529
612.224	0.75123903
612.422	0.75091281
612.621	0.75035325
612.82	0.74991312
613.019	0.74946354
613.218	0.74914946
613.416	0.74848976
613.615	0.74818772
613.814	0.74762357
614.012	0.74722169
614.211	0.74665209
614.41	0.74619824
614.608	0.74574494
614.807	0.74535049
615.006	0.74496137
615.204	0.74450577
615.403	0.7441747
615.602	0.74376087
615.8	0.74315754
615.999	0.74229377
616.197	0.74169764
616.396	0.74102442
616.594	0.74033164
616.793	0.73962989
616.991	0.73888799
617.19	0.73823734
617.388	0.73794099
617.586	0.73733756
617.785	0.73668753
617.983	0.73617575
618.182	0.73544967
618.38	0.73487188
618.578	0.73428191
618.777	0.73361588
618.975	0.73310399
619.173	0.73241135
619.372	0.7318215
619.57	0.73113569
619.768	0.73053223
619.966	0.72985549
620.165	0.72902455
620.363	0.72830342
620.561	0.72754956
620.759	0.72679601
620.957	0.72625055
621.155	0.72554587
621.354	0.72484746
621.552	0.72440168
621.75	0.72356176
621.948	0.72302436
622.146	0.72228577
622.344	0.72144248
622.542	0.72077882
622.74	0.71991157
622.938	0.71898722
623.136	0.71830386
623.334	0.71757957
623.532	0.71670215
623.73	0.71599345
623.928	0.71522337
624.126	0.71462456
624.324	0.71395243
624.522	0.71305077
624.719	0.71203395
624.917	0.71135313
625.115	0.71040761
625.313	0.70966442
625.511	0.70886467
625.708	0.7078984
625.906	0.70711824
626.104	0.70639997
626.302	0.70555651
626.499	0.70478063
626.697	0.70374838
626.895	0.7027649
627.093	0.70194403
627.29	0.70115764
627.488	0.70017234
627.686	0.69931245
627.883	0.69830834
628.081	0.69721823
628.278	0.69643752
628.476	0.69537204
628.673	0.69428547
628.871	0.69344627
629.068	0.69251917
629.266	0.69162547
629.463	0.69083282
629.661	0.68984015
629.858	0.68896833
630.056	0.68799778
630.253	0.68709997
630.451	0.68614114
630.648	0.68511962
630.845	0.68407954
631.043	0.68303857
631.24	0.68221898
631.438	0.68137799
631.635	0.68030425
631.832	0.67906414
632.029	0.67817359
632.227	0.67710327
632.424	0.67600721
632.621	0.67478754
632.818	0.67355623
633.016	0.67245929
633.213	0.67144512
633.41	0.67021803
633.607	0.6692095
633.804	0.66818488
634.001	0.66696808
634.199	0.66586921
634.396	0.66476416
634.593	0.66356287
634.79	0.66263128
634.987	0.66144436
635.184	0.66033623
635.381	0.65936861
635.578	0.65842648
635.775	0.65725443
635.972	0.65628613
636.169	0.65506893
636.366	0.65403304
636.563	0.6528656
636.76	0.65162475
636.957	0.65048007
637.153	0.6493912
637.35	0.64841063
637.547	0.64738192
637.744	0.64628816
637.941	0.64532048
638.138	0.64432654
638.334	0.64322231
638.531	0.64222331
638.728	0.64107759
638.925	0.63997848
639.121	0.63885961
639.318	0.63760489
639.515	0.63636097
639.711	0.63521695
639.908	0.63371563
640.105	0.63239159
640.301	0.63100675
640.498	0.62970754
640.695	0.62849985
640.891	0.62732295
641.088	0.62608625
641.284	0.62508311
641.481	0.62400585
641.677	0.62294373
641.874	0.62177273
642.07	0.62067395
642.267	0.61969274
642.463	0.6184648
642.66	0.61738711
642.856	0.61608091
643.053	0.61484655
643.249	0.6137571
643.445	0.6124797
643.642	0.6109894
643.838	0.6098245
644.034	0.60847279
644.231	0.60720103
644.427	0.60600236
644.623	0.60459498
644.82	0.60337793
645.016	0.60209787
645.212	0.60072687
645.408	0.5994629
645.604	0.5983801
645.801	0.59706175
645.997	0.59576541
646.193	0.59449092
646.389	0.5934213
646.585	0.59228623
646.781	0.59107174
646.977	0.58986197
647.173	0.58860905
647.37	0.58751626
647.566	0.58629957
647.762	0.5850509
647.958	0.58388416
648.154	0.58253357
648.35	0.58119873
648.546	0.57983799
648.742	0.57848372
648.937	0.57699754
649.133	0.5756795
649.329	0.57427715
649.525	0.57297004
649.721	0.57152451
649.917	0.57036327
650.113	0.56896729
650.309	0.56783669
650.504	0.56639498
650.7	0.56494199
650.896	0.56367892
651.092	0.5624875
651.287	0.56115742
651.483	0.55990976
651.679	0.55853752
651.875	0.55738224
652.07	0.55622054
652.266	0.55494143
652.462	0.55363049
652.657	0.55227727
652.853	0.55101438
653.048	0.54977432
653.244	0.54840794
653.44	0.54704871
653.635	0.54558711
653.831	0.54424472
654.026	0.54305239
654.222	0.54157763
654.417	0.54026232
654.613	0.53887329
654.808	0.53740674
655.004	0.53609083
655.199	0.53467855
655.394	0.53323785
655.59	0.53207426
655.785	0.53060354
655.98	0.5293638
656.176	0.52810558
656.371	0.52710862
656.566	0.5259269
656.762	0.52461113
656.957	0.52322245
657.152	0.52197677
657.348	0.52056926
657.543	0.51924443
657.738	0.51761137
657.933	0.51616243
658.128	0.51469965
658.324	0.51331346
658.519	0.51194297
658.714	0.51055238
658.909	0.50907488
659.104	0.50782766
659.299	0.50643332
659.494	0.50511029
659.689	0.50375123
659.884	0.50230601
660.079	0.50084699
660.274	0.49945616
660.469	0.49794574
660.664	0.49663049
660.859	0.49527476
661.054	0.49395123
661.249	0.49267355
661.444	0.49140166
661.639	0.49007962
661.834	0.48872987
662.029	0.48736849
662.224	0.48598382
662.418	0.48454172
662.613	0.48313268
662.808	0.48162656
663.003	0.48032361
663.198	0.47894034
663.392	0.47745807
663.587	0.4762042
663.782	0.47472635
663.977	0.47329502
664.171	0.47200423
664.366	0.4705445
664.561	0.46911749
664.755	0.46774575
664.95	0.46637056
665.144	0.46510366
665.339	0.46387901
665.534	0.46263016
665.728	0.46140754
665.923	0.46018235
666.117	0.45894711
666.312	0.45759571
666.506	0.45635691
666.701	0.45497748
666.895	0.45365923
667.09	0.45226023
667.284	0.45103233
667.479	0.4496994
667.673	0.44832728
667.867	0.44696478
668.062	0.4456264
668.256	0.44425926
668.45	0.44308428
668.645	0.44164407
668.839	0.440339
669.033	0.43897234
669.228	0.43760697
669.422	0.43631906
669.616	0.43493115
669.81	0.43352365
670.004	0.43219222
670.199	0.43085276
670.393	0.42954684
670.587	0.42821227
670.781	0.4268423
670.975	0.42559072
671.169	0.42416672
671.363	0.42276296
671.558	0.42141601
671.752	0.42016067
671.946	0.41904508
672.14	0.41789766
672.334	0.41657031
672.528	0.41541945
672.722	0.41409498
672.916	0.41285849
673.11	0.4114628
673.304	0.41009964
673.497	0.40855028
673.691	0.40721165
673.885	0.40567557
674.079	0.40437109
674.273	0.40288973
674.467	0.40159717
674.661	0.40012947
674.854	0.39880593
675.048	0.39746029
675.242	0.39629919
675.436	0.39515637
675.629	0.39399624
675.823	0.39270093
676.017	0.39162049
676.211	0.39048381
676.404	0.38932419
676.598	0.38810821
676.792	0.38683516
676.985	0.38554601
677.179	0.38423442
677.372	0.38278089
677.566	0.38137534
677.76	0.37997269
677.953	0.37855581
678.147	0.37723696
678.34	0.37598646
678.534	0.37473535
678.727	0.37361679
678.921	0.3724879
679.114	0.37130722
679.307	0.37018969
679.501	0.36895779
679.694	0.36769474
679.888	0.36644509
680.081	0.36518573
680.274	0.36379712
680.468	0.36259059
680.661	0.36130344
680.854	0.36010926
681.048	0.3588812
681.241	0.35756299
681.434	0.35622135
681.627	0.3550061
681.821	0.3536757
682.014	0.35247088
682.207	0.35114874
682.4	0.34988251
682.593	0.3487896
682.786	0.34764985
682.98	0.34645789
683.173	0.34534319
683.366	0.34420363
683.559	0.34307456
683.752	0.34188252
683.945	0.34069125
684.138	0.33948815
684.331	0.33825695
684.524	0.33712665
684.717	0.33591452
684.91	0.33484123
685.103	0.33378545
685.296	0.33260694
685.489	0.33144587
685.682	0.33033223
685.874	0.32917438
686.067	0.32797376
686.26	0.3268183
686.453	0.32567336
686.646	0.3244961
686.839	0.32340988
687.031	0.32232801
687.224	0.32114875
687.417	0.32018491
687.61	0.3189779
687.802	0.31780778
687.995	0.31670643
688.188	0.31563557
688.38	0.31449471
688.573	0.31341144
688.766	0.31219206
688.958	0.3109769
689.151	0.30977009
689.343	0.30871774
689.536	0.3074942
689.729	0.30630866
689.921	0.30511964
690.114	0.30389296
690.306	0.30276463
690.499	0.301659
690.691	0.30050252
690.884	0.29944625
691.076	0.29845632
691.268	0.2973868
691.461	0.29631424
691.653	0.29533888
691.846	0.29432112
692.038	0.29326189
692.23	0.29207819
692.423	0.29091917
692.615	0.28987631
692.807	0.28880697
692.999	0.28768457
693.192	0.286589
693.384	0.28555141
693.576	0.28454632
693.768	0.2836321
693.961	0.28257337
694.153	0.28167054
694.345	0.28072431
694.537	0.27982827
694.729	0.2788895
694.921	0.27793195
695.113	0.27687942
695.305	0.27586443
695.498	0.2747339
695.69	0.27369247
695.882	0.2725203
696.074	0.27142619
696.266	0.27035922
696.458	0.26927621
696.65	0.26820828
696.842	0.26720631
697.033	0.26622828
697.225	0.26524463
697.417	0.26430004
697.609	0.26331931
697.801	0.26231424
697.993	0.26139683
698.185	0.26045556
698.376	0.25940227
698.568	0.25842212
698.76	0.25739878
698.952	0.25638228
699.144	0.25542911
699.335	0.25450508
699.527	0.25358704
699.719	0.25266383
699.91	0.25171299
700.102	0.25064285
700.294	0.24970782
700.485	0.24878436
700.677	0.24770981
700.869	0.24676084
701.06	0.24586495
701.252	0.24499439
701.443	0.24415084
701.635	0.24327115
701.826	0.24231791
702.018	0.24144472
702.209	0.24058776
702.401	0.23968672
702.592	0.23884482
702.784	0.23809687
702.975	0.23728268
703.166	0.23658132
703.358	0.23581572
703.549	0.23493447
703.741	0.23411121
703.932	0.23318899
704.123	0.2322321
704.315	0.23136899
704.506	0.23051705
704.697	0.22961779
704.888	0.22886781
705.08	0.22810155
705.271	0.22744349
705.462	0.2266935
705.653	0.225946
705.844	0.22507492
706.035	0.22430034
706.227	0.22337395
706.418	0.22241975
706.609	0.22143704
706.8	0.22056654
706.991	0.21961646
707.182	0.21884347
707.373	0.21802442
707.564	0.21728132
707.755	0.21654563
707.946	0.21582653
708.137	0.2150849
708.328	0.21430209
708.519	0.2134874
708.71	0.21263163
708.901	0.21181467
709.092	0.211108
709.283	0.21032464
709.473	0.20952294
709.664	0.20887411
709.855	0.20809651
710.046	0.20736661
710.237	0.20649994
710.427	0.2055038
710.618	0.20463167
710.809	0.20379466
711	0.2028922
711.19	0.20202557
711.381	0.2012922
711.572	0.20052585
711.762	0.19989919
711.953	0.19925001
712.144	0.19856577
712.334	0.19788865
712.525	0.197294
712.715	0.19656442
712.906	0.1958592
713.097	0.19509443
713.287	0.19433011
713.478	0.19355887
713.668	0.19291333
713.859	0.19229
714.049	0.19166305
714.239	0.19114178
714.43	0.19056496
714.62	0.19001647
714.811	0.18946385
715.001	0.18888668
715.191	0.18824323
715.382	0.1875596
715.572	0.18696669
715.762	0.18639617
715.953	0.18579956
716.143	0.18522745
716.333	0.18457998
716.523	0.18398414
716.714	0.18352143
716.904	0.18291681
717.094	0.18234305
717.284	0.18176768
717.474	0.18116022
717.664	0.18058616
717.855	0.17992598
718.045	0.17926207
718.235	0.17869897
718.425	0.17822342
718.615	0.17769711
718.805	0.17717165
718.995	0.17664315
719.185	0.17615556
719.375	0.17559572
719.565	0.17499325
719.755	0.17430551
719.945	0.1736727
720.135	0.17308548
720.325	0.17251291
720.515	0.17200291
720.704	0.17154861
720.894	0.1710779
721.084	0.17062529
721.274	0.17013052
721.464	0.16962558
721.654	0.16914079
721.843	0.16855849
722.033	0.16805973
722.223	0.16756132
722.413	0.16714031
722.602	0.16669842
722.792	0.16621105
722.982	0.16569463
723.171	0.16524668
723.361	0.16471876
723.55	0.16419432
723.74	0.16356965
723.93	0.16301124
724.119	0.16250779
724.309	0.16202772
724.498	0.16153541
724.688	0.16103305
724.877	0.16050414
725.067	0.15993375
725.256	0.15930525
725.446	0.15875851
725.635	0.15815142
725.825	0.15753653
726.014	0.15699979
726.203	0.15647293
726.393	0.15594905
726.582	0.15548162
726.771	0.15503491
726.961	0.15462463
727.15	0.15422382
727.339	0.15373951
727.529	0.15329494
727.718	0.1528969
727.907	0.15249397
728.096	0.15195939
728.286	0.15141669
728.475	0.15091788
728.664	0.15040825
728.853	0.14996045
729.042	0.14947422
729.231	0.1490208
729.42	0.14857608
729.609	0.14810709
729.799	0.14757406
729.988	0.14711665
730.177	0.14664318
730.366	0.14620874
730.555	0.14578191
730.744	0.14540239
730.933	0.1451175
731.122	0.14483619
731.31	0.14447237
731.499	0.14403814
731.688	0.14361435
731.877	0.14320917
732.066	0.14283049
732.255	0.14247749
732.444	0.14209904
732.632	0.14178899
732.821	0.14148321
733.01	0.14116315
733.199	0.14085831
733.388	0.14054297
733.576	0.14026069
733.765	0.13996611
733.954	0.13960697
734.142	0.13922761
734.331	0.13877785
734.52	0.1383242
734.708	0.13783813
734.897	0.13721881
735.086	0.13665737
735.274	0.13616258
735.463	0.13578541
735.651	0.13552564
735.84	0.13529027
736.028	0.1350279
736.217	0.13482087
736.405	0.13457941
736.594	0.13440061
736.782	0.13411672
736.971	0.13380725
737.159	0.13341246
737.347	0.13306118
737.536	0.13263594
737.724	0.13224426
737.912	0.1317443
738.101	0.13135747
738.289	0.13098087
738.477	0.13070484
738.666	0.13037852
738.854	0.1301817
739.042	0.12999878
739.23	0.12987483
739.418	0.12963843
739.607	0.12938777
739.795	0.1290779
739.983	0.12881495
740.171	0.12844545
740.359	0.12807474
740.547	0.12772429
740.735	0.12743531
740.923	0.1271974
741.112	0.12694197
741.3	0.12665176
741.488	0.12644506
741.676	0.12617139
741.864	0.12588268
742.052	0.12559354
742.239	0.12520567
742.427	0.12480839
742.615	0.12434731
742.803	0.12391302
742.991	0.12356356
743.179	0.12326322
743.367	0.12299966
743.555	0.12274374
743.742	0.12248777
743.93	0.12235471
744.118	0.12210331
744.306	0.12197189
744.494	0.12183546
744.681	0.12164535
744.869	0.12152312
745.057	0.12134742
745.244	0.12118751
745.432	0.12101488
745.62	0.12077613
745.807	0.12057795
745.995	0.12042242
746.182	0.12021415
746.37	0.12000545
746.558	0.11976193
746.745	0.11965986
746.933	0.1195735
747.12	0.11935319
747.308	0.11910312
747.495	0.11883314
747.683	0.11869153
747.87	0.1186246
748.057	0.11854302
748.245	0.11839326
748.432	0.11825586
748.62	0.11812183
748.807	0.11802001
748.994	0.11792521
749.182	0.11777924
749.369	0.11761368
749.556	0.1174813
749.743	0.1174749
749.931	0.11748372
750.118	0.11745684
750.305	0.1173213
750.492	0.11715852
750.68	0.11702425
750.867	0.11691784
751.054	0.11671823
751.241	0.1165028
751.428	0.11625321
751.615	0.11595903
751.802	0.11562919
751.989	0.11525965
752.176	0.11488665
752.363	0.1144922
752.55	0.11406338
752.737	0.11370803
752.924	0.113481
753.111	0.11336719
753.298	0.11327738
753.485	0.11314841
753.672	0.1130506
753.859	0.1130567
754.046	0.11310713
754.233	0.11311959
754.42	0.11308517
754.606	0.11297472
754.793	0.11283983
754.98	0.11268248
755.167	0.11240713
755.353	0.11218811
755.54	0.1120103
755.727	0.11191725
755.914	0.11184221
756.1	0.11179064
756.287	0.11175657
756.474	0.1117622
756.66	0.1117988
756.847	0.11171133
757.033	0.11154076
757.22	0.11134177
757.407	0.1112213
757.593	0.11106021
757.78	0.11088176
757.966	0.11057327
758.153	0.11029611
758.339	0.11001005
758.526	0.10986406
758.712	0.10967868
758.898	0.10960432
759.085	0.10960461
759.271	0.10969361
759.458	0.10983145
759.644	0.10993694
759.83	0.1098863
760.017	0.1098417
760.203	0.10977278
760.389	0.10960549
760.576	0.1093481
760.762	0.10918109
760.948	0.10904478
761.134	0.1089838
761.32	0.10892393
761.507	0.10886919
761.693	0.10895113
761.879	0.10910997
762.065	0.1091614
762.251	0.10927257
762.437	0.10941831
762.623	0.10948469
762.809	0.10946922
762.995	0.10940253
763.181	0.10929137
763.367	0.10921744
763.553	0.10898917
763.739	0.10869581
763.925	0.1084183
764.111	0.10823965
764.297	0.10804505
764.483	0.10778075
764.669	0.10754184
764.855	0.10746517
765.041	0.10745092
765.227	0.10746244
765.412	0.1074427
765.598	0.1074258
765.784	0.10754402
765.97	0.10756493
766.156	0.10750005
766.341	0.10746266
766.527	0.10743088
766.713	0.10743995
766.898	0.1074771
767.084	0.10737649
767.27	0.10732375
767.455	0.10725978
767.641	0.10716583
767.827	0.10704906
768.012	0.10689063
768.198	0.10669841
768.383	0.10667253
768.569	0.10665838
768.754	0.10676865
768.94	0.10681477
769.125	0.10691899
769.311	0.10698899
769.496	0.10714856
769.682	0.10719849
769.867	0.10721259
770.052	0.10715816
770.238	0.10707352
770.423	0.10695227
770.608	0.10685844
770.794	0.10670992
770.979	0.10655862
771.164	0.10659035
771.35	0.10650661
771.535	0.10655198
771.72	0.10655611
771.905	0.10667285
772.09	0.1066786
772.276	0.1067587
772.461	0.10675413
772.646	0.10683262
772.831	0.10688487
773.016	0.10692895
773.201	0.10693084
773.386	0.10706737
773.571	0.10718536
773.756	0.10724616
773.941	0.10732294
774.126	0.10744727
774.311	0.10753746
774.496	0.10755632
774.681	0.10746291
774.866	0.10733415
775.051	0.10719299
775.236	0.10711013
775.421	0.10702231
775.606	0.10699785
775.791	0.1069046
775.976	0.10693307
776.16	0.10707514
776.345	0.10728388
776.53	0.10748267
776.715	0.1076089
776.899	0.10769164
777.084	0.10776579
777.269	0.10784334
777.454	0.10778502
777.638	0.1077067
777.823	0.10765318
778.008	0.10765255
778.192	0.10773463
778.377	0.10778542
778.561	0.10776923
778.746	0.10779229
778.931	0.10781049
779.115	0.10781918
779.3	0.10768688
779.484	0.10757934
779.669	0.10755042
779.853	0.10751471
780.037	0.10740996
780.222	0.10730086
780.406	0.10715119
780.591	0.1071109
780.775	0.10707039
780.959	0.1070323
781.144	0.10691741
781.328	0.10684155
781.512	0.1067601
781.697	0.10665193
781.881	0.10657428
782.065	0.10648356
782.249	0.10641655
782.434	0.10648045
782.618	0.10657793
782.802	0.10672366
782.986	0.10686088
783.17	0.10695618
783.354	0.10700496
783.539	0.10713463
783.723	0.10719346
783.907	0.10717757
784.091	0.10706733
784.275	0.10696728
784.459	0.10684987
784.643	0.10679953
784.827	0.10667516
785.011	0.10651152
785.195	0.10639272
785.379	0.1062718
785.563	0.10617571
785.747	0.10600615
785.93	0.10588401
786.114	0.10568162
786.298	0.10546978
786.482	0.10531122
786.666	0.10530751
786.85	0.10530719
787.033	0.1054958
787.217	0.10558999
787.401	0.10576816
787.585	0.10603219
787.768	0.10622776
787.952	0.1063097
788.136	0.10638952
788.319	0.10643137
788.503	0.10654867
788.687	0.10662843
788.87	0.10662537
789.054	0.10659823
789.237	0.10670125
789.421	0.1067499
789.605	0.10678061
789.788	0.10673021
789.972	0.10671907
790.155	0.10670437
790.338	0.10673532
790.522	0.10666707
790.705	0.10669038
790.889	0.10672215
791.072	0.10678163
791.256	0.10686495
791.439	0.1070815
791.622	0.10729578
791.806	0.10755223
791.989	0.10775028
792.172	0.10782507
792.355	0.10783436
792.539	0.10775917
792.722	0.1075513
792.905	0.10734915
793.088	0.10710687
793.271	0.10695573
793.455	0.10694017
793.638	0.10700686
793.821	0.10710954
794.004	0.10719981
794.187	0.10739007
794.37	0.10759709
794.553	0.10770305
794.736	0.10766388
794.919	0.10757737
795.102	0.10741314
795.285	0.10746478
795.468	0.10742096
795.651	0.10735415
795.834	0.10727828
796.017	0.10726902
796.2	0.10730759
796.383	0.10741979
796.566	0.10742062
796.749	0.10746137
796.931	0.10756799
797.114	0.10766435
797.297	0.10785874
797.48	0.10806774
797.663	0.10826592
797.845	0.10836627
798.028	0.1085319
798.211	0.10857988
798.393	0.1087563
798.576	0.10878769
798.759	0.10877907
798.941	0.10887218
799.124	0.1090474
799.307	0.10914385
799.489	0.10930897
799.672	0.10935974
799.854	0.10946826
800.037	0.10954629
800.219	0.10957574
800.402	0.10957261
800.584	0.10960162
800.767	0.1096659
800.949	0.109743
801.132	0.10983055
801.314	0.10989269
801.496	0.11001774
801.679	0.11011452
801.861	0.1101411
802.043	0.11005291
802.226	0.11005212
802.408	0.11000388
802.59	0.11005097
802.772	0.10996576
802.955	0.11005052
803.137	0.11007467
803.319	0.11013618
803.501	0.11010112
803.684	0.11005921
803.866	0.10999685
804.048	0.10999017
804.23	0.11001579
804.412	0.11024586
804.594	0.11043165
804.776	0.11071267
804.958	0.11100031
805.14	0.11120091
805.322	0.11132102
805.504	0.11132273
805.686	0.11115658
805.868	0.11107848
806.05	0.11093301
806.232	0.11080122
806.414	0.11075172
806.596	0.11083965
806.778	0.11083455
806.96	0.11098944
807.141	0.11102635
807.323	0.11110188
807.505	0.11110891
807.687	0.1110538
807.869	0.11090549
808.05	0.11077319
808.232	0.11062591
808.414	0.11056574
808.595	0.11049905
808.777	0.11040595
808.959	0.11042299
809.14	0.1104746
809.322	0.11066522
809.504	0.11081308
809.685	0.11088776
809.867	0.11097202
810.048	0.11108968
810.23	0.11107251
810.411	0.11107514
810.593	0.11100759
810.774	0.11090598
810.956	0.11082499
811.137	0.11073887
811.319	0.11080396
811.5	0.11091374
811.681	0.11097225
811.863	0.11098176
812.044	0.11098774
812.225	0.11104687
812.407	0.11109548
812.588	0.1110864
812.769	0.11109405
812.951	0.11110189
813.132	0.11107935
813.313	0.11109986
813.494	0.11118927
813.675	0.11126619
813.857	0.11126255
814.038	0.11130943
814.219	0.11132238
814.4	0.11137855
814.581	0.11148611
814.762	0.11138954
814.943	0.11132978
815.124	0.11131081
815.305	0.11132853
815.486	0.11144905
815.667	0.11165124
815.848	0.11175164
816.029	0.11189525
816.21	0.11202406
816.391	0.1121217
816.572	0.1120579
816.753	0.11203115
816.934	0.11185832
817.115	0.111632
817.295	0.11149462
817.476	0.11136328
817.657	0.11129736
817.838	0.11138956
818.019	0.1113652
818.199	0.11140196
818.38	0.11146783
818.561	0.11156827
818.741	0.11163358
818.922	0.11171809
819.103	0.11170792
819.283	0.11186316
819.464	0.11214581
819.645	0.11238057
819.825	0.11257879
820.006	0.11274223
820.186	0.11284311
820.367	0.11297391
820.547	0.11290889
820.728	0.11278999
820.908	0.112723
821.089	0.11269973
821.269	0.11272076
821.45	0.11293906
821.63	0.11310601
821.81	0.11341986
821.991	0.11365425
822.171	0.11389488
822.351	0.11409506
822.532	0.11433658
822.712	0.11436919
822.892	0.11450619
823.072	0.11443812
823.253	0.11434174
823.433	0.11421928
823.613	0.11411707
823.793	0.1140158
823.973	0.11398269
824.154	0.11388607
824.334	0.11386022
824.514	0.11393256
824.694	0.11412724
824.874	0.11428107
825.054	0.11437162
825.234	0.11444137
825.414	0.11450951
825.594	0.11467357
825.774	0.11469844
825.954	0.11475762
826.134	0.11486576
826.314	0.11504753
826.494	0.11523498
826.674	0.11529144
826.854	0.11529563
827.033	0.11545319
827.213	0.11538764
827.393	0.1153448
827.573	0.11517279
827.753	0.11517146
827.932	0.11527686
828.112	0.1153529
828.292	0.11531967
828.472	0.11530217
828.651	0.11523169
828.831	0.11524542
829.011	0.11511029
829.19	0.11491489
829.37	0.11487212
829.549	0.1149527
829.729	0.11514141
829.909	0.11536978
830.088	0.1156401
830.268	0.11588473
830.447	0.11616413
830.627	0.11635699
830.806	0.11644786
830.986	0.11658215
831.165	0.11669765
831.344	0.11679746
831.524	0.11678704
831.703	0.11696238
831.883	0.11710215
832.062	0.11735089
832.241	0.11740007
832.421	0.11732434
832.6	0.1171568
832.779	0.11711115
832.958	0.11687828
833.138	0.11671569
833.317	0.11644853
833.496	0.11629179
833.675	0.11620405
833.854	0.11622402
834.034	0.11619058
834.213	0.116175
834.392	0.11615341
834.571	0.11610604
834.75	0.11616094
834.929	0.11624488
835.108	0.11615603
835.287	0.11615993
835.466	0.11615039
835.645	0.1161068
835.824	0.11614516
836.003	0.1161959
836.182	0.1162237
836.361	0.11622177
836.54	0.11614059
836.719	0.11616587
836.897	0.11616664
837.076	0.11618186
837.255	0.1160374
837.434	0.11596051
837.613	0.11602538
837.791	0.11613678
837.97	0.11622776
838.149	0.11627813
838.328	0.11631548
838.506	0.11635895
838.685	0.11631262
838.864	0.11632227
839.042	0.11634479
839.221	0.11634046
839.4	0.11640994
839.578	0.11647394
839.757	0.11666754
839.935	0.11693056
840.114	0.11703336
840.292	0.1171135
840.471	0.11719331
840.649	0.11723148
840.828	0.11717718
841.006	0.11711127
841.185	0.11700338
841.363	0.11704539
841.541	0.11703319
841.72	0.11708822
841.898	0.11716398
842.076	0.11732542
842.255	0.11740853
842.433	0.1174343
842.611	0.11736828
842.789	0.11734359
842.968	0.11730585
843.146	0.11725268
843.324	0.11711947
843.502	0.1169511
843.68	0.11689824
843.859	0.11692318
844.037	0.11690363
844.215	0.11675209
844.393	0.11659385
844.571	0.11654919
844.749	0.11657673
844.927	0.11664221
845.105	0.11656117
845.283	0.11660043
845.461	0.1167322
845.639	0.11692292
845.817	0.11703423
845.995	0.11718231
846.173	0.11729523
846.351	0.1174524
846.529	0.11759856
846.706	0.11754083
846.884	0.11744087
847.062	0.11719997
847.24	0.11695898
847.418	0.11663461
847.595	0.11650373
847.773	0.11634427
847.951	0.11629218
848.129	0.11637185
848.306	0.11663922
848.484	0.11688387
848.662	0.1172508
848.839	0.1175028
849.017	0.11780597
849.194	0.11812974
849.372	0.11831657
849.549	0.11842048
849.727	0.11850851
849.905	0.11843683
850.082	0.11827577
850.26	0.11801218
850.437	0.11783153
850.614	0.11769716
850.792	0.11758584
850.969	0.11748292
851.147	0.11748906
851.324	0.11741261
851.501	0.1173764
851.679	0.11719904
851.856	0.1170592
852.033	0.11686972
852.211	0.11675696
852.388	0.11660522
852.565	0.116658
852.742	0.11664529
852.92	0.11673612
853.097	0.11679763
853.274	0.11689699
853.451	0.11679777
853.628	0.1167598
853.805	0.11671514
853.982	0.11669407
854.159	0.11662821
854.336	0.11663668
854.514	0.11664619
854.691	0.1166724
854.868	0.11672044
855.045	0.11663505
855.221	0.11660877
855.398	0.11650979
855.575	0.11632345
855.752	0.11621281
855.929	0.11613373
856.106	0.11601879
856.283	0.11593492
856.46	0.11577611
856.637	0.1158889
856.813	0.11588982
856.99	0.11595425
857.167	0.11606299
857.344	0.11615561
857.52	0.11634676
857.697	0.11644991
857.874	0.11638573
858.05	0.11646582
858.227	0.11644297
858.404	0.11644267
858.58	0.11652729
858.757	0.11652355
858.933	0.11666057
859.11	0.11676125
859.287	0.11671975
859.463	0.11683311
859.64	0.11700131
859.816	0.1171059
859.993	0.11723777
860.169	0.11736239
860.345	0.11744905
860.522	0.1174851
860.698	0.11730932
860.875	0.11719091
861.051	0.11702768
861.227	0.11690438
861.404	0.11691012
861.58	0.11700105
861.756	0.11725072
861.932	0.11750801
862.109	0.11753212
862.285	0.11755186
862.461	0.11752689
862.637	0.11738399
862.813	0.1171866
862.99	0.11691195
863.166	0.11666941
863.342	0.11651174
863.518	0.1162788
863.694	0.11613196
863.87	0.11593334
864.046	0.11583581
864.222	0.11574295
864.398	0.11560213
864.574	0.11539785
864.75	0.11539319
864.926	0.11539679
865.102	0.11549935
865.278	0.11543415
865.454	0.11544751
865.63	0.11553462
865.805	0.11573415
865.981	0.11587082
866.157	0.11596011
866.333	0.11593564
866.509	0.11598668
866.684	0.11604055
866.86	0.11602244
867.036	0.11592996
867.212	0.11586554
867.387	0.11589899
867.563	0.11593167
867.739	0.11596443
867.914	0.11599799
868.09	0.1160497
868.265	0.11617332
868.441	0.11616086
868.617	0.1160184
868.792	0.11592141
868.968	0.11597002
869.143	0.11614575
869.319	0.11624876
869.494	0.11628765
869.67	0.11629802
869.845	0.11631513
870.02	0.1164066
870.196	0.11638168
870.371	0.1161007
870.546	0.11586012
870.722	0.11583462
870.897	0.11584459
871.072	0.11584568
871.248	0.11566903
871.423	0.1154758
871.598	0.115306
871.773	0.11524599
871.949	0.11492546
872.124	0.11479478
872.299	0.11462624
872.474	0.11455932
872.649	0.11448924
872.824	0.11456489
872.999	0.11455201
873.174	0.11455812
873.349	0.11454902
873.524	0.11443458
873.699	0.11414413
873.874	0.11397935
874.049	0.11374289
874.224	0.11351936
874.399	0.11344401
874.574	0.1131988
874.749	0.11303907
874.924	0.11313219
875.099	0.11317018
875.274	0.11303039
875.449	0.11302881
875.623	0.11283647
875.798	0.11266169
875.973	0.11248807
876.148	0.11221696
876.322	0.1118553
876.497	0.11176686
876.672	0.11149025
876.846	0.11137297
877.021	0.11125455
877.196	0.11119527
877.37	0.11127306
877.545	0.11130123
877.72	0.11108527
877.894	0.11112053
878.069	0.1109033
878.243	0.11078269
878.418	0.11068143
878.592	0.11058462
878.767	0.11057291
878.941	0.1106274
879.116	0.11045666
879.29	0.11057212
879.464	0.11073036
879.639	0.11087344
879.813	0.11094463
879.987	0.11094164
880.162	0.11090511
880.336	0.11089522
880.51	0.11088059
880.685	0.11065038
880.859	0.11048773
881.033	0.11026353
881.207	0.11006473
881.381	0.11002767
881.556	0.11008902
881.73	0.11003626
881.904	0.11014785
882.078	0.11008472
882.252	0.10999485
882.426	0.11005142
882.6	0.11006719
882.774	0.11012369
882.948	0.1102474
883.122	0.11006543
883.296	0.11007688
883.47	0.11014518
883.644	0.11014559
883.818	0.11006749
883.992	0.1098519
884.166	0.10973783
884.34	0.10972843
884.514	0.10966883
884.687	0.10959244
884.861	0.10943469
885.035	0.10944431
885.209	0.10952138
885.382	0.1094421
885.556	0.10945103
885.73	0.10951391
885.904	0.10954921
886.077	0.10948799
886.251	0.109318
886.425	0.10919941
886.598	0.10907925
886.772	0.10891193
886.945	0.1085549
887.119	0.10830277
887.292	0.10821203
887.466	0.10810592
887.64	0.10791806
887.813	0.10771898
887.986	0.10756144
888.16	0.10763493
888.333	0.10769406
888.507	0.10784796
888.68	0.10796965
888.854	0.10809516
889.027	0.10821361
889.2	0.10834802
889.374	0.1082528
889.547	0.10816196
889.72	0.10795579
889.893	0.10772026
890.067	0.10743143
890.24	0.10714699
890.413	0.10694121
890.586	0.10697565
890.759	0.10700953
890.933	0.10699629
891.106	0.10702916
891.279	0.10712254
891.452	0.10722984
891.625	0.10731858
891.798	0.1071823
891.971	0.10684687
892.144	0.10648519
892.317	0.10623862
892.49	0.10591168
892.663	0.10569215
892.836	0.1055872
893.009	0.10552071
893.182	0.10551992
893.355	0.10550781
893.527	0.1054756
893.7	0.10560072
893.873	0.10556743
894.046	0.10531867
894.219	0.10521318
894.391	0.10509109
894.564	0.10513553
894.737	0.10502142
894.91	0.10485891
895.082	0.10472388
895.255	0.10468088
895.428	0.10461073
895.6	0.10459435
895.773	0.10444017
895.945	0.10438947
896.118	0.10433288
896.291	0.10430071
896.463	0.10425409
896.636	0.10416124
896.808	0.10413997
896.981	0.10422594
897.153	0.10426069
897.326	0.10430919
897.498	0.10418158
897.67	0.1041094
897.843	0.10400289
898.015	0.10380741
898.187	0.10347124
898.36	0.10319288
898.532	0.10273809
898.704	0.10247263
898.877	0.10222891
899.049	0.10199172
899.221	0.10178793
899.393	0.10175074
899.566	0.10165177
899.738	0.10177477
899.91	0.10177558
900.082	0.10187525
900.254	0.10199042
900.426	0.10213492
900.598	0.10224939
900.77	0.10238316
900.942	0.10230044
901.114	0.10218839
901.286	0.10189575
901.458	0.10160648
901.63	0.10128838
901.802	0.10094616
901.974	0.1006297
902.146	0.10044237
902.318	0.10048323
902.49	0.10048642
902.662	0.10051079
902.834	0.1005787
903.005	0.10058953
903.177	0.10049698
903.349	0.10041845
903.521	0.10027126
903.693	0.10022781
903.864	0.1001198
904.036	0.10000143
904.208	0.0998457
904.379	0.09994765
904.551	0.09997506
904.723	0.0998551
904.894	0.09959572
905.066	0.09936087
905.237	0.09906783
905.409	0.09885073
905.58	0.09853637
905.752	0.09834794
905.923	0.09826796
906.095	0.09835498
906.266	0.09836613
906.438	0.09848873
906.609	0.09867962
906.78	0.09863036
906.952	0.0985447
907.123	0.09848874
907.295	0.09822639
907.466	0.0981726
907.637	0.0978809
907.808	0.09746714
907.98	0.09713884
908.151	0.09681497
908.322	0.09663532
908.493	0.09659339
908.665	0.09651816
908.836	0.09665315
909.007	0.09675319
909.178	0.09692386
909.349	0.09700524
909.52	0.09702686
909.691	0.09692104
909.862	0.0967034
910.033	0.09651161
910.204	0.09639641
910.375	0.09627568
910.546	0.09614795
910.717	0.09573302
910.888	0.09563287
911.059	0.09544942
911.23	0.09526026
911.401	0.09507117
911.572	0.09491971
911.742	0.09480581
911.913	0.09490421
912.084	0.09469847
912.255	0.09460997
912.426	0.09448417
912.596	0.09432483
912.767	0.09425529
912.938	0.09410286
913.108	0.09409234
913.279	0.09404422
913.45	0.09405674
913.62	0.09418873
913.791	0.09434926
913.962	0.09435612
914.132	0.09447876
914.303	0.09426155
914.473	0.09427234
914.644	0.09417956
914.814	0.09390027
914.985	0.093786
915.155	0.09355315
915.326	0.093321
915.496	0.09329062
915.666	0.09305948
915.837	0.09287956
916.007	0.09274805
916.177	0.09234089
916.348	0.09226604
916.518	0.09213222
916.688	0.09194814
916.858	0.09190786
917.029	0.09182939
917.199	0.09167054
917.369	0.09168527
917.539	0.09154253
917.709	0.09152249
917.88	0.09136026
918.05	0.09126717
918.22	0.09117506
918.39	0.09120604
918.56	0.09114061
918.73	0.09124108
918.9	0.09122571
919.07	0.09137083
919.24	0.09138408
919.41	0.09145331
919.58	0.09149792
919.75	0.09154818
919.92	0.09141323
920.09	0.0913419
920.26	0.09126371
920.429	0.09126819
920.599	0.09114988
920.769	0.0910227
920.939	0.09093272
921.109	0.09084988
921.278	0.09076832
921.448	0.09060178
921.618	0.0903435
921.787	0.0901333
921.957	0.08996815
922.127	0.08972093
922.296	0.0895893
922.466	0.08927725
922.636	0.08903292
922.805	0.08880694
922.975	0.08843854
923.144	0.08802971
923.314	0.08763463
923.483	0.08706583
923.653	0.08660926
923.822	0.08626522
923.992	0.08604075
924.161	0.08606349
924.331	0.08602756
924.5	0.08613201
924.669	0.08626212
924.839	0.08639968
925.008	0.0864876
925.177	0.08632805
925.347	0.08621885
925.516	0.08599887
925.685	0.08571989
925.854	0.08559281
926.023	0.08565802
926.193	0.08576501
926.362	0.08586256
926.531	0.0858282
926.7	0.08594542
926.869	0.08606626
927.038	0.0858499
927.207	0.08571535
927.376	0.08548209
927.545	0.0853642
927.715	0.08525447
927.884	0.08501527
928.052	0.08486263
928.221	0.08481798
928.39	0.08455869
928.559	0.08433447
928.728	0.0842183
928.897	0.0841878
929.066	0.08422125
929.235	0.08412972
929.404	0.08421352
929.572	0.08425051
929.741	0.08430988
929.91	0.08428281
930.079	0.08411975
930.247	0.08411252
930.416	0.08407259
930.585	0.08384323
930.753	0.08371961
930.922	0.08347741
931.091	0.08330871
931.259	0.08306723
931.428	0.08293482
931.596	0.08281246
931.765	0.0829442
931.934	0.08293367
932.102	0.08296258
932.27	0.08304989
932.439	0.0831488
932.607	0.08307622
932.776	0.08320714
932.944	0.08311745
933.113	0.08290708
933.281	0.08284806
933.449	0.08268024
933.618	0.08275368
933.786	0.08278684
933.954	0.08272344
934.123	0.08258659
934.291	0.08273017
934.459	0.08270722
934.627	0.08264348
934.795	0.08238954
934.964	0.08219765
935.132	0.08200655
935.3	0.0819618
935.468	0.08184608
935.636	0.08192872
935.804	0.0818179
935.972	0.08214936
936.14	0.08232284
936.308	0.08240472
936.476	0.08266201
936.644	0.082822
936.812	0.08278649
936.98	0.08307292
937.148	0.08305367
937.316	0.0831613
937.484	0.08345628
937.652	0.08379731
937.82	0.08404004
937.987	0.08428198
938.155	0.08423558
938.323	0.08425381
938.491	0.08404094
938.658	0.08416581
938.826	0.08379694
938.994	0.08386276
939.162	0.08392588
939.329	0.08436737
939.497	0.0848477
939.665	0.08531003
939.832	0.08527032
940	0.08550879
940.167	0.08579407
940.335	0.08595568
940.502	0.08570938
940.67	0.08580415
940.837	0.08634032
941.005	0.08685438
941.172	0.08789949
941.34	0.0880676
941.507	0.08895642
941.674	0.08981518
941.842	0.08962357
942.009	0.08973917
942.177	0.08919704
942.344	0.08867514
942.511	0.08831536
942.678	0.08820207
942.846	0.08817944
943.013	0.08904894
943.18	0.08899131
943.347	0.08957745
943.514	0.08942655
943.682	0.09052985
943.849	0.0904251
944.016	0.09049114
944.183	0.09054017
944.35	0.09065937
944.517	0.09072238
944.684	0.09075317
944.851	0.08915168
945.018	0.0889539
945.185	0.08884875
945.352	0.08805016
945.519	0.08793634
945.686	0.08766009
945.853	0.08796577
946.02	0.0885178
946.187	0.08782857
946.353	0.08792133
946.52	0.08738895
946.687	0.08630357
946.854	0.086204
947.021	0.08494692
947.187	0.08477961
947.354	0.08397952
947.521	0.08328969
947.687	0.08292619
947.854	0.08302514
948.021	0.08137006
948.187	0.08103744
948.354	0.08038964
948.52	0.08043451
948.687	0.08046823
948.854	0.08017388
949.02	0.07957372
949.187	0.08016853
949.353	0.08021688
949.52	0.07978984
949.686	0.07916807
949.852	0.0784779
950.019	0.07828919
950.185	0.07812359
950.352	0.07769328
950.518	0.07684288
950.684	0.07643757
950.851	0.07609372
951.017	0.07597303
951.183	0.07580881
951.349	0.07573608
951.516	0.07510872
951.682	0.0750636
951.848	0.07442231
952.014	0.07389418
952.18	0.07326242
952.346	0.07293931
952.512	0.0724153
952.679	0.07265892
952.845	0.07245496
953.011	0.07225071
953.177	0.07219384
953.343	0.07196979
953.509	0.07143273
953.675	0.07111655
953.841	0.07076323
954.007	0.07089759
954.172	0.07115879
954.338	0.07086078
954.504	0.07006436
954.67	0.06970887
954.836	0.06952852
955.002	0.06907455
955.167	0.06823927
955.333	0.06738078
955.499	0.06718259
955.665	0.06747768
955.83	0.06723006
955.996	0.06670322
956.162	0.06636435
956.327	0.06631493
956.493	0.06605659
956.659	0.06602928
956.824	0.06575947
956.99	0.06560529
957.155	0.06542445
957.321	0.06506633
957.486	0.06451717
957.652	0.06395906
957.817	0.06361892
957.983	0.06296358
958.148	0.06251032
958.314	0.06217311
958.479	0.06195099
958.644	0.06166075
958.81	0.06208604
958.975	0.06166286
959.14	0.06172664
959.306	0.06146761
959.471	0.06127668
959.636	0.06117197
959.801	0.06142524
959.967	0.061121
960.132	0.06108219
960.297	0.0610325
960.462	0.06127326
960.627	0.06146894
960.792	0.06124208
960.957	0.06083691
961.123	0.06090836
961.288	0.06073874
961.453	0.06079237
961.618	0.06045104
961.783	0.06030777
961.948	0.06036328
962.113	0.06027166
962.277	0.05994888
962.442	0.06008292
962.607	0.05976434
962.772	0.05983222
962.937	0.05932507
963.102	0.05897903
963.267	0.05888954
963.431	0.05884586
963.596	0.05869643
963.761	0.05847117
963.926	0.05825375
964.09	0.05815825
964.255	0.05812731
964.42	0.05799783
964.584	0.0580756
964.749	0.0578334
964.914	0.05788546
965.078	0.05783513
965.243	0.05814669
965.407	0.05813091
965.572	0.05836976
965.736	0.0581856
965.901	0.05828194
966.065	0.05825873
966.23	0.05817148
966.394	0.05816018
966.559	0.05796733
966.723	0.05793851
966.887	0.05799895
967.052	0.05783482
967.216	0.05761489
967.38	0.05727681
967.545	0.05715301
967.709	0.05726692
967.873	0.05709344
968.037	0.05679044
968.202	0.05695274
968.366	0.05719717
968.53	0.05733771
968.694	0.05706463
968.858	0.05717686
969.022	0.05701633
969.187	0.05710539
969.351	0.05682992
969.515	0.05662574
969.679	0.05662248
969.843	0.05670342
970.007	0.05637822
970.171	0.05632369
970.335	0.05618793
970.499	0.05620959
970.662	0.05619923
970.826	0.05619181
970.99	0.05609659
971.154	0.05621742
971.318	0.05613035
971.482	0.05611889
971.645	0.0558847
971.809	0.05578696
971.973	0.05539977
972.137	0.05524658
972.3	0.055113
972.464	0.05509836
972.628	0.05484872
972.791	0.05486611
972.955	0.05464293
973.119	0.05449213
973.282	0.05426883
973.446	0.05361399
973.609	0.05316006
973.773	0.05292217
973.936	0.05229013
974.1	0.0519959
974.263	0.0520136
974.427	0.05179144
974.59	0.05200296
974.754	0.05189096
974.917	0.05170989
975.08	0.05195752
975.244	0.05191361
975.407	0.05187286
975.57	0.0518075
975.734	0.05176446
975.897	0.05179022
976.06	0.05189988
976.223	0.0517901
976.387	0.05168325
976.55	0.05154239
976.713	0.05152644
976.876	0.05148045
977.039	0.0514331
977.202	0.0511245
977.365	0.05111003
977.528	0.05105577
977.692	0.0507259
977.855	0.05034903
978.018	0.0501933
978.181	0.04986254
978.344	0.04961994
978.506	0.04942486
978.669	0.04941076
978.832	0.04932647
978.995	0.04925634
979.158	0.04908263
979.321	0.04927206
979.484	0.04929154
979.646	0.04922051
979.809	0.04922019
979.972	0.04931245
980.135	0.04968849
980.297	0.04965245
980.46	0.04955457
980.623	0.0499862
980.786	0.04987763
980.948	0.04981558
981.111	0.05000447
981.273	0.04974182
981.436	0.04974309
981.599	0.04985227
981.761	0.04970713
981.924	0.05007582
982.086	0.04968527
982.249	0.04941472
982.411	0.04935253
982.573	0.04930384
982.736	0.04882483
982.898	0.04850566
983.061	0.04778515
983.223	0.04768549
983.385	0.04768868
983.548	0.04771569
983.71	0.04742212
983.872	0.04763095
984.034	0.04775837
984.197	0.04820083
984.359	0.04839677
984.521	0.04833066
984.683	0.04832934
984.845	0.04864525
985.008	0.04865691
985.17	0.04873745
985.332	0.04849373
985.494	0.04836812
985.656	0.04837465
985.818	0.04809602
985.98	0.0477232
986.142	0.04736783
986.304	0.04675308
986.466	0.04652007
986.628	0.04651957
986.79	0.04648459
986.952	0.04657168
987.113	0.04653252
987.275	0.04662777
987.437	0.04697534
987.599	0.04673873
987.761	0.04660285
987.922	0.04611451
988.084	0.04607582
988.246	0.04627173
988.408	0.04592346
988.569	0.04585077
988.731	0.04620765
988.893	0.04621237
989.054	0.04657119
989.216	0.0469323
989.377	0.04685117
989.539	0.04716896
989.701	0.04699666
989.862	0.0465869
990.024	0.04624216
990.185	0.04613227
990.347	0.04565527
990.508	0.04560046
990.669	0.04529147
990.831	0.0454226
990.992	0.04563921
991.154	0.0456415
991.315	0.04591986
991.476	0.04551441
991.638	0.04546235
991.799	0.04557306
991.96	0.04557722
992.121	0.04601249
992.283	0.04627708
992.444	0.04585315
992.605	0.0461749
992.766	0.0461018
992.927	0.04600984
993.088	0.04561569
993.249	0.04528718
993.41	0.04498498
993.572	0.04491011
993.733	0.04474897
993.894	0.04460738
994.055	0.04411445
994.216	0.04397005
994.376	0.04356139
994.537	0.04356264
994.698	0.0434311
994.859	0.04298348
995.02	0.04271625
995.181	0.04260348
995.342	0.04246627
995.503	0.0419249
995.663	0.04134936
995.824	0.04092874
995.985	0.04111038
996.146	0.04108877
996.306	0.04102203
996.467	0.04094892
996.628	0.0410208
996.788	0.04136754
996.949	0.04144034
997.11	0.04140467
997.27	0.04101857
997.431	0.04099852
997.591	0.04080098
997.752	0.04114487
997.912	0.0411708
998.073	0.04115762
998.233	0.04097251
998.394	0.0410494
998.554	0.04154524
998.714	0.04194297
998.875	0.04159849
999.035	0.04136455
999.196	0.04158071
999.356	0.04172676
999.516	0.0417316
999.676	0.04176725
999.837	0.04114738
999.997	0.04098296
1000.157	0.04109952
1000.317	0.04044359
1000.477	0.04038872
1000.638	0.04030328
1000.798	0.04008553
1000.958	0.0403858
1001.118	0.04116689
1001.278	0.04107303
1001.438	0.04107106
1001.598	0.0410216
1001.758	0.04126761
1001.918	0.04094282
1002.078	0.04045558
1002.238	0.04069057
1002.398	0.04079429
1002.558	0.0411967
1002.718	0.04169469
1002.878	0.04129654
1003.037	0.04077191
1003.197	0.04145653
1003.357	0.04068989
1003.517	0.04061957
1003.677	0.0404071
1003.836	0.0396169
1003.996	0.03993196
1004.156	0.04036992
1004.315	0.03956309
1004.475	0.03863091
1004.635	0.03836556
1004.794	0.03828661
1004.954	0.03844188
1005.114	0.03806862
1005.273	0.03822026
1005.433	0.03825112
1005.592	0.03875869
1005.752	0.0388792
1005.911	0.03846567
1006.071	0.03823305
1006.23	0.03828756
1006.389	0.03815656
1006.549	0.03810333
1006.708	0.03862644
1006.868	0.03859986
1007.027	0.03935444
1007.186	0.03936206
1007.345	0.03932595
1007.505	0.03922712
1007.664	0.03977494
1007.823	0.03941259
1007.982	0.03906608
1008.142	0.03931158
1008.301	0.03975705
1008.46	0.0397022
1008.619	0.03943944
1008.778	0.039559
1008.937	0.03951936
1009.096	0.0398269
1009.255	0.03914877
1009.414	0.03872574
1009.573	0.03871683
1009.732	0.03947783
1009.891	0.03924367
1010.05	0.03946569
1010.209	0.03923932
1010.368	0.03929532
1010.527	0.0397767
1010.686	0.04009583
1010.845	0.03980227
1011.003	0.03991026
1011.162	0.0399746
1011.321	0.03997147
1011.48	0.04069215
1011.638	0.04075544
1011.797	0.04183344
1011.956	0.04139028
1012.115	0.04130037
1012.273	0.04109323
1012.432	0.04110608
1012.59	0.04097088
1012.749	0.04057224
1012.908	0.03871792
1013.066	0.03859857
1013.225	0.03870056
1013.383	0.03885942
1013.542	0.03903198
1013.7	0.03770643
1013.859	0.03724631
1014.017	0.03816259
1014.175	0.03806078
1014.334	0.03858677
1014.492	0.03853455
1014.65	0.03820102
1014.809	0.03993426
1014.967	0.03985067
1015.125	0.0392955
1015.284	0.03999745
1015.442	0.03885115
1015.6	0.03944638
1015.758	0.03960681
1015.916	0.03910887
1016.075	0.03904894
1016.233	0.03909135
1016.391	0.03946973
1016.549	0.03923371
1016.707	0.03874672
1016.865	0.03921646
1017.023	0.03947741
1017.181	0.04005556
1017.339	0.03993888
1017.497	0.03918918
1017.655	0.03988591
1017.813	0.04125314
1017.971	0.04068949
1018.129	0.04061034
1018.286	0.04006217
1018.444	0.03981854
1018.602	0.04049993
1018.76	0.04139491
1018.918	0.04117157
1019.075	0.04181375
1019.233	0.04098753
1019.391	0.04145869
1019.549	0.04299611
1019.706	0.04305697
1019.864	0.04301909
1020.022	0.04311643
1020.179	0.0443027
1020.337	0.04650284
1020.494	0.04711625
1020.652	0.04634641
1020.809	0.04703513
1020.967	0.04644654
1021.124	0.04568541
1021.282	0.04491574
1021.439	0.04408439
1021.597	0.04424868
1021.754	0.04491006
1021.911	0.04392337
1022.069	0.0428147
1022.226	0.04124308
1022.384	0.04150716
1022.541	0.03979711
1022.698	0.0394286
1022.855	0.03891418
1023.013	0.03894547
1023.17	0.04052963
1023.327	0.04367172
1023.484	0.04297164
1023.641	0.04404118
1023.798	0.04395514
1023.956	0.04423174
1024.113	0.04471933
1024.27	0.04509142
1024.427	0.04256917
1024.584	0.04420514
1024.741	0.04483364
1024.898	0.04559658
1025.055	0.0452154
1025.212	0.04441865
1025.369	0.04310927
1025.525	0.04353452
1025.682	0.04216713
1025.839	0.0404753
1025.996	0.04141566
1026.153	0.04122799
1026.31	0.0434573
1026.466	0.04350793
1026.623	0.04372071
1026.78	0.0456216
1026.937	0.04912527
1027.093	0.04886509
1027.25	0.04940051
1027.407	0.05028883
1027.563	0.05244722
1027.72	0.05225905
1027.876	0.050689
1028.033	0.05007834
1028.19	0.04953813
1028.346	0.04725555
1028.503	0.04539686
1028.659	0.04599899
1028.816	0.04669439
1028.972	0.04801661
1029.128	0.04729461
1029.285	0.04642061
1029.441	0.04970719
1029.598	0.04958647
1029.754	0.04920446
1029.91	0.04939506
1030.067	0.04929376
1030.223	0.04967073
1030.379	0.05007481
1030.535	0.05118515
1030.691	0.05342852
1030.848	0.05109087
1031.004	0.0516472
1031.16	0.05107377
1031.316	0.05304
1031.472	0.05390563
1031.628	0.05338122
1031.784	0.05264789
1031.94	0.0556357
1032.096	0.05701188
1032.252	0.05731428
1032.408	0.05460174
1032.564	0.05325245
1032.72	0.05444869
1032.876	0.05401541
1033.032	0.05329571
1033.188	0.05215309
1033.344	0.05304287
1033.5	0.05503135
1033.655	0.05761184
1033.811	0.05751209
1033.967	0.05851876
