Data from 1_mm_pl_30pc_Absorbance__1__17-00-31-746.txt Node

Date: Wed Mar 08 17:00:31 CET 2023
User: Ange
Spectrometer: FLMT08341
Trigger mode: 0
Integration Time (sec): 1.000000E-2
Scans to average: 400
Electric dark correction enabled: true
Nonlinearity correction enabled: false
Boxcar width: 3
XAxis mode: Wavelengths
Number of Pixels in Spectrum: 3648
>>>>>Begin Spectral Data<<<<<
345.271	0.00701502
345.487	0.00196648
345.704	-0.00471975
345.921	-0.00340564
346.137	0.0143743
346.354	0.01308315
346.571	0.04203451
346.787	0.0050473
347.004	-0.0038941
347.22	0.02043285
347.437	0.08136354
347.653	0.31523176
347.87	-0.39931524
348.086	-0.65364402
348.303	-0.05463836
348.519	0.31729169
348.736	0.31522828
348.952	0.31782797
349.169	0.32795147
349.385	0.33718207
349.601	0.33888989
349.818	0.33545128
350.034	0.33618523
350.251	0.33451198
350.467	0.33926273
350.683	0.33155343
350.9	0.33418735
351.116	0.33110851
351.332	0.32772501
351.549	0.33652608
351.765	0.34740817
351.981	0.35218425
352.197	0.36473469
352.414	0.37793696
352.63	0.38433819
352.846	0.3959719
353.062	0.39069429
353.278	0.38407726
353.495	0.39273133
353.711	0.39419215
353.927	0.39831002
354.143	0.39949338
354.359	0.39518672
354.575	0.39406907
354.792	0.40347335
355.008	0.3939918
355.224	0.3890113
355.44	0.38350766
355.656	0.38117827
355.872	0.38750385
356.088	0.40877527
356.304	0.41348227
356.52	0.42149362
356.736	0.43049964
356.952	0.43838083
357.168	0.44619452
357.384	0.45212762
357.6	0.43829356
357.816	0.44209954
358.032	0.44952892
358.248	0.45755
358.464	0.45728779
358.679	0.45920102
358.895	0.45988648
359.111	0.47158936
359.327	0.46639037
359.543	0.46710875
359.759	0.47436903
359.974	0.47622686
360.19	0.47635785
360.406	0.47707591
360.622	0.4721902
360.838	0.47313724
361.053	0.47756026
361.269	0.47842031
361.485	0.48176463
361.701	0.48710577
361.916	0.48550357
362.132	0.49018211
362.348	0.49343004
362.563	0.49672051
362.779	0.49330156
362.995	0.49879382
363.21	0.50574125
363.426	0.50775051
363.641	0.50771494
363.857	0.51438253
364.073	0.5083891
364.288	0.50820087
364.504	0.51630832
364.719	0.51600465
364.935	0.52026663
365.15	0.52705822
365.366	0.53015341
365.581	0.54184199
365.797	0.5437483
366.012	0.53443581
366.228	0.53130916
366.443	0.53850317
366.658	0.53673876
366.874	0.5316721
367.089	0.53507535
367.305	0.53913678
367.52	0.54503236
367.735	0.54820304
367.951	0.54321146
368.166	0.54894583
368.381	0.562492
368.597	0.56083883
368.812	0.56754587
369.027	0.5721017
369.243	0.57755689
369.458	0.59288774
369.673	0.59443171
369.888	0.59174666
370.104	0.58984807
370.319	0.59200605
370.534	0.59144276
370.749	0.59232332
370.964	0.59257224
371.179	0.59325929
371.395	0.59029773
371.61	0.59563485
371.825	0.59024014
372.04	0.59298439
372.255	0.59144696
372.47	0.58526128
372.685	0.58050449
372.9	0.58334352
373.115	0.58040449
373.33	0.58700666
373.545	0.58829552
373.76	0.59287704
373.975	0.59539249
374.19	0.59905224
374.405	0.6040712
374.62	0.61480274
374.835	0.62017681
375.05	0.62317356
375.265	0.62393161
375.48	0.62956527
375.695	0.64011516
375.91	0.6370702
376.125	0.62867937
376.339	0.6210833
376.554	0.62206869
376.769	0.62460262
376.984	0.62356439
377.199	0.62603659
377.414	0.6276432
377.628	0.63824223
377.843	0.64538492
378.058	0.64844872
378.273	0.65644378
378.487	0.66038501
378.702	0.6607951
378.917	0.66555047
379.131	0.66150308
379.346	0.65528811
379.561	0.65432671
379.775	0.65134937
379.99	0.64760318
380.205	0.64177584
380.419	0.63649396
380.634	0.63259584
380.848	0.64247934
381.063	0.6434638
381.278	0.6480011
381.492	0.6465409
381.707	0.65529601
381.921	0.65885784
382.136	0.66906666
382.35	0.66610944
382.565	0.66585906
382.779	0.66686271
382.994	0.67193498
383.208	0.66742734
383.422	0.67545713
383.637	0.6753107
383.851	0.68158646
384.066	0.68680825
384.28	0.69077365
384.494	0.69403865
384.709	0.70031493
384.923	0.70128973
385.137	0.69732576
385.352	0.6961877
385.566	0.69847903
385.78	0.69687579
385.995	0.69557875
386.209	0.69371765
386.423	0.69700673
386.637	0.70302875
386.852	0.70069014
387.066	0.70119504
387.28	0.69962865
387.494	0.70677308
387.708	0.71139134
387.923	0.70905057
388.137	0.71279422
388.351	0.71903171
388.565	0.72386735
388.779	0.72832578
388.993	0.73480162
389.207	0.73684328
389.421	0.74187867
389.635	0.73867901
389.85	0.73806618
390.064	0.73831557
390.278	0.74137845
390.492	0.74131875
390.706	0.74372358
390.92	0.74423445
391.134	0.75109503
391.348	0.76089889
391.561	0.75904837
391.775	0.75673188
391.989	0.7517319
392.203	0.75418954
392.417	0.75710696
392.631	0.76232536
392.845	0.75732244
393.059	0.76504961
393.273	0.7666635
393.486	0.76500414
393.7	0.76108154
393.914	0.764166
394.128	0.7616029
394.342	0.76087887
394.555	0.75428087
394.769	0.75494972
394.983	0.76022696
395.197	0.76459354
395.41	0.76390197
395.624	0.76649916
395.838	0.76870257
396.051	0.77944339
396.265	0.77865204
396.479	0.78207992
396.692	0.7836338
396.906	0.78205607
397.12	0.78178791
397.333	0.78628801
397.547	0.78232557
397.76	0.78838257
397.974	0.78852495
398.187	0.78867297
398.401	0.7942329
398.614	0.79622278
398.828	0.79630315
399.041	0.79802928
399.255	0.79797772
399.468	0.79866855
399.682	0.80257116
399.895	0.80496193
400.109	0.80364509
400.322	0.80238534
400.536	0.79974549
400.749	0.80407752
400.962	0.80428113
401.176	0.80284348
401.389	0.80145526
401.602	0.79774317
401.816	0.79994892
402.029	0.80445572
402.242	0.80178314
402.456	0.80319915
402.669	0.80058961
402.882	0.7946633
403.095	0.80237438
403.309	0.80315954
403.522	0.80390099
403.735	0.80301953
403.948	0.80330087
404.161	0.81316232
404.375	0.81794474
404.588	0.8173356
404.801	0.81869636
405.014	0.81728247
405.227	0.82315489
405.44	0.82645303
405.653	0.82478941
405.866	0.82252171
406.079	0.82217874
406.293	0.82172708
406.506	0.82254964
406.719	0.82014288
406.932	0.81776487
407.145	0.81315568
407.358	0.82036503
407.571	0.81759912
407.784	0.81887067
407.996	0.82031237
408.209	0.81741673
408.422	0.81590291
408.635	0.81863846
408.848	0.81678764
409.061	0.81455982
409.274	0.81235161
409.487	0.81049768
409.7	0.8116781
409.912	0.81339584
410.125	0.81271639
410.338	0.81253521
410.551	0.81356801
410.764	0.81541761
410.976	0.81574845
411.189	0.81599403
411.402	0.81288521
411.615	0.81485997
411.827	0.81409467
412.04	0.81497732
412.253	0.81300492
412.465	0.8119628
412.678	0.81016773
412.891	0.81275676
413.103	0.8059647
413.316	0.80438531
413.529	0.80671934
413.741	0.80787004
413.954	0.80836218
414.166	0.80870276
414.379	0.80698253
414.591	0.81054976
414.804	0.80876362
415.016	0.80584533
415.229	0.80379016
415.441	0.8017889
415.654	0.80269207
415.866	0.80300308
416.079	0.80355713
416.291	0.80242842
416.504	0.80460061
416.716	0.80520838
416.928	0.80550167
417.141	0.80321633
417.353	0.80305184
417.566	0.79814785
417.778	0.79869816
417.99	0.79275036
418.203	0.78854671
418.415	0.78688626
418.627	0.78655631
418.839	0.78434799
419.052	0.78778715
419.264	0.78620282
419.476	0.78740129
419.688	0.78831485
419.901	0.78721209
420.113	0.78502367
420.325	0.78330194
420.537	0.77880654
420.749	0.77900851
420.961	0.77869275
421.174	0.77642543
421.386	0.77396834
421.598	0.77206604
421.81	0.77057189
422.022	0.7691207
422.234	0.76689674
422.446	0.76369172
422.658	0.76197836
422.87	0.76207667
423.082	0.7609476
423.294	0.75939309
423.506	0.75823462
423.718	0.75577691
423.93	0.75307579
424.142	0.75096266
424.354	0.74751748
424.566	0.74532397
424.778	0.74371661
424.99	0.7418724
425.202	0.73952967
425.414	0.73880719
425.625	0.73869881
425.837	0.73559754
426.049	0.73471338
426.261	0.73220789
426.473	0.72921403
426.684	0.72801055
426.896	0.72690133
427.108	0.72358256
427.32	0.72380933
427.531	0.72087803
427.743	0.71920832
427.955	0.72006681
428.167	0.71722121
428.378	0.71431322
428.59	0.71251542
428.802	0.70992263
429.013	0.70763027
429.225	0.70487538
429.436	0.70105403
429.648	0.70028948
429.86	0.69919747
430.071	0.69798836
430.283	0.69626623
430.494	0.69359527
430.706	0.69186865
430.917	0.68927821
431.129	0.68654334
431.34	0.68316556
431.552	0.68057344
431.763	0.67743288
431.975	0.67680357
432.186	0.673396
432.398	0.67099124
432.609	0.66665966
432.821	0.66468204
433.032	0.66196964
433.243	0.65939696
433.455	0.65637989
433.666	0.65512151
433.877	0.65374036
434.089	0.65153806
434.3	0.64843319
434.511	0.64471461
434.723	0.64235678
434.934	0.63886069
435.145	0.63456622
435.356	0.63051764
435.568	0.62828225
435.779	0.62543914
435.99	0.62244267
436.201	0.61954432
436.412	0.61664858
436.624	0.61537702
436.835	0.61361761
437.046	0.61163333
437.257	0.60928137
437.468	0.60843835
437.679	0.60688798
437.89	0.6049813
438.101	0.60277744
438.312	0.60021018
438.523	0.59740009
438.734	0.59515105
438.945	0.59217089
439.156	0.58822329
439.367	0.58575999
439.578	0.58339627
439.789	0.57985336
440	0.57739984
440.211	0.57438621
440.422	0.57170235
440.633	0.57020101
440.844	0.56683648
441.055	0.5632453
441.266	0.56136084
441.477	0.55828377
441.687	0.55567413
441.898	0.55276412
442.109	0.54913859
442.32	0.54660335
442.531	0.54323701
442.741	0.53906042
442.952	0.53620032
443.163	0.53324508
443.374	0.53000655
443.584	0.52706634
443.795	0.52441664
444.006	0.52236881
444.216	0.52027318
444.427	0.51684977
444.638	0.51401519
444.848	0.51137901
445.059	0.50851876
445.27	0.50534299
445.48	0.50227349
445.691	0.49945489
445.901	0.49745588
446.112	0.49471899
446.323	0.49168882
446.533	0.48891466
446.744	0.48599116
446.954	0.48300085
447.165	0.48004655
447.375	0.47755038
447.586	0.47489231
447.796	0.47247098
448.006	0.46974067
448.217	0.46748285
448.427	0.46511266
448.638	0.46233112
448.848	0.4590769
449.058	0.45619744
449.269	0.45351421
449.479	0.450894
449.689	0.44807901
449.9	0.44533064
450.11	0.44268157
450.32	0.44063745
450.531	0.43776247
450.741	0.43481793
450.951	0.43232407
451.161	0.42941696
451.372	0.42671292
451.582	0.42502196
451.792	0.42189775
452.002	0.41942614
452.212	0.41680548
452.422	0.41430737
452.633	0.41185393
452.843	0.40961058
453.053	0.40597256
453.263	0.40368348
453.473	0.40109143
453.683	0.39902125
453.893	0.39618928
454.103	0.39389886
454.313	0.39123477
454.523	0.38901936
454.733	0.38652292
454.943	0.38462447
455.153	0.38235984
455.363	0.3800592
455.573	0.37773813
455.783	0.37547878
455.993	0.37303552
456.203	0.3709318
456.413	0.36853836
456.623	0.36596882
456.833	0.36420408
457.042	0.36178313
457.252	0.35956142
457.462	0.35743491
457.672	0.35537331
457.882	0.35304836
458.091	0.35086233
458.301	0.34825022
458.511	0.34610049
458.721	0.34386781
458.931	0.34180327
459.14	0.3395716
459.35	0.33768048
459.56	0.33570987
459.769	0.33397296
459.979	0.33196134
460.189	0.33010784
460.398	0.32797109
460.608	0.32620021
460.817	0.32416418
461.027	0.32220745
461.237	0.32017453
461.446	0.31830232
461.656	0.31658136
461.865	0.31475798
462.075	0.31278762
462.284	0.31109243
462.494	0.30906877
462.703	0.30691142
462.913	0.30514108
463.122	0.30316927
463.332	0.30140725
463.541	0.29978711
463.751	0.29796128
463.96	0.29641983
464.169	0.29498892
464.379	0.2934259
464.588	0.29182314
464.797	0.29020284
465.007	0.28852481
465.216	0.28699029
465.425	0.28570947
465.635	0.284327
465.844	0.28285983
466.053	0.28145023
466.263	0.28010793
466.472	0.27873244
466.681	0.27747026
466.89	0.27604859
467.099	0.2746639
467.309	0.27341917
467.518	0.27224307
467.727	0.27088741
467.936	0.26947656
468.145	0.26814852
468.354	0.26684233
468.563	0.26554685
468.772	0.26408862
468.982	0.26266372
469.191	0.2616073
469.4	0.26030401
469.609	0.25907281
469.818	0.25789055
470.027	0.25667371
470.236	0.25551554
470.445	0.25456
470.654	0.25315803
470.863	0.25218171
471.072	0.25120788
471.28	0.25007631
471.489	0.24914693
471.698	0.24828981
471.907	0.24727759
472.116	0.24652686
472.325	0.24559769
472.534	0.24467284
472.743	0.24375879
472.951	0.24306294
473.16	0.24220488
473.369	0.24132436
473.578	0.24051811
473.786	0.23974267
473.995	0.23900699
474.204	0.23850061
474.413	0.23761325
474.621	0.23688122
474.83	0.23631503
475.039	0.23570519
475.247	0.23507035
475.456	0.23441956
475.665	0.23364262
475.873	0.23295177
476.082	0.23212156
476.291	0.23137847
476.499	0.23075748
476.708	0.23012174
476.916	0.22949344
477.125	0.22891712
477.333	0.22840996
477.542	0.22804802
477.75	0.22748762
477.959	0.22699135
478.167	0.22661142
478.376	0.22609031
478.584	0.2255974
478.793	0.22513391
479.001	0.22464711
479.209	0.22420724
479.418	0.22379794
479.626	0.22330185
479.834	0.222873
480.043	0.22256796
480.251	0.22225591
480.459	0.22197782
480.668	0.22177291
480.876	0.22154712
481.084	0.22130182
481.293	0.22110832
481.501	0.22080312
481.709	0.22058141
481.917	0.22032859
482.125	0.22015742
482.334	0.21989242
482.542	0.21970277
482.75	0.21962436
482.958	0.21954442
483.166	0.21954139
483.374	0.21942931
483.583	0.21933435
483.791	0.21926156
483.999	0.21917021
484.207	0.21906565
484.415	0.21903965
484.623	0.2187806
484.831	0.21875317
485.039	0.21875594
485.247	0.21877844
485.455	0.21880936
485.663	0.21879886
485.871	0.21882778
486.079	0.21888634
486.287	0.21895833
486.495	0.21888471
486.702	0.21886383
486.91	0.2189117
487.118	0.21891856
487.326	0.21895526
487.534	0.219113
487.742	0.21927954
487.95	0.21947555
488.157	0.21960223
488.365	0.21979736
488.573	0.22010241
488.781	0.22043508
488.988	0.22066811
489.196	0.22088174
489.404	0.22112545
489.612	0.22149069
489.819	0.22180422
490.027	0.22204558
490.235	0.22219011
490.442	0.22251527
490.65	0.22270915
490.857	0.22318016
491.065	0.22348974
491.273	0.22389144
491.48	0.2242898
491.688	0.22470837
491.895	0.22516292
492.103	0.22566709
492.31	0.22599423
492.518	0.22635281
492.725	0.22674218
492.933	0.22719084
493.14	0.22760672
493.348	0.22796412
493.555	0.2284229
493.763	0.22882838
493.97	0.22936406
494.177	0.22983939
494.385	0.23029612
494.592	0.23085003
494.8	0.23132141
495.007	0.23195182
495.214	0.23247334
495.422	0.23303903
495.629	0.23357276
495.836	0.2341734
496.043	0.23473067
496.251	0.23542242
496.458	0.23587158
496.665	0.23646558
496.872	0.23701678
497.08	0.23759028
497.287	0.23814529
497.494	0.2388216
497.701	0.23943294
497.908	0.2401875
498.115	0.24083904
498.322	0.24151183
498.53	0.24216145
498.737	0.24284676
498.944	0.24343433
499.151	0.24403531
499.358	0.2446736
499.565	0.24533197
499.772	0.24608957
499.979	0.24692258
500.186	0.24774143
500.393	0.24850362
500.6	0.2492264
500.807	0.25000856
501.014	0.2508706
501.221	0.25164364
501.427	0.2524054
501.634	0.25320073
501.841	0.25405347
502.048	0.25491927
502.255	0.25564236
502.462	0.25639857
502.669	0.25717388
502.875	0.25795305
503.082	0.25873149
503.289	0.2593955
503.496	0.26020555
503.702	0.26103436
503.909	0.26196394
504.116	0.2629334
504.323	0.263835
504.529	0.26467987
504.736	0.2656697
504.943	0.26662308
505.149	0.26764204
505.356	0.26860062
505.563	0.26951931
505.769	0.27054969
505.976	0.27148676
506.182	0.27250505
506.389	0.27349833
506.595	0.27446137
506.802	0.27538674
507.008	0.27626712
507.215	0.27718786
507.421	0.27820387
507.628	0.27913964
507.834	0.28010291
508.041	0.28106701
508.247	0.28204027
508.454	0.28309698
508.66	0.28402791
508.866	0.28498331
509.073	0.2860882
509.279	0.28709614
509.486	0.28803458
509.692	0.28904235
509.898	0.29012023
510.105	0.2911939
510.311	0.29229296
510.517	0.29333571
510.723	0.29446412
510.93	0.2955104
511.136	0.29658118
511.342	0.29758356
511.548	0.29866138
511.754	0.29971839
511.961	0.30073985
512.167	0.30168628
512.373	0.30286663
512.579	0.3040117
512.785	0.30515158
512.991	0.30629633
513.197	0.30749886
513.404	0.30878987
513.61	0.31007395
513.816	0.31120458
514.022	0.31233079
514.228	0.31348578
514.434	0.31457119
514.64	0.31562702
514.846	0.31670456
515.052	0.31777664
515.258	0.31884345
515.464	0.32004418
515.669	0.32119747
515.875	0.32240383
516.081	0.32369445
516.287	0.32490592
516.493	0.32623664
516.699	0.32755926
516.905	0.3287363
517.111	0.32989632
517.316	0.33108054
517.522	0.33220723
517.728	0.33345152
517.934	0.33459628
518.139	0.3358478
518.345	0.3370732
518.551	0.33835775
518.757	0.33954096
518.962	0.3407903
519.168	0.34197522
519.374	0.3431328
519.579	0.34429714
519.785	0.34559443
519.991	0.34688883
520.196	0.34824912
520.402	0.34949051
520.607	0.35071412
520.813	0.35209331
521.018	0.35331146
521.224	0.35445302
521.429	0.35572415
521.635	0.35695888
521.84	0.35814796
522.046	0.35942741
522.251	0.36060847
522.457	0.36193854
522.662	0.36335091
522.868	0.36462996
523.073	0.36590292
523.279	0.36731182
523.484	0.36852243
523.689	0.36988148
523.895	0.3712592
524.1	0.3725757
524.305	0.37390593
524.511	0.37525152
524.716	0.37664292
524.921	0.37810444
525.126	0.37942519
525.332	0.3806992
525.537	0.38195331
525.742	0.38323212
525.947	0.38450016
526.153	0.3856785
526.358	0.38692143
526.563	0.38817092
526.768	0.38947854
526.973	0.39082645
527.178	0.39217655
527.383	0.39350626
527.588	0.39484667
527.794	0.39616649
527.999	0.39754527
528.204	0.39887021
528.409	0.40009912
528.614	0.40144016
528.819	0.40278142
529.024	0.40402429
529.229	0.40525517
529.434	0.40655121
529.639	0.40779178
529.843	0.4091365
530.048	0.41042733
530.253	0.41174468
530.458	0.41316936
530.663	0.41453775
530.868	0.41594016
531.073	0.41729744
531.278	0.4185648
531.482	0.41983018
531.687	0.4211301
531.892	0.42246573
532.097	0.42377348
532.302	0.42512189
532.506	0.42644657
532.711	0.42783218
532.916	0.42922177
533.12	0.43067051
533.325	0.43203381
533.53	0.43356517
533.734	0.43502139
533.939	0.43650073
534.144	0.43800197
534.348	0.43946533
534.553	0.44088244
534.757	0.442246
534.962	0.44350563
535.167	0.44485251
535.371	0.44608296
535.576	0.44741664
535.78	0.44868646
535.985	0.44996145
536.189	0.45126133
536.394	0.45263497
536.598	0.45390303
536.803	0.45544175
537.007	0.45676075
537.211	0.45815112
537.416	0.4594673
537.62	0.46082719
537.825	0.46213645
538.029	0.46355728
538.233	0.46472241
538.438	0.46607561
538.642	0.46742273
538.846	0.46890109
539.05	0.47022912
539.255	0.4715786
539.459	0.47293049
539.663	0.47436173
539.867	0.47573008
540.072	0.47708875
540.276	0.47839322
540.48	0.47990185
540.684	0.48131542
540.888	0.48279686
541.092	0.48409456
541.297	0.48545969
541.501	0.4868387
541.705	0.48822094
541.909	0.48949648
542.113	0.49073363
542.317	0.49194567
542.521	0.49332475
542.725	0.49461347
542.929	0.49584485
543.133	0.49704285
543.337	0.49841066
543.541	0.4998108
543.745	0.50099989
543.949	0.50227898
544.153	0.50352873
544.357	0.50479916
544.56	0.50618237
544.764	0.50744349
544.968	0.50869124
545.172	0.5099778
545.376	0.51138312
545.58	0.51279401
545.783	0.51421769
545.987	0.51544797
546.191	0.51674403
546.395	0.51806301
546.598	0.51953667
546.802	0.52086533
547.006	0.52221109
547.21	0.52336
547.413	0.52469359
547.617	0.52601184
547.821	0.52732532
548.024	0.52868204
548.228	0.52978873
548.431	0.53104377
548.635	0.53236971
548.839	0.53357242
549.042	0.5348055
549.246	0.53598999
549.449	0.53719361
549.653	0.53856818
549.856	0.53977302
550.06	0.54106888
550.263	0.54251681
550.467	0.54393863
550.67	0.54541871
550.874	0.54670988
551.077	0.5480712
551.28	0.54947164
551.484	0.55082607
551.687	0.55216071
551.891	0.55340035
552.094	0.55461162
552.297	0.55592747
552.501	0.55728781
552.704	0.55860037
552.907	0.55980003
553.11	0.56086054
553.314	0.56208321
553.517	0.56322197
553.72	0.5644231
553.923	0.56566412
554.127	0.56692849
554.33	0.56808061
554.533	0.56937755
554.736	0.57045781
554.939	0.57161524
555.142	0.57277436
555.345	0.57388997
555.549	0.57507313
555.752	0.57631807
555.955	0.57756837
556.158	0.57896741
556.361	0.5802225
556.564	0.58148486
556.767	0.58267962
556.97	0.58383314
557.173	0.58512063
557.376	0.58638929
557.579	0.58740835
557.782	0.58866984
557.984	0.58987632
558.187	0.59114881
558.39	0.59231856
558.593	0.5935053
558.796	0.5945796
558.999	0.59564774
559.202	0.59671629
559.404	0.59773077
559.607	0.59870236
559.81	0.59980205
560.013	0.6008021
560.216	0.60193329
560.418	0.60339966
560.621	0.60467497
560.824	0.60598504
561.026	0.60719954
561.229	0.60835833
561.432	0.60956348
561.634	0.61062285
561.837	0.61151223
562.04	0.61251568
562.242	0.61354497
562.445	0.61463313
562.647	0.61573899
562.85	0.61668896
563.053	0.61772209
563.255	0.61881281
563.458	0.61982067
563.66	0.62086761
563.863	0.62196937
564.065	0.62303672
564.268	0.62416439
564.47	0.62531589
564.672	0.62627284
564.875	0.62745896
565.077	0.62852909
565.28	0.62952566
565.482	0.63061577
565.684	0.63167562
565.887	0.63272921
566.089	0.63395645
566.291	0.63491205
566.494	0.63595776
566.696	0.63700406
566.898	0.63808456
567.1	0.63917841
567.303	0.64026847
567.505	0.64124168
567.707	0.64217863
567.909	0.6430263
568.111	0.64394536
568.314	0.64483306
568.516	0.64575808
568.718	0.64663006
568.92	0.64750384
569.122	0.64846156
569.324	0.64953411
569.526	0.65036573
569.728	0.65136578
569.93	0.65227828
570.132	0.65318776
570.334	0.65413526
570.536	0.65501145
570.738	0.65580156
570.94	0.65672714
571.142	0.6576554
571.344	0.65841801
571.546	0.65915727
571.748	0.66008737
571.95	0.66089616
572.152	0.66177976
572.354	0.66272606
572.555	0.66357327
572.757	0.66465826
572.959	0.66561044
573.161	0.66630115
573.363	0.66721303
573.564	0.66820921
573.766	0.66888377
573.968	0.66965017
574.17	0.67014706
574.371	0.67097331
574.573	0.67189558
574.775	0.67265904
574.976	0.67322517
575.178	0.67401448
575.38	0.67461271
575.581	0.6753818
575.783	0.67611237
575.985	0.67684903
576.186	0.67773676
576.388	0.678546
576.589	0.67920215
576.791	0.68007603
576.992	0.68094287
577.194	0.68169659
577.395	0.68226001
577.597	0.68285697
577.798	0.68354216
578	0.6843654
578.201	0.68507836
578.402	0.68575183
578.604	0.68636951
578.805	0.68717926
579.007	0.68790519
579.208	0.68861555
579.409	0.68928646
579.611	0.68979585
579.812	0.69056976
580.013	0.69124672
580.215	0.69165058
580.416	0.6922585
580.617	0.69288197
580.818	0.69355028
581.019	0.69420666
581.221	0.69475094
581.422	0.69534621
581.623	0.69616189
581.824	0.69656064
582.025	0.69707595
582.226	0.69765249
582.428	0.69825679
582.629	0.69877018
582.83	0.69926951
583.031	0.69971667
583.232	0.70044985
583.433	0.70102308
583.634	0.70136487
583.835	0.70190469
584.036	0.7023535
584.237	0.70280216
584.438	0.7032706
584.639	0.70355232
584.84	0.70405425
585.041	0.70441297
585.242	0.70464722
585.442	0.70489687
585.643	0.7054178
585.844	0.70586159
586.045	0.70646742
586.246	0.70665629
586.447	0.70712088
586.647	0.70749855
586.848	0.70791144
587.049	0.70806341
587.25	0.70825756
587.45	0.70843514
587.651	0.70889404
587.852	0.70922939
588.053	0.70978395
588.253	0.71019031
588.454	0.71075992
588.655	0.71113587
588.855	0.7114133
589.056	0.71171179
589.256	0.7120909
589.457	0.71226856
589.658	0.71260395
589.858	0.71274819
590.059	0.71315438
590.259	0.71354522
590.46	0.71374187
590.66	0.71401217
590.861	0.71431209
591.061	0.71445993
591.262	0.71483245
591.462	0.71503189
591.662	0.71519073
591.863	0.71542023
592.063	0.71563639
592.264	0.71582617
592.464	0.71616688
592.664	0.71625337
592.865	0.71650662
593.065	0.71655417
593.265	0.71685777
593.465	0.71690702
593.666	0.7169785
593.866	0.71704975
594.066	0.71720786
594.266	0.71722446
594.467	0.71728631
594.667	0.7171943
594.867	0.71725192
595.067	0.71734666
595.267	0.71734706
595.467	0.71736607
595.668	0.71733577
595.868	0.71750804
596.068	0.71767917
596.268	0.71771283
596.468	0.71771311
596.668	0.71785656
596.868	0.71783032
597.068	0.71805084
597.268	0.71821153
597.468	0.7181409
597.668	0.71814023
597.868	0.71811941
598.068	0.71802425
598.268	0.71807133
598.467	0.71796641
598.667	0.71768529
598.867	0.71749029
599.067	0.71756803
599.267	0.71754173
599.467	0.71742503
599.667	0.7172054
599.866	0.71706455
600.066	0.71717113
600.266	0.71714556
600.466	0.71692846
600.665	0.71669784
600.865	0.71645759
601.065	0.71643192
601.264	0.71611646
601.464	0.71578912
601.664	0.71572846
601.863	0.71564191
602.063	0.71563437
602.263	0.71540448
602.462	0.71523589
602.662	0.7152195
602.861	0.71495973
603.061	0.71473901
603.26	0.71441012
603.46	0.71408872
603.659	0.7140755
603.859	0.71392897
604.058	0.71371082
604.258	0.71364893
604.457	0.71364418
604.657	0.71341324
604.856	0.71314849
605.056	0.71282207
605.255	0.71243268
605.454	0.71214083
605.654	0.71176376
605.853	0.71128274
606.052	0.71090909
606.252	0.71061669
606.451	0.71040987
606.65	0.71025747
606.849	0.70978014
607.049	0.70951598
607.248	0.70906525
607.447	0.70888
607.646	0.70877106
607.845	0.70844486
608.045	0.70791366
608.244	0.70774865
608.443	0.70738693
608.642	0.70717197
608.841	0.70666342
609.04	0.70604116
609.239	0.70559288
609.438	0.7051752
609.637	0.70473813
609.836	0.70432604
610.035	0.70382535
610.234	0.70346389
610.433	0.70301743
610.632	0.70250491
610.831	0.70209795
611.03	0.7015275
611.229	0.70115449
611.428	0.70072319
611.627	0.70029945
611.826	0.69977016
612.025	0.69943588
612.224	0.69882346
612.422	0.69838039
612.621	0.69773093
612.82	0.69726194
613.019	0.69673928
613.218	0.69640244
613.416	0.69580612
613.615	0.69540371
613.814	0.69484127
614.012	0.69428871
614.211	0.69356002
614.41	0.6929148
614.608	0.69214808
614.807	0.69147725
615.006	0.69090425
615.204	0.69027813
615.403	0.68982817
615.602	0.68936257
615.8	0.68881281
615.999	0.68816226
616.197	0.68759601
616.396	0.6869531
616.594	0.6863466
616.793	0.68568044
616.991	0.68496072
617.19	0.68425347
617.388	0.68384713
617.586	0.68318124
617.785	0.68244902
617.983	0.68174722
618.182	0.68104102
618.38	0.68028368
618.578	0.67956924
618.777	0.67877091
618.975	0.67811278
619.173	0.67739294
619.372	0.67674029
619.57	0.67592226
619.768	0.6753026
619.966	0.67460385
620.165	0.6737536
620.363	0.6729844
620.561	0.67217128
620.759	0.67138903
620.957	0.67073134
621.155	0.66994868
621.354	0.66917167
621.552	0.66865306
621.75	0.66784572
621.948	0.66723349
622.146	0.66644047
622.344	0.66549656
622.542	0.66473841
622.74	0.66385898
622.938	0.6628764
623.136	0.66207287
623.334	0.66131104
623.532	0.660414
623.73	0.65973531
623.928	0.6589904
624.126	0.6583174
624.324	0.65763561
624.522	0.65670936
624.719	0.65565053
624.917	0.65493678
625.115	0.65392549
625.313	0.65311487
625.511	0.65227406
625.708	0.65125824
625.906	0.65041714
626.104	0.64962809
626.302	0.64876903
626.499	0.6480349
626.697	0.64701265
626.895	0.64596198
627.093	0.6450382
627.29	0.64419475
627.488	0.64325376
627.686	0.64239983
627.883	0.64134017
628.081	0.64020034
628.278	0.63939099
628.476	0.63843096
628.673	0.63746762
628.871	0.63661419
629.068	0.63553398
629.266	0.63459302
629.463	0.63376147
629.661	0.63281065
629.858	0.63184375
630.056	0.63084488
630.253	0.62991593
630.451	0.62894703
630.648	0.62796408
630.845	0.62706506
631.043	0.62603912
631.24	0.62526563
631.438	0.62436382
631.635	0.62328329
631.832	0.62214889
632.029	0.62117988
632.227	0.61997062
632.424	0.61889932
632.621	0.61771161
632.818	0.61656527
633.016	0.6154582
633.213	0.61447374
633.41	0.61339594
633.607	0.61244213
633.804	0.61137078
634.001	0.61013503
634.199	0.60896276
634.396	0.60787582
634.593	0.60667011
634.79	0.60568974
634.987	0.60454436
635.184	0.60345743
635.381	0.60251116
635.578	0.60152865
635.775	0.60042645
635.972	0.59951296
636.169	0.59830443
636.366	0.59739393
636.563	0.5964197
636.76	0.59531209
636.957	0.59436442
637.153	0.59317471
637.35	0.59214913
637.547	0.59111931
637.744	0.58993771
637.941	0.58886472
638.138	0.58782346
638.334	0.58667325
638.531	0.58584153
638.728	0.58480023
638.925	0.58386592
639.121	0.58282165
639.318	0.58165959
639.515	0.58049544
639.711	0.57944199
639.908	0.57812177
640.105	0.57685635
640.301	0.57561345
640.498	0.57438118
640.695	0.57332185
640.891	0.57225913
641.088	0.57113042
641.284	0.5701262
641.481	0.56914529
641.677	0.56795033
641.874	0.56683555
642.07	0.56572241
642.267	0.56475574
642.463	0.56358248
642.66	0.56260917
642.856	0.5614179
643.053	0.56027961
643.249	0.55922944
643.445	0.55794246
643.642	0.55655659
643.838	0.55539397
644.034	0.55405536
644.231	0.55274098
644.427	0.55153539
644.623	0.55024552
644.82	0.54916059
645.016	0.54792366
645.212	0.54654821
645.408	0.54531005
645.604	0.544238
645.801	0.54314766
645.997	0.54190217
646.193	0.54068058
646.389	0.53966362
646.585	0.53859695
646.781	0.53750953
646.977	0.53650225
647.173	0.5353538
647.37	0.53437744
647.566	0.53332891
647.762	0.53220181
647.958	0.53122422
648.154	0.53001198
648.35	0.52873858
648.546	0.52745189
648.742	0.52623745
648.937	0.52482471
649.133	0.52356256
649.329	0.52226702
649.525	0.52098438
649.721	0.51961008
649.917	0.51841852
650.113	0.51700319
650.309	0.51586192
650.504	0.51450514
650.7	0.51309633
650.896	0.51187853
651.092	0.51068418
651.287	0.50946277
651.483	0.5082841
651.679	0.50702224
651.875	0.50596962
652.07	0.50491549
652.266	0.50371638
652.462	0.5026208
652.657	0.50143378
652.853	0.50024617
653.048	0.49908835
653.244	0.49772444
653.44	0.49649209
653.635	0.49514489
653.831	0.49387109
654.026	0.49272358
654.222	0.49150352
654.417	0.49033754
654.613	0.48910759
654.808	0.48776898
655.004	0.48659808
655.199	0.48527529
655.394	0.48396081
655.59	0.4827849
655.785	0.48138731
655.98	0.48023889
656.176	0.47897747
656.371	0.47795966
656.566	0.47683509
656.762	0.47559058
656.957	0.47433432
657.152	0.4732215
657.348	0.47191143
657.543	0.47078368
657.738	0.46938407
657.933	0.4680964
658.128	0.46681757
658.324	0.46552506
658.519	0.46429982
658.714	0.46315666
658.909	0.46181401
659.104	0.46063941
659.299	0.4593508
659.494	0.45811296
659.689	0.45692503
659.884	0.45559896
660.079	0.45423533
660.274	0.45306913
660.469	0.45177722
660.664	0.4506432
660.859	0.44946985
661.054	0.44827556
661.249	0.44713289
661.444	0.44590796
661.639	0.44462111
661.834	0.44339596
662.029	0.44213251
662.224	0.44088081
662.418	0.4396167
662.613	0.43840246
662.808	0.43710971
663.003	0.43591744
663.198	0.43463443
663.392	0.43324544
663.587	0.43211003
663.782	0.43072446
663.977	0.42934577
664.171	0.42819349
664.366	0.42683515
664.561	0.42557655
664.755	0.42440772
664.95	0.42311475
665.144	0.42195173
665.339	0.42091241
665.534	0.4197192
665.728	0.41858401
665.923	0.41745395
666.117	0.41632705
666.312	0.41509402
666.506	0.41400135
666.701	0.41272156
666.895	0.41154182
667.09	0.41034422
667.284	0.40921435
667.479	0.40798011
667.673	0.40679154
667.867	0.40558689
668.062	0.40438201
668.256	0.40317923
668.45	0.40211561
668.645	0.40088938
668.839	0.39969537
669.033	0.39847168
669.228	0.39728224
669.422	0.39612822
669.616	0.39493325
669.81	0.39372868
670.004	0.39257559
670.199	0.39148187
670.393	0.39035683
670.587	0.38915061
670.781	0.38788221
670.975	0.38667634
671.169	0.38530626
671.363	0.38398818
671.558	0.38273421
671.752	0.3815583
671.946	0.38048036
672.14	0.37940705
672.334	0.37825933
672.528	0.37730564
672.722	0.37613932
672.916	0.37506657
673.11	0.37388747
673.304	0.37276884
673.497	0.3715001
673.691	0.37039522
673.885	0.36911236
674.079	0.36797708
674.273	0.36670662
674.467	0.36553091
674.661	0.36422601
674.854	0.36309765
675.048	0.36194547
675.242	0.36091406
675.436	0.35991516
675.629	0.35886866
675.823	0.35775597
676.017	0.35677924
676.211	0.35578414
676.404	0.35468302
676.598	0.35355837
676.792	0.35243286
676.985	0.3512912
677.179	0.35010761
677.372	0.34881378
677.566	0.34750773
677.76	0.34621502
677.953	0.3448821
678.147	0.34366827
678.34	0.34254337
678.534	0.34146954
678.727	0.34051878
678.921	0.33961762
679.114	0.3386693
679.307	0.33775134
679.501	0.33668369
679.694	0.335646
679.888	0.33457338
680.081	0.33356797
680.274	0.33237442
680.468	0.33134252
680.661	0.33027853
680.854	0.32937589
681.048	0.32822628
681.241	0.32703018
681.434	0.32580258
681.627	0.32465514
681.821	0.32344284
682.014	0.32238653
682.207	0.32110895
682.4	0.32008528
682.593	0.31910151
682.786	0.31807197
682.98	0.31709328
683.173	0.3161459
683.366	0.3151214
683.559	0.31420209
683.752	0.31313786
683.945	0.31211689
684.138	0.31106384
684.331	0.30997447
684.524	0.30894698
684.717	0.30782578
684.91	0.30683416
685.103	0.30590884
685.296	0.3048911
685.489	0.30392299
685.682	0.30292064
685.874	0.3019282
686.067	0.30088941
686.26	0.2997676
686.453	0.29868947
686.646	0.29763551
686.839	0.2966794
687.031	0.29575881
687.224	0.29475105
687.417	0.29398705
687.61	0.29308875
687.802	0.29213457
687.995	0.29122085
688.188	0.29030404
688.38	0.28929692
688.573	0.28832246
688.766	0.28727462
688.958	0.28620283
689.151	0.28515933
689.343	0.28420203
689.536	0.28312101
689.729	0.28213001
689.921	0.28115518
690.114	0.28009063
690.306	0.27919986
690.499	0.27836956
690.691	0.27744765
690.884	0.27654864
691.076	0.27566198
691.268	0.27467252
691.461	0.27376858
691.653	0.27290466
691.846	0.27197228
692.038	0.2710931
692.23	0.27006409
692.423	0.2691364
692.615	0.26836716
692.807	0.26748985
692.999	0.26654243
693.192	0.26561278
693.384	0.26472365
693.576	0.26394673
693.768	0.26326947
693.961	0.26235978
694.153	0.2615576
694.345	0.26071726
694.537	0.259915
694.729	0.25915413
694.921	0.25826994
695.113	0.25725867
695.305	0.25630797
695.498	0.25526403
695.69	0.25435918
695.882	0.25335563
696.074	0.25233205
696.266	0.25138474
696.458	0.25043344
696.65	0.24960524
696.842	0.24884004
697.033	0.24803647
697.225	0.24723972
697.417	0.24643416
697.609	0.24558902
697.801	0.24477927
697.993	0.24392061
698.185	0.24298268
698.376	0.24204605
698.568	0.24111991
698.76	0.24017977
698.952	0.23933445
699.144	0.23848168
699.335	0.23773901
699.527	0.23698159
699.719	0.23618386
699.91	0.2354414
700.102	0.23460689
700.294	0.23386863
700.485	0.23309955
700.677	0.2322169
700.869	0.23157274
701.06	0.23090041
701.252	0.23019172
701.443	0.22957355
701.635	0.2288349
701.826	0.22807672
702.018	0.22741055
702.209	0.22667887
702.401	0.22594022
702.592	0.2252951
702.784	0.22466517
702.975	0.22408513
703.166	0.22356681
703.358	0.22290041
703.549	0.22221018
703.741	0.22146594
703.932	0.22066493
704.123	0.21986383
704.315	0.21900065
704.506	0.21820857
704.697	0.21737114
704.888	0.21665842
705.08	0.2159986
705.271	0.21537431
705.462	0.21468136
705.653	0.21399737
705.844	0.21319906
706.035	0.2126082
706.227	0.2118488
706.418	0.21112932
706.609	0.21039853
706.8	0.20971258
706.991	0.20902479
707.182	0.20843624
707.373	0.20772472
707.564	0.20717593
707.755	0.20652923
707.946	0.20588218
708.137	0.20522733
708.328	0.20459878
708.519	0.20390574
708.71	0.20326266
708.901	0.20246651
709.092	0.20187688
709.283	0.20126797
709.473	0.20069435
709.664	0.20015923
709.855	0.19956302
710.046	0.19899279
710.237	0.19835512
710.427	0.19757375
710.618	0.19683797
710.809	0.19606848
711	0.19530412
711.19	0.19455192
711.381	0.19385733
711.572	0.19322043
711.762	0.19271991
711.953	0.19220676
712.144	0.19170166
712.334	0.19119589
712.525	0.19075924
712.715	0.1902265
712.906	0.18968144
713.097	0.18911634
713.287	0.1885603
713.478	0.18800577
713.668	0.18751438
713.859	0.18706599
714.049	0.18661374
714.239	0.18621506
714.43	0.18566723
714.62	0.18517274
714.811	0.18467476
715.001	0.18419756
715.191	0.18364501
715.382	0.18305008
715.572	0.18257598
715.762	0.18213886
715.953	0.18166747
716.143	0.18119358
716.333	0.18066333
716.523	0.18021256
716.714	0.17986556
716.904	0.17941412
717.094	0.17906885
717.284	0.1786354
717.474	0.17816844
717.664	0.17777566
717.855	0.17732421
718.045	0.1768743
718.235	0.17649336
718.425	0.17607285
718.615	0.17569748
718.805	0.17532308
718.995	0.1748886
719.185	0.17442483
719.375	0.17394079
719.565	0.17339856
719.755	0.17282003
719.945	0.17225413
720.135	0.1718057
720.325	0.17132621
720.515	0.1709731
720.704	0.17066257
720.894	0.17037186
721.084	0.17005676
721.274	0.16977982
721.464	0.16934992
721.654	0.16900366
721.843	0.16855312
722.033	0.1680864
722.223	0.167636
722.413	0.16734506
722.602	0.16697553
722.792	0.16665537
722.982	0.16633416
723.171	0.16604284
723.361	0.1657391
723.55	0.16544375
723.74	0.16497016
723.93	0.1645598
724.119	0.16425157
724.309	0.16388489
724.498	0.1634986
724.688	0.16309854
724.877	0.1626394
725.067	0.16216981
725.256	0.16170148
725.446	0.16125658
725.635	0.16075016
725.825	0.16030457
726.014	0.15989603
726.203	0.15949557
726.393	0.15917901
726.582	0.15881527
726.771	0.15846249
726.961	0.15814988
727.15	0.15785866
727.339	0.15748552
727.529	0.15711705
727.718	0.15675864
727.907	0.15644096
728.096	0.15605259
728.286	0.15564418
728.475	0.15531577
728.664	0.15500188
728.853	0.15471665
729.042	0.15439026
729.231	0.15409445
729.42	0.15383807
729.609	0.15357502
729.799	0.15313604
729.988	0.15274407
730.177	0.15234378
730.366	0.15191553
730.555	0.15158267
730.744	0.15122824
730.933	0.15095574
731.122	0.15071744
731.31	0.1504297
731.499	0.15016002
731.688	0.149973
731.877	0.14972026
732.066	0.14948983
732.255	0.14925913
732.444	0.14902183
732.632	0.1488387
732.821	0.14865647
733.01	0.14842028
733.199	0.14819438
733.388	0.14793829
733.576	0.14767679
733.765	0.14744059
733.954	0.14718712
734.142	0.14693774
734.331	0.14661115
734.52	0.1462539
734.708	0.14588086
734.897	0.1455725
735.086	0.14524809
735.274	0.14493938
735.463	0.14461903
735.651	0.14438451
735.84	0.14424529
736.028	0.14405963
736.217	0.14381762
736.405	0.14354321
736.594	0.14332122
736.782	0.14311521
736.971	0.14292814
737.159	0.14263454
737.347	0.142401
737.536	0.14218317
737.724	0.14196806
737.912	0.1417
738.101	0.14144875
738.289	0.14118045
738.477	0.14099068
738.666	0.14079995
738.854	0.14058693
739.042	0.14041834
739.23	0.14023799
739.418	0.14012337
739.607	0.13997999
739.795	0.13975054
739.983	0.13954669
740.171	0.13934465
740.359	0.13914649
740.547	0.13902246
740.735	0.13881473
740.923	0.13864328
741.112	0.13853576
741.3	0.13837088
741.488	0.13820916
741.676	0.13805946
741.864	0.13780949
742.052	0.13764623
742.239	0.13738323
742.427	0.13707781
742.615	0.13677558
742.803	0.13657003
742.991	0.13640334
743.179	0.13633498
743.367	0.13618933
743.555	0.13616254
743.742	0.13608735
743.93	0.13613295
744.118	0.13608294
744.306	0.13599482
744.494	0.13588088
744.681	0.13579779
744.869	0.13563835
745.057	0.13547217
745.244	0.1352893
745.432	0.13508769
745.62	0.13494711
745.807	0.13488469
745.995	0.13482149
746.182	0.13481462
746.37	0.1348336
746.558	0.13479149
746.745	0.13479878
746.933	0.13474305
747.12	0.13467321
747.308	0.13455049
747.495	0.13446535
747.683	0.1344562
747.87	0.13448701
748.057	0.13447711
748.245	0.13444077
748.432	0.13431353
748.62	0.13426424
748.807	0.13423251
748.994	0.13419405
749.182	0.13410872
749.369	0.13406606
749.556	0.13403832
749.743	0.13408236
749.931	0.13408037
750.118	0.13405473
750.305	0.13389868
750.492	0.13375331
750.68	0.13370334
750.867	0.13370556
751.054	0.13358935
751.241	0.13347014
751.428	0.13326461
751.615	0.13307498
751.802	0.13286777
751.989	0.13255485
752.176	0.13223621
752.363	0.13197254
752.55	0.13168414
752.737	0.13148033
752.924	0.13144657
753.111	0.13152046
753.298	0.13164389
753.485	0.13175753
753.672	0.13182252
753.859	0.13190895
754.046	0.1320161
754.233	0.13202368
754.42	0.13198658
754.606	0.13178936
754.793	0.13165859
754.98	0.1315643
755.167	0.13139572
755.353	0.13134562
755.54	0.13138776
755.727	0.13144685
755.914	0.1315351
756.1	0.13163385
756.287	0.13179127
756.474	0.13200978
756.66	0.13205236
756.847	0.13191827
757.033	0.13173745
757.22	0.13156541
757.407	0.13135283
757.593	0.13111747
757.78	0.13094496
757.966	0.13083329
758.153	0.13078313
758.339	0.13070341
758.526	0.130698
758.712	0.13075142
758.898	0.13084599
759.085	0.1309638
759.271	0.13107777
759.458	0.13125607
759.644	0.13140472
759.83	0.13153035
760.017	0.13155425
760.203	0.13160734
760.389	0.13152742
760.576	0.13141671
760.762	0.13119806
760.948	0.13104829
761.134	0.13094282
761.32	0.13093348
761.507	0.1309109
761.693	0.13097501
761.879	0.1311165
762.065	0.13133701
762.251	0.13160295
762.437	0.13185075
762.623	0.13198509
762.809	0.13203897
762.995	0.13207704
763.181	0.13210879
763.367	0.13213045
763.553	0.13203733
763.739	0.13186801
763.925	0.13171028
764.111	0.13159157
764.297	0.13144899
764.483	0.13122082
764.669	0.13110578
764.855	0.13107043
765.041	0.13112564
765.227	0.13114556
765.412	0.13120464
765.598	0.13136136
765.784	0.13159061
765.97	0.1317139
766.156	0.131786
766.341	0.13180645
766.527	0.13193657
766.713	0.1319963
766.898	0.13206841
767.084	0.13206171
767.27	0.13207579
767.455	0.13209302
767.641	0.13217114
767.827	0.1321356
768.012	0.13215435
768.198	0.13211466
768.383	0.13222919
768.569	0.13232461
768.754	0.1325431
768.94	0.13269191
769.125	0.13290336
769.311	0.13306516
769.496	0.13326561
769.682	0.13339907
769.867	0.13344732
770.052	0.13341332
770.238	0.13332555
770.423	0.13327216
770.608	0.13319849
770.794	0.13314347
770.979	0.13301067
771.164	0.1330734
771.35	0.13305338
771.535	0.13314459
771.72	0.13323337
771.905	0.1334234
772.09	0.13351938
772.276	0.13366263
772.461	0.13376505
772.646	0.13391434
772.831	0.13403001
773.016	0.13410635
773.201	0.13415221
773.386	0.1342582
773.571	0.13436668
773.756	0.13447745
773.941	0.13461609
774.126	0.13482706
774.311	0.13496444
774.496	0.13507605
774.681	0.13511104
774.866	0.13515511
775.051	0.13510322
775.236	0.13510251
775.421	0.13505835
775.606	0.13514889
775.791	0.1351925
775.976	0.13535413
776.16	0.13549634
776.345	0.13570856
776.53	0.13589215
776.715	0.13607423
776.899	0.13618425
777.084	0.13628314
777.269	0.13637163
777.454	0.1363958
777.638	0.13645419
777.823	0.13659207
778.008	0.13673485
778.192	0.13695211
778.377	0.13708816
778.561	0.13712597
778.746	0.13729743
778.931	0.13728683
779.115	0.13723022
779.3	0.13710727
779.484	0.13698861
779.669	0.13704717
779.853	0.13710964
780.037	0.13706581
780.222	0.13710891
780.406	0.13708766
780.591	0.13714446
780.775	0.13712597
780.959	0.13703715
781.144	0.13694939
781.328	0.13687744
781.512	0.13682225
781.697	0.1367802
781.881	0.13685736
782.065	0.13695952
782.249	0.13700383
782.434	0.13715663
782.618	0.13730604
782.802	0.13751252
782.986	0.13767772
783.17	0.13770376
783.354	0.13772423
783.539	0.137848
783.723	0.13791788
783.907	0.13799074
784.091	0.13800764
784.275	0.13806829
784.459	0.13812709
784.643	0.13817505
784.827	0.13819576
785.011	0.13808571
785.195	0.13796375
785.379	0.13789545
785.563	0.13783912
785.747	0.13775464
785.93	0.13766048
786.114	0.13754546
786.298	0.13744374
786.482	0.13741068
786.666	0.13737627
786.85	0.13741941
787.033	0.13758481
787.217	0.13776601
787.401	0.13795585
787.585	0.13825488
787.768	0.13843902
787.952	0.138531
788.136	0.13857256
788.319	0.13851355
788.503	0.13846988
788.687	0.13846609
788.87	0.13839532
789.054	0.13839587
789.237	0.13854555
789.421	0.13860998
789.605	0.13875478
789.788	0.13886946
789.972	0.13894911
790.155	0.13909904
790.338	0.13922819
790.522	0.1392768
790.705	0.13945749
790.889	0.13955437
791.072	0.13973274
791.256	0.13988582
791.439	0.14003996
791.622	0.14025657
791.806	0.1405046
791.989	0.14062718
792.172	0.14074267
792.355	0.14067937
792.539	0.14062683
792.722	0.14049188
792.905	0.14033733
793.088	0.14017301
793.271	0.14008462
793.455	0.14009146
793.638	0.14017776
793.821	0.1403071
794.004	0.14050201
794.187	0.14076139
794.37	0.14104739
794.553	0.14126271
794.736	0.14132381
794.919	0.14141341
795.102	0.14147027
795.285	0.14159182
795.468	0.14167232
795.651	0.14169715
795.834	0.14178081
796.017	0.14190561
796.2	0.14208008
796.383	0.14231425
796.566	0.14254031
796.749	0.14270186
796.931	0.14289252
797.114	0.1431094
797.297	0.14333488
797.48	0.14354127
797.663	0.1436523
797.845	0.14368017
798.028	0.14376759
798.211	0.14383706
798.393	0.14387731
798.576	0.14389237
798.759	0.14390272
798.941	0.14406732
799.124	0.14426876
799.307	0.14443739
799.489	0.14462131
799.672	0.14481947
799.854	0.14503578
800.037	0.14527388
800.219	0.14545148
800.402	0.14557729
800.584	0.14580608
800.767	0.14599232
800.949	0.1461532
801.132	0.14638519
801.314	0.14650978
801.496	0.14662435
801.679	0.14674188
801.861	0.1466597
802.043	0.14657371
802.226	0.1465185
802.408	0.14644082
802.59	0.14642064
802.772	0.14633613
802.955	0.14639256
803.137	0.14649466
803.319	0.14655917
803.501	0.14662258
803.684	0.14665577
803.866	0.14668666
804.048	0.14675586
804.23	0.14683555
804.412	0.14703269
804.594	0.1472646
804.776	0.14750449
804.958	0.14773216
805.14	0.14793885
805.322	0.14808131
805.504	0.14810268
805.686	0.14802377
805.868	0.14802578
806.05	0.1480157
806.232	0.14803015
806.414	0.14807673
806.596	0.14818423
806.778	0.14824893
806.96	0.14847286
807.141	0.14855467
807.323	0.14852516
807.505	0.1484101
807.687	0.14828123
807.869	0.14813115
808.05	0.14797108
808.232	0.14770316
808.414	0.14751445
808.595	0.147482
808.777	0.14744321
808.959	0.1474811
809.14	0.14760182
809.322	0.14778491
809.504	0.14807263
809.685	0.14831398
809.867	0.14851213
810.048	0.14879741
810.23	0.14894999
810.411	0.14903103
810.593	0.14903665
810.774	0.14889529
810.956	0.14874834
811.137	0.1485644
811.319	0.14837096
811.5	0.14825851
811.681	0.14815513
811.863	0.14815556
812.044	0.14825762
812.225	0.14841015
812.407	0.14857395
812.588	0.14870285
812.769	0.14880624
812.951	0.14891007
813.132	0.14890178
813.313	0.1488237
813.494	0.14880862
813.675	0.14880577
813.857	0.14886573
814.038	0.14895625
814.219	0.14903166
814.4	0.14917031
814.581	0.14929525
814.762	0.14929217
814.943	0.14927153
815.124	0.14918734
815.305	0.14915716
815.486	0.14923795
815.667	0.14931993
815.848	0.14939905
816.029	0.14952124
816.21	0.14970542
816.391	0.14990535
816.572	0.15001595
816.753	0.15002129
816.934	0.1500309
817.115	0.14999829
817.295	0.15002371
817.476	0.14993926
817.657	0.14995877
817.838	0.15009816
818.019	0.15014493
818.199	0.15021613
818.38	0.15036761
818.561	0.15044677
818.741	0.15059132
818.922	0.15071362
819.103	0.15075613
819.283	0.15097789
819.464	0.15123009
819.645	0.15153753
819.825	0.15184719
820.006	0.15215669
820.186	0.15240027
820.367	0.15265559
820.547	0.1526462
820.728	0.15259343
820.908	0.15245532
821.089	0.15244606
821.269	0.15243758
821.45	0.1525946
821.63	0.15257771
821.81	0.152879
821.991	0.15318705
822.171	0.15353511
822.351	0.1536829
822.532	0.15386177
822.712	0.15396893
822.892	0.15424378
823.072	0.15425388
823.253	0.15415978
823.433	0.1540235
823.613	0.15399919
823.793	0.15398282
823.973	0.153936
824.154	0.15385548
824.334	0.15379874
824.514	0.15388158
824.694	0.15402123
824.874	0.15418625
825.054	0.15421658
825.234	0.15423795
825.414	0.15424971
825.594	0.15450759
825.774	0.1546415
825.954	0.15481007
826.134	0.15498845
826.314	0.1553053
826.494	0.15560653
826.674	0.15572925
826.854	0.15564965
827.033	0.15567545
827.213	0.15559281
827.393	0.15547956
827.573	0.15535203
827.753	0.15541151
827.932	0.15564577
828.112	0.15585002
828.292	0.15604709
828.472	0.1561656
828.651	0.15628522
828.831	0.15627636
829.011	0.15613412
829.19	0.15596728
829.37	0.15598124
829.549	0.15599043
829.729	0.15616932
829.909	0.15636904
830.088	0.15670159
830.268	0.1569293
830.447	0.15719368
830.627	0.15740653
830.806	0.15761816
830.986	0.1577033
831.165	0.15786731
831.344	0.15796967
831.524	0.15803677
831.703	0.15814513
831.883	0.15825115
832.062	0.15836908
832.241	0.15842862
832.421	0.15830086
832.6	0.15813972
832.779	0.15804719
832.958	0.15785559
833.138	0.15768531
833.317	0.15755442
833.496	0.15755514
833.675	0.15762849
833.854	0.15779859
834.034	0.15788044
834.213	0.15798979
834.392	0.15801034
834.571	0.15795176
834.75	0.15798074
834.929	0.15796193
835.108	0.15778844
835.287	0.15781649
835.466	0.15782933
835.645	0.15790883
835.824	0.15804219
836.003	0.15812856
836.182	0.15816891
836.361	0.15817584
836.54	0.1580503
836.719	0.15798839
836.897	0.15793989
837.076	0.1579211
837.255	0.15779515
837.434	0.15784211
837.613	0.15796192
837.791	0.15806545
837.97	0.15814485
838.149	0.15806412
838.328	0.15793967
838.506	0.1578859
838.685	0.15780868
838.864	0.15778705
839.042	0.15779492
839.221	0.15782688
839.4	0.15799073
839.578	0.15816593
839.757	0.15831359
839.935	0.15852421
840.114	0.15867589
840.292	0.1588785
840.471	0.15912805
840.649	0.15922863
840.828	0.15930855
841.006	0.15937371
841.185	0.15925677
841.363	0.15924159
841.541	0.1591958
841.72	0.15911114
841.898	0.1591222
842.076	0.15911551
842.255	0.15911417
842.433	0.15919569
842.611	0.15917778
842.789	0.15923439
842.968	0.15928873
843.146	0.15931342
843.324	0.15927134
843.502	0.15935507
843.68	0.1594527
843.859	0.15954424
844.037	0.15956234
844.215	0.15949635
844.393	0.15949251
844.571	0.15956269
844.749	0.15951344
844.927	0.15946289
845.105	0.15943621
845.283	0.15950489
845.461	0.15956185
845.639	0.15964962
845.817	0.15979728
845.995	0.16000037
846.173	0.16018519
846.351	0.16026369
846.529	0.16030559
846.706	0.16018185
846.884	0.16002539
847.062	0.15964724
847.24	0.15930744
847.418	0.15894983
847.595	0.15880002
847.773	0.15856869
847.951	0.15859611
848.129	0.15875416
848.306	0.15907303
848.484	0.15935342
848.662	0.15977687
848.839	0.16007124
849.017	0.16045086
849.194	0.16070617
849.372	0.16090375
849.549	0.16102235
849.727	0.16111825
849.905	0.16100937
850.082	0.1608741
850.26	0.16072805
850.437	0.16072904
850.614	0.16066166
850.792	0.16069719
850.969	0.16063527
851.147	0.16070363
851.324	0.16067058
851.501	0.1605712
851.679	0.16035459
851.856	0.16012093
852.033	0.15975832
852.211	0.1594905
852.388	0.15918837
852.565	0.15912946
852.742	0.15917653
852.92	0.15920931
853.097	0.15925449
853.274	0.15938035
853.451	0.15938697
853.628	0.1593394
853.805	0.15930338
853.982	0.1592182
854.159	0.15915685
854.336	0.15913258
854.514	0.1591314
854.691	0.15917831
854.868	0.15929165
855.045	0.15933492
855.221	0.15922833
855.398	0.15914545
855.575	0.15899574
855.752	0.15879732
855.929	0.15875292
856.106	0.15853679
856.283	0.15831167
856.46	0.15820557
856.637	0.15824698
856.813	0.15832222
856.99	0.15845184
857.167	0.15852268
857.344	0.15879752
857.52	0.15912581
857.697	0.15930609
857.874	0.15931502
858.05	0.15933569
858.227	0.15939391
858.404	0.15939186
858.58	0.15942584
858.757	0.15926374
858.933	0.15922498
859.11	0.15918067
859.287	0.1590035
859.463	0.15889586
859.64	0.15889038
859.816	0.15885318
859.993	0.15899692
860.169	0.15912443
860.345	0.1592356
860.522	0.15938089
860.698	0.1593014
860.875	0.15920138
861.051	0.15902644
861.227	0.15877056
861.404	0.15868601
861.58	0.15867794
861.756	0.15880927
861.932	0.15901852
862.109	0.15902809
862.285	0.1590529
862.461	0.15913801
862.637	0.15903884
862.813	0.15888759
862.99	0.1585924
863.166	0.1583016
863.342	0.15817898
863.518	0.15799919
863.694	0.15783917
863.87	0.15763837
864.046	0.15752998
864.222	0.15754604
864.398	0.15745952
864.574	0.1573291
864.75	0.15732146
864.926	0.15730862
865.102	0.15745337
865.278	0.15745361
865.454	0.15758847
865.63	0.15768997
865.805	0.15771946
865.981	0.15779713
866.157	0.15791423
866.333	0.15782369
866.509	0.15788042
866.684	0.15772837
866.86	0.15774947
867.036	0.15791143
867.212	0.15793428
867.387	0.15787882
867.563	0.15801152
867.739	0.15807245
867.914	0.15817074
868.09	0.1581587
868.265	0.15801961
868.441	0.1577595
868.617	0.15763028
868.792	0.1572902
868.968	0.15709639
869.143	0.15703764
869.319	0.15697
869.494	0.15696291
869.67	0.15707633
869.845	0.15704181
870.02	0.15712387
870.196	0.15711478
870.371	0.15692531
870.546	0.15676759
870.722	0.15675476
870.897	0.15669463
871.072	0.15659103
871.248	0.15648242
871.423	0.1563625
871.598	0.15622565
871.773	0.15616345
871.949	0.1559603
872.124	0.15583106
872.299	0.15583073
872.474	0.15577548
872.649	0.15562545
872.824	0.15566424
872.999	0.1555613
873.174	0.15556967
873.349	0.15558727
873.524	0.15536387
873.699	0.15520355
873.874	0.15513183
874.049	0.15487084
874.224	0.1547367
874.399	0.15445486
874.574	0.15412154
874.749	0.1539783
874.924	0.1539838
875.099	0.15386497
875.274	0.1537556
875.449	0.1537041
875.623	0.15355094
875.798	0.15338549
875.973	0.15313242
876.148	0.15263671
876.322	0.15237375
876.497	0.15224448
876.672	0.15204514
876.846	0.15205334
877.021	0.15208031
877.196	0.15217575
877.37	0.15235647
877.545	0.1523813
877.72	0.15222
877.894	0.15219035
878.069	0.15196587
878.243	0.15186446
878.418	0.15178463
878.592	0.15173318
878.767	0.15174259
878.941	0.1518347
879.116	0.1517186
879.29	0.15180829
879.464	0.15169782
879.639	0.15154265
879.813	0.15151682
879.987	0.15134121
880.162	0.15109109
880.336	0.15092257
880.51	0.15074245
880.685	0.15059867
880.859	0.15049102
881.033	0.15025632
881.207	0.15014661
881.381	0.15009586
881.556	0.15011093
881.73	0.15006071
881.904	0.15008665
882.078	0.14996525
882.252	0.1498151
882.426	0.14980014
882.6	0.14980523
882.774	0.14989906
882.948	0.14994034
883.122	0.14984188
883.296	0.14990079
883.47	0.14999273
883.644	0.15000979
883.818	0.15003001
883.992	0.14985274
884.166	0.14978391
884.34	0.14978591
884.514	0.14984415
884.687	0.14981475
884.861	0.14960389
885.035	0.14953795
885.209	0.14957357
885.382	0.1493713
885.556	0.14928623
885.73	0.14921153
885.904	0.14913695
886.077	0.14903308
886.251	0.14884381
886.425	0.14875644
886.598	0.14880492
886.772	0.14865892
886.945	0.1483709
887.119	0.14812119
887.292	0.14802798
887.466	0.14796976
887.64	0.14764384
887.813	0.14742542
887.986	0.14719976
888.16	0.14713537
888.333	0.14704477
888.507	0.14695693
888.68	0.14684365
888.854	0.14684224
889.027	0.14682041
889.2	0.14690889
889.374	0.14687008
889.547	0.14691908
889.72	0.146944
889.893	0.14688582
890.067	0.14665714
890.24	0.1463871
890.413	0.14615931
890.586	0.14604791
890.759	0.14610421
890.933	0.14607887
891.106	0.14583487
891.279	0.1457848
891.452	0.14580234
891.625	0.14571087
891.798	0.14555391
891.971	0.1452051
892.144	0.14482411
892.317	0.14465689
892.49	0.1443199
892.663	0.14404929
892.836	0.14394189
893.009	0.14379021
893.182	0.14358996
893.355	0.14343289
893.527	0.14337312
893.7	0.1434519
893.873	0.14335026
894.046	0.14308644
894.219	0.14287001
894.391	0.14267263
894.564	0.14265062
894.737	0.14244431
894.91	0.14225138
895.082	0.14203162
895.255	0.14189283
895.428	0.14174598
895.6	0.14176802
895.773	0.14164488
895.945	0.14166284
896.118	0.14159367
896.291	0.14166252
896.463	0.14168646
896.636	0.1416549
896.808	0.14153237
896.981	0.1415367
897.153	0.14141315
897.326	0.14148542
897.498	0.14130537
897.67	0.14122398
897.843	0.14125965
898.015	0.14116659
898.187	0.14080257
898.36	0.14043381
898.532	0.13995944
898.704	0.13976359
898.877	0.13953418
899.049	0.13927049
899.221	0.13905514
899.393	0.13904863
899.566	0.13911498
899.738	0.13928145
899.91	0.1393036
900.082	0.13937925
900.254	0.13932357
900.426	0.13935863
900.598	0.13933101
900.77	0.13926443
900.942	0.13899844
901.114	0.13876683
901.286	0.138321
901.458	0.13797314
901.63	0.13761614
901.802	0.13733188
901.974	0.13710251
902.146	0.13696757
902.318	0.13687425
902.49	0.13683705
902.662	0.13684231
902.834	0.13681616
903.005	0.13675897
903.177	0.13661157
903.349	0.13649444
903.521	0.13619884
903.693	0.13607995
903.864	0.13597785
904.036	0.13595538
904.208	0.13578575
904.379	0.13570787
904.551	0.13564278
904.723	0.13543862
904.894	0.13523115
905.066	0.13496735
905.237	0.13455346
905.409	0.13419592
905.58	0.1338225
905.752	0.13353639
905.923	0.13352295
906.095	0.1334349
906.266	0.13336936
906.438	0.13339111
906.609	0.13355558
906.78	0.13363106
906.952	0.13363189
907.123	0.13349426
907.295	0.13341266
907.466	0.13332214
907.637	0.13317459
907.808	0.13287691
907.98	0.13263146
908.151	0.13228471
908.322	0.13218303
908.493	0.13211492
908.665	0.13199137
908.836	0.13195041
909.007	0.13198616
909.178	0.13196419
909.349	0.13199047
909.52	0.13207939
909.691	0.13185573
909.862	0.13160822
910.033	0.13138612
910.204	0.13119843
910.375	0.13109371
910.546	0.13100151
910.717	0.13048055
910.888	0.13028456
911.059	0.13023176
911.23	0.13009893
911.401	0.13001058
911.572	0.12992548
911.742	0.12973386
911.913	0.12986238
912.084	0.12987534
912.255	0.12963747
912.426	0.12942429
912.596	0.12917787
912.767	0.12907817
912.938	0.12895611
913.108	0.12899009
913.279	0.12888987
913.45	0.12895284
913.62	0.12904555
913.791	0.12907008
913.962	0.12893566
914.132	0.12894438
914.303	0.1286949
914.473	0.12848223
914.644	0.12823259
914.814	0.1279456
914.985	0.12757854
915.155	0.12731067
915.326	0.12701282
915.496	0.12677573
915.666	0.12654138
915.837	0.12638214
916.007	0.12608659
916.177	0.1259106
916.348	0.12574778
916.518	0.1256038
916.688	0.12543569
916.858	0.12542456
917.029	0.12532503
917.199	0.1252886
917.369	0.12536398
917.539	0.12537352
917.709	0.12534123
917.88	0.12516764
918.05	0.12488151
918.22	0.12464796
918.39	0.12439557
918.56	0.12406562
918.73	0.12387827
918.9	0.12366359
919.07	0.1235256
919.24	0.12352953
919.41	0.12347374
919.58	0.12353152
919.75	0.12341204
919.92	0.12314671
920.09	0.12302401
920.26	0.12289141
920.429	0.12286813
920.599	0.12275917
920.769	0.12261378
920.939	0.12260124
921.109	0.12259972
921.278	0.12247437
921.448	0.12235728
921.618	0.12198652
921.787	0.12170057
921.957	0.12148642
922.127	0.12107565
922.296	0.12093185
922.466	0.12069248
922.636	0.12050799
922.805	0.12032402
922.975	0.12001034
923.144	0.11962021
923.314	0.11937693
923.483	0.11871682
923.653	0.11807428
923.822	0.11750593
923.992	0.11715359
924.161	0.11710847
924.331	0.11691571
924.5	0.11669614
924.669	0.1167756
924.839	0.11688927
925.008	0.11699664
925.177	0.11687763
925.347	0.11668355
925.516	0.11661173
925.685	0.1166542
925.854	0.11654391
926.023	0.11661164
926.193	0.11673379
926.362	0.11672051
926.531	0.11669818
926.7	0.1166174
926.869	0.11654329
927.038	0.11640017
927.207	0.11622282
927.376	0.11595561
927.545	0.11585865
927.715	0.11574699
927.884	0.115706
928.052	0.115778
928.221	0.11556087
928.39	0.11542155
928.559	0.11539451
928.728	0.11537849
928.897	0.11526387
929.066	0.11508864
929.235	0.11470728
929.404	0.11465858
929.572	0.11452439
929.741	0.11417227
929.91	0.11386488
930.079	0.11360839
930.247	0.11350751
930.416	0.113536
930.585	0.1135356
930.753	0.11346954
930.922	0.11344097
931.091	0.11343371
931.259	0.11332126
931.428	0.11322077
931.596	0.11310273
931.765	0.11312216
931.934	0.1130435
932.102	0.11284843
932.27	0.11271808
932.439	0.11274047
932.607	0.11257106
932.776	0.1125291
932.944	0.11221536
933.113	0.11205311
933.281	0.11206279
933.449	0.11185514
933.618	0.1117026
933.786	0.11171316
933.954	0.11147138
934.123	0.11132485
934.291	0.11116518
934.459	0.11097943
934.627	0.1108483
934.795	0.11059533
934.964	0.11032178
935.132	0.1102478
935.3	0.11017846
935.468	0.11009397
935.636	0.11004363
935.804	0.10995454
935.972	0.11005439
936.14	0.11010515
936.308	0.10986794
936.476	0.11009062
936.644	0.11017311
936.812	0.11034618
936.98	0.11051763
937.148	0.11070174
937.316	0.11086814
937.484	0.11141858
937.652	0.1112569
937.82	0.11149571
937.987	0.11154117
938.155	0.1116167
938.323	0.11170135
938.491	0.11174626
938.658	0.11166723
938.826	0.11193092
938.994	0.11205792
939.162	0.11188679
939.329	0.11205611
939.497	0.11244449
939.665	0.11222025
939.832	0.1125351
940	0.11226777
940.167	0.11215414
940.335	0.11202377
940.502	0.11187193
940.67	0.11176611
940.837	0.11235651
941.005	0.11233486
941.172	0.11330306
941.34	0.11352302
941.507	0.11455564
941.674	0.1151817
941.842	0.115175
942.009	0.11536993
942.177	0.11475903
942.344	0.11432939
942.511	0.11463274
942.678	0.11514393
942.846	0.11456371
943.013	0.11515359
943.18	0.11524211
943.347	0.11638709
943.514	0.11656296
943.682	0.11711428
943.849	0.11598876
944.016	0.11583708
944.183	0.11570058
944.35	0.11559932
944.517	0.11617852
944.684	0.11642756
944.851	0.11430323
945.018	0.11484053
945.185	0.11450253
945.352	0.11345922
945.519	0.11316947
945.686	0.11186192
945.853	0.11170099
946.02	0.11194035
946.187	0.11125759
946.353	0.11190196
946.52	0.11161634
946.687	0.11056689
946.854	0.11086815
947.021	0.10985994
947.187	0.11002872
947.354	0.10901918
947.521	0.10871488
947.687	0.10857759
947.854	0.1084592
948.021	0.10693799
948.187	0.10639602
948.354	0.10562791
948.52	0.10571508
948.687	0.10562576
948.854	0.10566789
949.02	0.10495263
949.187	0.10504551
949.353	0.10470338
949.52	0.10402255
949.686	0.10321649
949.852	0.10277076
950.019	0.10190995
950.185	0.10168758
950.352	0.10087251
950.518	0.10064063
950.684	0.10089436
950.851	0.10068894
951.017	0.0997962
951.183	0.09989047
951.349	0.09961046
951.516	0.09925409
951.682	0.09883133
951.848	0.09773731
952.014	0.09687393
952.18	0.09644743
952.346	0.09562615
952.512	0.09525854
952.679	0.09499806
952.845	0.09494346
953.011	0.09494335
953.177	0.09515395
953.343	0.09509774
953.509	0.09511567
953.675	0.09518477
953.841	0.09547555
954.007	0.09499053
954.172	0.0948817
954.338	0.09416667
954.504	0.0931453
954.67	0.09246387
954.836	0.09206045
955.002	0.09124928
955.167	0.09093166
955.333	0.0904309
955.499	0.09038523
955.665	0.09070188
955.83	0.09017776
955.996	0.0897412
956.162	0.08902557
956.327	0.08854759
956.493	0.08816265
956.659	0.08801863
956.824	0.08767867
956.99	0.08742264
957.155	0.08726961
957.321	0.08712608
957.486	0.08664563
957.652	0.08626586
957.817	0.08613394
957.983	0.08538102
958.148	0.08547767
958.314	0.08474575
958.479	0.08495562
958.644	0.0850178
958.81	0.08526175
958.975	0.08480559
959.14	0.08505506
959.306	0.08469104
959.471	0.08471294
959.636	0.08414747
959.801	0.08416508
959.967	0.08394057
960.132	0.08386954
960.297	0.08369454
960.462	0.0839053
960.627	0.08401105
960.792	0.08373236
960.957	0.08358529
961.123	0.08327136
961.288	0.08305384
961.453	0.08278352
961.618	0.08246144
961.783	0.08242722
961.948	0.08251715
962.113	0.08194733
962.277	0.08165002
962.442	0.08154497
962.607	0.08137682
962.772	0.08095184
962.937	0.08027808
963.102	0.07977996
963.267	0.07974847
963.431	0.07965994
963.596	0.0793738
963.761	0.07932699
963.926	0.07943918
964.09	0.07954351
964.255	0.07995492
964.42	0.07975799
964.584	0.0799209
964.749	0.07973986
964.914	0.07961664
965.078	0.0795225
965.243	0.07957162
965.407	0.07921458
965.572	0.07933605
965.736	0.07916104
965.901	0.07937753
966.065	0.07950619
966.23	0.07923561
966.394	0.07914548
966.559	0.07892271
966.723	0.07888145
966.887	0.07886809
967.052	0.07849024
967.216	0.0780465
967.38	0.07767484
967.545	0.07766088
967.709	0.07769895
967.873	0.07756173
968.037	0.07713162
968.202	0.07733555
968.366	0.07734714
968.53	0.07753054
968.694	0.0772349
968.858	0.07712197
969.022	0.07672654
969.187	0.07656075
969.351	0.07630086
969.515	0.07630469
969.679	0.07625438
969.843	0.07610098
970.007	0.07608246
970.171	0.07632408
970.335	0.07632266
970.499	0.07602201
970.662	0.07598998
970.826	0.07581292
970.99	0.07577675
971.154	0.07565718
971.318	0.07540944
971.482	0.07516582
971.645	0.07511122
971.809	0.07466773
971.973	0.07442723
972.137	0.07404455
972.3	0.07382539
972.464	0.0738714
972.628	0.07364661
972.791	0.07394249
972.955	0.07421372
973.119	0.07407824
973.282	0.07399655
973.446	0.07372723
973.609	0.07329206
973.773	0.07311294
973.936	0.07237947
974.1	0.07161964
974.263	0.07120669
974.427	0.07121014
974.59	0.07108594
974.754	0.0708195
974.917	0.07067586
975.08	0.0705711
975.244	0.0706405
975.407	0.07097004
975.57	0.07043335
975.734	0.07024802
975.897	0.07028369
976.06	0.07028243
976.223	0.07029705
976.387	0.07015529
976.55	0.06985582
976.713	0.07009729
976.876	0.07006395
977.039	0.06980301
977.202	0.06967921
977.365	0.06956104
977.528	0.06957745
977.692	0.06907888
977.855	0.0685238
978.018	0.06816583
978.181	0.06796313
978.344	0.0676187
978.506	0.06717885
978.669	0.06709462
978.832	0.06712567
978.995	0.0670676
979.158	0.06708915
979.321	0.06710047
979.484	0.06698097
979.646	0.06721599
979.809	0.06697883
979.972	0.06687992
980.135	0.06700275
980.297	0.06684873
980.46	0.06687592
980.623	0.06717301
980.786	0.06699583
980.948	0.06712595
981.111	0.0673563
981.273	0.06743718
981.436	0.06719995
981.599	0.06718909
981.761	0.06701088
981.924	0.06713685
982.086	0.06663237
982.249	0.06663544
982.411	0.06647989
982.573	0.06659076
982.736	0.06641204
982.898	0.0661335
983.061	0.06581636
983.223	0.06565184
983.385	0.06516907
983.548	0.06520445
983.71	0.0650251
983.872	0.06483408
984.034	0.06492791
984.197	0.06475127
984.359	0.06494992
984.521	0.0649226
984.683	0.06478693
984.845	0.06494946
985.008	0.06469703
985.17	0.06469633
985.332	0.06491695
985.494	0.06452286
985.656	0.06456828
985.818	0.06414872
985.98	0.06376285
986.142	0.06351184
986.304	0.06299195
986.466	0.06259897
986.628	0.0628099
986.79	0.06255799
986.952	0.06265949
987.113	0.06248956
987.275	0.0627989
987.437	0.06299286
987.599	0.06283823
987.761	0.06245121
987.922	0.06227681
988.084	0.06224824
988.246	0.06244325
988.408	0.06215082
988.569	0.06225416
988.731	0.06250345
988.893	0.06249725
989.054	0.0626462
989.216	0.06278334
989.377	0.06261865
989.539	0.06253301
989.701	0.06196432
989.862	0.06154507
990.024	0.06159477
990.185	0.06164625
990.347	0.06133895
990.508	0.06144772
990.669	0.06143427
990.831	0.06171153
990.992	0.06192612
991.154	0.06171367
991.315	0.06151856
991.476	0.06104434
991.638	0.06074687
991.799	0.06032949
991.96	0.05984668
992.121	0.06006741
992.283	0.06021108
992.444	0.06005456
992.605	0.0604721
992.766	0.06040312
992.927	0.06043406
993.088	0.06075062
993.249	0.06029297
993.41	0.05986532
993.572	0.05975049
993.733	0.05968968
993.894	0.05961366
994.055	0.05930721
994.216	0.05902721
994.376	0.05868966
994.537	0.0586364
994.698	0.05853519
994.859	0.0580486
995.02	0.05808502
995.181	0.05789021
995.342	0.05784469
995.503	0.05722844
995.663	0.05673552
995.824	0.05636768
995.985	0.0566138
996.146	0.0562957
996.306	0.05654046
996.467	0.05641912
996.628	0.05702968
996.788	0.05740491
996.949	0.05722773
997.11	0.05706403
997.27	0.05622514
997.431	0.05573558
997.591	0.05499888
997.752	0.05487652
997.912	0.05493731
998.073	0.05510246
998.233	0.0545634
998.394	0.0551324
998.554	0.05569874
998.714	0.05627583
998.875	0.05563512
999.035	0.05520277
999.196	0.05482219
999.356	0.05484294
999.516	0.05464672
999.676	0.05447387
999.837	0.0536274
999.997	0.05362833
1000.157	0.05384569
1000.317	0.05335214
1000.477	0.05290296
1000.638	0.05255612
1000.798	0.05222064
1000.958	0.05323226
1001.118	0.05365704
1001.278	0.05362828
1001.438	0.05393383
1001.598	0.05432463
1001.758	0.05487967
1001.918	0.05483666
1002.078	0.05402076
1002.238	0.05377055
1002.398	0.05348929
1002.558	0.05356983
1002.718	0.05382271
1002.878	0.05365876
1003.037	0.05324352
1003.197	0.05368606
1003.357	0.05387719
1003.517	0.05392624
1003.677	0.05364543
1003.836	0.05320703
1003.996	0.05304687
1004.156	0.05333859
1004.315	0.05263044
1004.475	0.05189301
1004.635	0.05153243
1004.794	0.05152756
1004.954	0.05138548
1005.114	0.05114491
1005.273	0.05123116
1005.433	0.05171505
1005.592	0.05230394
1005.752	0.05197228
1005.911	0.05195554
1006.071	0.05177575
1006.23	0.05144666
1006.389	0.05117392
1006.549	0.05073538
1006.708	0.05011112
1006.868	0.05019264
1007.027	0.05042939
1007.186	0.05031363
1007.345	0.05111886
1007.505	0.05106052
1007.664	0.05122573
1007.823	0.05173066
1007.982	0.05190537
1008.142	0.05128483
1008.301	0.0516907
1008.46	0.0506273
1008.619	0.05057595
1008.778	0.05092691
1008.937	0.05062875
1009.096	0.05093461
1009.255	0.05191691
1009.414	0.05127309
1009.573	0.05156399
1009.732	0.05204432
1009.891	0.05143725
1010.05	0.05147837
1010.209	0.05135792
1010.368	0.05061153
1010.527	0.05152979
1010.686	0.05171564
1010.845	0.05138418
1011.003	0.05164459
1011.162	0.0512179
1011.321	0.05114586
1011.48	0.05149252
1011.638	0.05114607
1011.797	0.05204632
1011.956	0.05179931
1012.115	0.05207125
1012.273	0.05240037
1012.432	0.05217779
1012.59	0.05201986
1012.749	0.05157631
1012.908	0.0503852
1013.066	0.05047553
1013.225	0.04991793
1013.383	0.05037123
1013.542	0.05028814
1013.7	0.05011265
1013.859	0.05073033
1014.017	0.05166763
1014.175	0.05093863
1014.334	0.05166783
1014.492	0.05107519
1014.65	0.05140735
1014.809	0.05152939
1014.967	0.05059602
1015.125	0.04958116
1015.284	0.05084072
1015.442	0.04936846
1015.6	0.04892834
1015.758	0.04930492
1015.916	0.04988846
1016.075	0.04959745
1016.233	0.05036111
1016.391	0.04984672
1016.549	0.05046429
1016.707	0.05174946
1016.865	0.0518215
1017.023	0.05142475
1017.181	0.05167065
1017.339	0.05061182
1017.497	0.05093328
1017.655	0.05136071
1017.813	0.05161969
1017.971	0.05089406
1018.129	0.05071348
1018.286	0.05137622
1018.444	0.05059641
1018.602	0.05056182
1018.76	0.050509
1018.918	0.04986419
1019.075	0.04991144
1019.233	0.05001042
1019.391	0.04962438
1019.549	0.05202329
1019.706	0.0517941
1019.864	0.0520385
1020.022	0.05176411
1020.179	0.05382378
1020.337	0.05535319
1020.494	0.05648289
1020.652	0.0556862
1020.809	0.05648368
1020.967	0.05619025
1021.124	0.05713539
1021.282	0.05650262
1021.439	0.05512007
1021.597	0.05503167
1021.754	0.05549632
1021.911	0.05566423
1022.069	0.05476909
1022.226	0.05394254
1022.384	0.05423005
1022.541	0.05388464
1022.698	0.05529499
1022.855	0.0549457
1023.013	0.05421587
1023.17	0.05497338
1023.327	0.05605679
1023.484	0.05601623
1023.641	0.05693544
1023.798	0.05563048
1023.956	0.05697917
1024.113	0.05718998
1024.27	0.05762814
1024.427	0.05662493
1024.584	0.05661868
1024.741	0.05613021
1024.898	0.0549858
1025.055	0.054372
1025.212	0.05345522
1025.369	0.05342791
1025.525	0.05298214
1025.682	0.05273952
1025.839	0.0534348
1025.996	0.05576921
1026.153	0.05536013
1026.31	0.05849814
1026.466	0.05847016
1026.623	0.05945117
1026.78	0.05966803
1026.937	0.06106666
1027.093	0.05844769
1027.25	0.05912225
1027.407	0.05895763
1027.563	0.06065057
1027.72	0.06109475
1027.876	0.05858992
1028.033	0.05836056
1028.19	0.06021793
1028.346	0.05803503
1028.503	0.0570103
1028.659	0.05775608
1028.816	0.05679747
1028.972	0.05992101
1029.128	0.05907572
1029.285	0.05707621
1029.441	0.05848646
1029.598	0.05920073
1029.754	0.0602226
1029.91	0.06207002
1030.067	0.0611494
1030.223	0.06096607
1030.379	0.06170287
1030.535	0.06414432
1030.691	0.06200168
1030.848	0.05840394
1031.004	0.05638237
1031.16	0.05609912
1031.316	0.05760291
1031.472	0.06036856
1031.628	0.05874459
1031.784	0.06296489
1031.94	0.06611358
1032.096	0.06770119
1032.252	0.06994511
1032.408	0.0682908
1032.564	0.06567768
1032.72	0.07038188
1032.876	0.06600732
1033.032	0.06727571
1033.188	0.0696516
1033.344	0.06780123
1033.5	0.06838085
1033.655	0.07101378
1033.811	0.06726325
1033.967	0.07202085
