Data from 0_1_mm_pl_70pc_Absorbance__0__18-13-08-965.txt Node

Date: Wed Mar 01 18:13:08 CET 2023
User: Ange
Spectrometer: FLMT08341
Trigger mode: 0
Integration Time (sec): 1.000000E-2
Scans to average: 400
Electric dark correction enabled: true
Nonlinearity correction enabled: false
Boxcar width: 3
XAxis mode: Wavelengths
Number of Pixels in Spectrum: 3648
>>>>>Begin Spectral Data<<<<<
345.271	-0.0004102
345.487	-0.00169999
345.704	0.00134546
345.921	0.00715766
346.137	-0.00088251
346.354	-0.00099233
346.571	0.03184027
346.787	0.04353887
347.004	-0.03937721
347.22	0.02772597
347.437	0.02108095
347.653	-0.04496456
347.87	0.18336155
348.086	-1.07351606
348.303	0.51047719
348.519	0.05333891
348.736	0.04837308
348.952	0.04432847
349.169	0.04889322
349.385	0.05032676
349.601	0.05114675
349.818	0.04996127
350.034	0.04862418
350.251	0.0488339
350.467	0.0489641
350.683	0.04439907
350.9	0.04357568
351.116	0.04204653
351.332	0.04220237
351.549	0.04210771
351.765	0.0429545
351.981	0.04392588
352.197	0.04440995
352.414	0.04588172
352.63	0.04598416
352.846	0.0461653
353.062	0.04593625
353.278	0.0450382
353.495	0.04593057
353.711	0.04951187
353.927	0.04715492
354.143	0.04835724
354.359	0.04734245
354.575	0.04708008
354.792	0.04874679
355.008	0.04686167
355.224	0.04414792
355.44	0.0455824
355.656	0.04558527
355.872	0.04817419
356.088	0.04796195
356.304	0.04643689
356.52	0.04683623
356.736	0.04773779
356.952	0.04782453
357.168	0.04730263
357.384	0.04654724
357.6	0.04715464
357.816	0.04716107
358.032	0.04675436
358.248	0.04807161
358.464	0.04803166
358.679	0.04885454
358.895	0.04789907
359.111	0.04812542
359.327	0.04752205
359.543	0.0480053
359.759	0.04873222
359.974	0.04937243
360.19	0.04664059
360.406	0.0458002
360.622	0.0445965
360.838	0.04500824
361.053	0.04538359
361.269	0.04383949
361.485	0.04354279
361.701	0.04545552
361.916	0.04505248
362.132	0.04531114
362.348	0.04557982
362.563	0.04661541
362.779	0.04630631
362.995	0.04580496
363.21	0.04583393
363.426	0.04664768
363.641	0.04682955
363.857	0.04688324
364.073	0.04637175
364.288	0.04689947
364.504	0.0469925
364.719	0.04713499
364.935	0.04661706
365.15	0.04588646
365.366	0.04585796
365.581	0.04477987
365.797	0.04462923
366.012	0.04356074
366.228	0.04340728
366.443	0.04439125
366.658	0.04464267
366.874	0.0433386
367.089	0.04476486
367.305	0.04545177
367.52	0.0457894
367.735	0.04636144
367.951	0.04656888
368.166	0.04740596
368.381	0.04904535
368.597	0.04850722
368.812	0.04857454
369.027	0.04908168
369.243	0.04860091
369.458	0.04911568
369.673	0.04916336
369.888	0.04866243
370.104	0.04848959
370.319	0.04828738
370.534	0.04928855
370.749	0.04933189
370.964	0.04844811
371.179	0.04815125
371.395	0.04897401
371.61	0.04868818
371.825	0.04778424
372.04	0.04730774
372.255	0.04728637
372.47	0.04824594
372.685	0.0478639
372.9	0.04746712
373.115	0.04779103
373.33	0.04850926
373.545	0.04827371
373.76	0.04877082
373.975	0.04733535
374.19	0.04792854
374.405	0.04784839
374.62	0.04711235
374.835	0.04759519
375.05	0.04741513
375.265	0.0469368
375.48	0.04738748
375.695	0.04737595
375.91	0.04749752
376.125	0.04838917
376.339	0.04727821
376.554	0.0481452
376.769	0.04835115
376.984	0.04917104
377.199	0.05014277
377.414	0.05007461
377.628	0.050621
377.843	0.05146973
378.058	0.05065325
378.273	0.05031891
378.487	0.05018388
378.702	0.04951644
378.917	0.04927248
379.131	0.04909175
379.346	0.04891323
379.561	0.04927925
379.775	0.04996515
379.99	0.04977009
380.205	0.05000466
380.419	0.0498922
380.634	0.04908044
380.848	0.04898831
381.063	0.04933519
381.278	0.05001304
381.492	0.04947098
381.707	0.04955493
381.921	0.05050701
382.136	0.05190154
382.35	0.05213824
382.565	0.05192144
382.779	0.05154371
382.994	0.05266874
383.208	0.05263318
383.422	0.05254006
383.637	0.05162902
383.851	0.05170326
384.066	0.05135575
384.28	0.05147309
384.494	0.05077957
384.709	0.05062753
384.923	0.05073907
385.137	0.05078251
385.352	0.05127872
385.566	0.05154832
385.78	0.05155777
385.995	0.05180969
386.209	0.05186968
386.423	0.05182039
386.637	0.05251912
386.852	0.05227109
387.066	0.05250018
387.28	0.05262672
387.494	0.05335782
387.708	0.05342793
387.923	0.0535419
388.137	0.05386146
388.351	0.05447878
388.565	0.0549288
388.779	0.05472007
388.993	0.05518564
389.207	0.05548365
389.421	0.05509418
389.635	0.05468727
389.85	0.05426765
390.064	0.05425594
390.278	0.05446681
390.492	0.05365377
390.706	0.05377225
390.92	0.05421664
391.134	0.05398846
391.348	0.0543006
391.561	0.05407682
391.775	0.05363549
391.989	0.05400589
392.203	0.05416584
392.417	0.05436488
392.631	0.05488825
392.845	0.05470155
393.059	0.05495558
393.273	0.05519556
393.486	0.05441074
393.7	0.05437205
393.914	0.05416697
394.128	0.05380991
394.342	0.05395176
394.555	0.05369653
394.769	0.05374294
394.983	0.05412925
395.197	0.05388902
395.41	0.05413274
395.624	0.05439761
395.838	0.05428775
396.051	0.05459965
396.265	0.05483714
396.479	0.05555575
396.692	0.05554681
396.906	0.05608592
397.12	0.05578039
397.333	0.05563951
397.547	0.05585628
397.76	0.05582485
397.974	0.05546688
398.187	0.05607239
398.401	0.05576704
398.614	0.05648367
398.828	0.05681562
399.041	0.05689264
399.255	0.05723818
399.468	0.05755546
399.682	0.0572545
399.895	0.05717757
400.109	0.05707924
400.322	0.05719013
400.536	0.05629967
400.749	0.05614801
400.962	0.05616019
401.176	0.05613148
401.389	0.05634314
401.602	0.05572422
401.816	0.0556802
402.029	0.05634894
402.242	0.05644503
402.456	0.05646043
402.669	0.05624417
402.882	0.05605639
403.095	0.05637364
403.309	0.05645605
403.522	0.05644324
403.735	0.05632444
403.948	0.05603859
404.161	0.05638922
404.375	0.05611089
404.588	0.05601256
404.801	0.05586252
405.014	0.05591299
405.227	0.05602355
405.44	0.05638495
405.653	0.05657559
405.866	0.05699748
406.079	0.05700448
406.293	0.05713309
406.506	0.05719206
406.719	0.05725424
406.932	0.05701426
407.145	0.05685714
407.358	0.05682164
407.571	0.05674342
407.784	0.0567744
407.996	0.05687903
408.209	0.05636029
408.422	0.05635673
408.635	0.05630114
408.848	0.05613691
409.061	0.05589234
409.274	0.05569501
409.487	0.0556439
409.7	0.0561119
409.912	0.05636351
410.125	0.05632883
410.338	0.05631447
410.551	0.0564802
410.764	0.05663244
410.976	0.05638836
411.189	0.05597992
411.402	0.05551253
411.615	0.05512951
411.827	0.0550578
412.04	0.05486686
412.253	0.05460449
412.465	0.05447609
412.678	0.05445893
412.891	0.05456723
413.103	0.0545956
413.316	0.0545568
413.529	0.05460734
413.741	0.05463044
413.954	0.05481058
414.166	0.05498197
414.379	0.05478752
414.591	0.05492908
414.804	0.05489799
415.016	0.05481245
415.229	0.05453262
415.441	0.05427782
415.654	0.05421693
415.866	0.05430348
416.079	0.05403564
416.291	0.05367939
416.504	0.05370904
416.716	0.05356267
416.928	0.05330753
417.141	0.05326244
417.353	0.05319189
417.566	0.05326841
417.778	0.05337682
417.99	0.05338926
418.203	0.0533778
418.415	0.0532948
418.627	0.05287168
418.839	0.0527306
419.052	0.05277082
419.264	0.05278153
419.476	0.05279601
419.688	0.05275352
419.901	0.05269625
420.113	0.05284551
420.325	0.05249943
420.537	0.05221215
420.749	0.05173557
420.961	0.0515321
421.174	0.05141071
421.386	0.05117063
421.598	0.05077063
421.81	0.05072921
422.022	0.05038023
422.234	0.05034128
422.446	0.05021442
422.658	0.05006689
422.87	0.04997492
423.082	0.05005583
423.294	0.04997081
423.506	0.0499825
423.718	0.04989666
423.93	0.04960068
424.142	0.04933293
424.354	0.04927463
424.566	0.04903379
424.778	0.04874415
424.99	0.04842834
425.202	0.04810436
425.414	0.04792661
425.625	0.04794866
425.837	0.04786977
426.049	0.04778403
426.261	0.04770109
426.473	0.04774843
426.684	0.04770127
426.896	0.04741338
427.108	0.04719622
427.32	0.04696199
427.531	0.0467621
427.743	0.04675698
427.955	0.04676807
428.167	0.04674946
428.378	0.04671999
428.59	0.04661122
428.802	0.04650215
429.013	0.04645883
429.225	0.0460721
429.436	0.04561558
429.648	0.04538458
429.86	0.04527439
430.071	0.04498092
430.283	0.04487178
430.494	0.04447629
430.706	0.04430488
430.917	0.04411466
431.129	0.0439144
431.34	0.04366962
431.552	0.04349102
431.763	0.04323585
431.975	0.04278529
432.186	0.04259068
432.398	0.0426143
432.609	0.04232753
432.821	0.04225573
433.032	0.04199884
433.243	0.04175435
433.455	0.04185749
433.666	0.04176066
433.877	0.04148629
434.089	0.04141721
434.3	0.04114808
434.511	0.04117642
434.723	0.04085284
434.934	0.04073235
435.145	0.04044134
435.356	0.0401815
435.568	0.04014251
435.779	0.04003313
435.99	0.03984182
436.201	0.04001828
436.412	0.0397676
436.624	0.03972833
436.835	0.03968148
437.046	0.03955104
437.257	0.03922257
437.468	0.03902126
437.679	0.03850133
437.89	0.03819407
438.101	0.03790643
438.312	0.03757717
438.523	0.0371031
438.734	0.03699152
438.945	0.03668583
439.156	0.03663585
439.367	0.03668338
439.578	0.03646966
439.789	0.03629581
440	0.0360259
440.211	0.03572847
440.422	0.03541704
440.633	0.03516993
440.844	0.03457482
441.055	0.03439218
441.266	0.03411455
441.477	0.03398206
441.687	0.03377725
441.898	0.03359986
442.109	0.03326746
442.32	0.03316327
442.531	0.03292526
442.741	0.03277794
442.952	0.03251706
443.163	0.03228175
443.374	0.03207608
443.584	0.03200009
443.795	0.03172328
444.006	0.03143661
444.216	0.0311149
444.427	0.03089417
444.638	0.03085472
444.848	0.03069347
445.059	0.03049234
445.27	0.03044007
445.48	0.03034057
445.691	0.0302709
445.901	0.03016066
446.112	0.02980857
446.323	0.02955749
446.533	0.02923945
446.744	0.02908903
446.954	0.02887711
447.165	0.02863709
447.375	0.02835769
447.586	0.02817222
447.796	0.02800559
448.006	0.02775035
448.217	0.02768295
448.427	0.02747502
448.638	0.0273883
448.848	0.02719789
449.058	0.02706945
449.269	0.02688003
449.479	0.02678313
449.689	0.02636999
449.9	0.02614781
450.11	0.02581111
450.32	0.02566512
450.531	0.02538719
450.741	0.02522731
450.951	0.02509137
451.161	0.02493948
451.372	0.02469691
451.582	0.02453279
451.792	0.02438427
452.002	0.02423475
452.212	0.02408581
452.422	0.02388783
452.633	0.0236674
452.843	0.02358855
453.053	0.02341727
453.263	0.02322679
453.473	0.02300192
453.683	0.02285152
453.893	0.02261478
454.103	0.02243979
454.313	0.0223006
454.523	0.02208107
454.733	0.02186263
454.943	0.02175162
455.153	0.02157625
455.363	0.02147061
455.573	0.02137016
455.783	0.02115177
455.993	0.02098146
456.203	0.02085603
456.413	0.02068454
456.623	0.02047288
456.833	0.02031206
457.042	0.02008577
457.252	0.0199876
457.462	0.01985638
457.672	0.01962709
457.882	0.01951093
458.091	0.01932975
458.301	0.01908504
458.511	0.01904283
458.721	0.0189458
458.931	0.01872337
459.14	0.01862613
459.35	0.01861984
459.56	0.01848341
459.769	0.01838659
459.979	0.01820797
460.189	0.0179677
460.398	0.01787091
460.608	0.01781776
460.817	0.0175851
461.027	0.01753356
461.237	0.01750269
461.446	0.01734754
461.656	0.01726456
461.865	0.01712226
462.075	0.01693948
462.284	0.01667679
462.494	0.01656367
462.703	0.01635558
462.913	0.01620453
463.122	0.01617786
463.332	0.01618017
463.541	0.01603832
463.751	0.01593775
463.96	0.01569244
464.169	0.01557189
464.379	0.01553263
464.588	0.01536499
464.797	0.01520811
465.007	0.01514063
465.216	0.01510632
465.425	0.01507909
465.635	0.01486092
465.844	0.01472632
466.053	0.01449388
466.263	0.01432085
466.472	0.01414178
466.681	0.01402592
466.89	0.01403329
467.099	0.01405181
467.309	0.01393012
467.518	0.01389153
467.727	0.01389763
467.936	0.01388987
468.145	0.01376419
468.354	0.01354693
468.563	0.01345227
468.772	0.01331815
468.982	0.01319302
469.191	0.01301104
469.4	0.01286033
469.609	0.01278248
469.818	0.01266091
470.027	0.01259157
470.236	0.01255914
470.445	0.01250152
470.654	0.01240531
470.863	0.01235072
471.072	0.01228469
471.28	0.01231127
471.489	0.01222348
471.698	0.01219032
471.907	0.01208109
472.116	0.01209302
472.325	0.01199536
472.534	0.0118331
472.743	0.01168657
472.951	0.01165248
473.16	0.01159306
473.369	0.0115505
473.578	0.01148406
473.786	0.01143988
473.995	0.01150748
474.204	0.01146436
474.413	0.01140714
474.621	0.01131323
474.83	0.01129317
475.039	0.01121166
475.247	0.01120254
475.456	0.01111633
475.665	0.01104618
475.873	0.01099366
476.082	0.01099743
476.291	0.01101165
476.499	0.01101962
476.708	0.01092255
476.916	0.01088126
477.125	0.01079761
477.333	0.01071186
477.542	0.01063003
477.75	0.01053302
477.959	0.01048395
478.167	0.01041201
478.376	0.01042518
478.584	0.0104692
478.793	0.01037579
479.001	0.01039986
479.209	0.01043859
479.418	0.01037554
479.626	0.01037192
479.834	0.01029037
480.043	0.01023656
480.251	0.01029489
480.459	0.01020272
480.668	0.01010803
480.876	0.01010552
481.084	0.01007912
481.293	0.01006934
481.501	0.01013634
481.709	0.01017135
481.917	0.01013479
482.125	0.01012095
482.334	0.01012477
482.542	0.01017592
482.75	0.01014763
482.958	0.01003597
483.166	0.00993521
483.374	0.00994107
483.583	0.00985507
483.791	0.00978653
483.999	0.00964199
484.207	0.009683
484.415	0.0096769
484.623	0.00967223
484.831	0.00967632
485.039	0.00970896
485.247	0.00969678
485.455	0.00975795
485.663	0.00972144
485.871	0.00968653
486.079	0.00971569
486.287	0.0097178
486.495	0.00975601
486.702	0.00979976
486.91	0.00979395
487.118	0.0097288
487.326	0.00974369
487.534	0.00979006
487.742	0.00977848
487.95	0.0097776
488.157	0.00971025
488.365	0.00977845
488.573	0.00982948
488.781	0.00986607
488.988	0.00979305
489.196	0.00982315
489.404	0.00979325
489.612	0.00986702
489.819	0.00990748
490.027	0.00990619
490.235	0.0099307
490.442	0.00993592
490.65	0.00993615
490.857	0.00996757
491.065	0.00997817
491.273	0.00996122
491.48	0.01001951
491.688	0.01001075
491.895	0.01006983
492.103	0.01005841
492.31	0.01007669
492.518	0.01011456
492.725	0.010144
492.933	0.01013199
493.14	0.01017445
493.348	0.01016434
493.555	0.01024084
493.763	0.01028158
493.97	0.01029135
494.177	0.0102555
494.385	0.0102761
494.592	0.01022178
494.8	0.01024295
495.007	0.01021919
495.214	0.01026647
495.422	0.01030709
495.629	0.01032689
495.836	0.01037737
496.043	0.01050727
496.251	0.01056712
496.458	0.01065553
496.665	0.0106911
496.872	0.01070919
497.08	0.010762
497.287	0.01081936
497.494	0.01083641
497.701	0.01091724
497.908	0.01093828
498.115	0.01098604
498.322	0.01101205
498.53	0.01105811
498.737	0.0111115
498.944	0.01119648
499.151	0.01124914
499.358	0.01130103
499.565	0.01135187
499.772	0.01140196
499.979	0.0114762
500.186	0.01149675
500.393	0.01151327
500.6	0.0115228
500.807	0.01160805
501.014	0.01167271
501.221	0.01174062
501.427	0.01176576
501.634	0.01183062
501.841	0.01188701
502.048	0.01192517
502.255	0.01194125
502.462	0.01197319
502.669	0.01202176
502.875	0.0120618
503.082	0.01210746
503.289	0.0121619
503.496	0.01220967
503.702	0.01222412
503.909	0.01220831
504.116	0.01223516
504.323	0.01230012
504.529	0.01236351
504.736	0.01240329
504.943	0.01250754
505.149	0.01261025
505.356	0.01272589
505.563	0.012825
505.769	0.01290978
505.976	0.01295082
506.182	0.01301047
506.389	0.01308829
506.595	0.01315228
506.802	0.01319529
507.008	0.01325714
507.215	0.01332806
507.421	0.01342216
507.628	0.01350251
507.834	0.01348575
508.041	0.01350391
508.247	0.01358642
508.454	0.01362136
508.66	0.01368801
508.866	0.01371405
509.073	0.0137664
509.279	0.01385829
509.486	0.01392284
509.692	0.01398025
509.898	0.01408981
510.105	0.01418287
510.311	0.01431151
510.517	0.01442012
510.723	0.01452736
510.93	0.01462843
511.136	0.01475456
511.342	0.01480368
511.548	0.01486979
511.754	0.01493141
511.961	0.01496055
512.167	0.01501288
512.373	0.0150887
512.579	0.01515778
512.785	0.01525469
512.991	0.01529521
513.197	0.01537305
513.404	0.01547663
513.61	0.01559114
513.816	0.01574128
514.022	0.0158166
514.228	0.01588096
514.434	0.01595413
514.64	0.01604367
514.846	0.01612085
515.052	0.0161886
515.258	0.01623699
515.464	0.01629325
515.669	0.01639049
515.875	0.01649763
516.081	0.01656911
516.287	0.01667907
516.493	0.01676686
516.699	0.01685742
516.905	0.01694963
517.111	0.01699223
517.316	0.01709676
517.522	0.0171914
517.728	0.01722506
517.934	0.01728503
518.139	0.01737069
518.345	0.01746865
518.551	0.01759297
518.757	0.01770126
518.962	0.01776926
519.168	0.01787089
519.374	0.01796734
519.579	0.01803721
519.785	0.01816129
519.991	0.01830349
520.196	0.01839087
520.402	0.01852409
520.607	0.01868722
520.813	0.01885591
521.018	0.0189781
521.224	0.01908701
521.429	0.01917128
521.635	0.01931826
521.84	0.0193868
522.046	0.01948671
522.251	0.0196004
522.457	0.01968446
522.662	0.01973864
522.868	0.01985732
523.073	0.01994042
523.279	0.02008464
523.484	0.02016957
523.689	0.02027055
523.895	0.02042758
524.1	0.0206219
524.305	0.02079636
524.511	0.02086575
524.716	0.02097495
524.921	0.02112471
525.126	0.02123159
525.332	0.0212933
525.537	0.02136643
525.742	0.02145773
525.947	0.02160789
526.153	0.02171058
526.358	0.02181218
526.563	0.02192382
526.768	0.02207924
526.973	0.02219917
527.178	0.02229924
527.383	0.02242139
527.588	0.02254098
527.794	0.02264527
527.999	0.02279043
528.204	0.02293104
528.409	0.02305843
528.614	0.02316783
528.819	0.02329494
529.024	0.02342877
529.229	0.02359281
529.434	0.02367643
529.639	0.0238256
529.843	0.02396357
530.048	0.02406184
530.253	0.02422189
530.458	0.02437217
530.663	0.02453313
530.868	0.02473539
531.073	0.02488183
531.278	0.02505011
531.482	0.02524806
531.687	0.02532964
531.892	0.02547662
532.097	0.02560882
532.302	0.0257166
532.506	0.02580932
532.711	0.02589708
532.916	0.02603745
533.12	0.02620821
533.325	0.02632477
533.53	0.02646342
533.734	0.02662974
533.939	0.02679975
534.144	0.02698042
534.348	0.02710307
534.553	0.02728122
534.757	0.02746616
534.962	0.02758021
535.167	0.02770818
535.371	0.02784148
535.576	0.02799358
535.78	0.02817277
535.985	0.02829677
536.189	0.02844022
536.394	0.02864176
536.598	0.02879902
536.803	0.02895877
537.007	0.02909856
537.211	0.02921213
537.416	0.02936034
537.62	0.02952863
537.825	0.02963666
538.029	0.02976148
538.233	0.02991844
538.438	0.03010983
538.642	0.03033883
538.846	0.03055025
539.05	0.030701
539.255	0.03093232
539.459	0.0311697
539.663	0.03135818
539.867	0.03151842
540.072	0.03163257
540.276	0.03178449
540.48	0.0319801
540.684	0.0321095
540.888	0.0322847
541.092	0.03246162
541.297	0.03265565
541.501	0.03285256
541.705	0.03301135
541.909	0.03314194
542.113	0.0333509
542.317	0.03349727
542.521	0.03367384
542.725	0.03381928
542.929	0.03397678
543.133	0.03415438
543.337	0.03436836
543.541	0.03451608
543.745	0.03471869
543.949	0.03491806
544.153	0.0350755
544.357	0.03528654
544.56	0.03550396
544.764	0.03573315
544.968	0.03591657
545.172	0.03611947
545.376	0.03630728
545.58	0.03653001
545.783	0.03676356
545.987	0.03692623
546.191	0.03705391
546.395	0.03729127
546.598	0.03745799
546.802	0.0376243
547.006	0.03779807
547.21	0.03796728
547.413	0.0382218
547.617	0.03846804
547.821	0.03864613
548.024	0.03884493
548.228	0.03900813
548.431	0.03921657
548.635	0.03938018
548.839	0.03952883
549.042	0.039717
549.246	0.0399177
549.449	0.04010804
549.653	0.04039764
549.856	0.0405972
550.06	0.04081941
550.263	0.04104856
550.467	0.04129039
550.67	0.04148995
550.874	0.04171711
551.077	0.04189835
551.28	0.04212462
551.484	0.04231965
551.687	0.04248818
551.891	0.0426335
552.094	0.04281477
552.297	0.04300803
552.501	0.0432417
552.704	0.04348378
552.907	0.0437218
553.11	0.04399202
553.314	0.04421844
553.517	0.04442615
553.72	0.04467556
553.923	0.04488263
554.127	0.04507481
554.33	0.04528276
554.533	0.04546944
554.736	0.04569513
554.939	0.04591785
555.142	0.04614752
555.345	0.04635766
555.549	0.04659318
555.752	0.04684178
555.955	0.04708112
556.158	0.04730468
556.361	0.04759869
556.564	0.04778397
556.767	0.04801806
556.97	0.04821754
557.173	0.04841806
557.376	0.04866632
557.579	0.04891729
557.782	0.0491244
557.984	0.04938694
558.187	0.04964994
558.39	0.04990026
558.593	0.0501848
558.796	0.05037618
558.999	0.05056852
559.202	0.05077868
559.404	0.05098643
559.607	0.05119954
559.81	0.05145288
560.013	0.05165014
560.216	0.05194953
560.418	0.05224761
560.621	0.05250584
560.824	0.05277962
561.026	0.0530215
561.229	0.05324347
561.432	0.05351273
561.634	0.05370664
561.837	0.05394637
562.04	0.05418014
562.242	0.05445269
562.445	0.05466446
562.647	0.05493955
562.85	0.05513936
563.053	0.05541632
563.255	0.05562162
563.458	0.05586458
563.66	0.05607394
563.863	0.05637216
564.065	0.05659879
564.268	0.05688791
564.47	0.05715261
564.672	0.05745013
564.875	0.05775693
565.077	0.05800413
565.28	0.05826281
565.482	0.05852452
565.684	0.05879295
565.887	0.05900229
566.089	0.05924264
566.291	0.05947499
566.494	0.0597191
566.696	0.05993289
566.898	0.06021983
567.1	0.06048432
567.303	0.06080192
567.505	0.06105055
567.707	0.06131233
567.909	0.06157302
568.111	0.06184164
568.314	0.06211303
568.516	0.06236064
568.718	0.06264126
568.92	0.06298337
569.122	0.06320111
569.324	0.06350166
569.526	0.06377107
569.728	0.06403639
569.93	0.06429403
570.132	0.06454321
570.334	0.0647731
570.536	0.06507431
570.738	0.06531117
570.94	0.06561611
571.142	0.06591567
571.344	0.06616836
571.546	0.06642429
571.748	0.06669742
571.95	0.06698744
572.152	0.06726136
572.354	0.06752926
572.555	0.06776477
572.757	0.06806346
572.959	0.06831918
573.161	0.06858316
573.363	0.0688072
573.564	0.06909857
573.766	0.06933807
573.968	0.06958891
574.17	0.0698279
574.371	0.07008067
574.573	0.07031979
574.775	0.07056189
574.976	0.07080332
575.178	0.07106408
575.38	0.07133191
575.581	0.07163346
575.783	0.07195192
575.985	0.07225919
576.186	0.07257231
576.388	0.0729121
576.589	0.07318989
576.791	0.07349363
576.992	0.07377001
577.194	0.0740422
577.395	0.07428835
577.597	0.07459646
577.798	0.07480716
578	0.07508144
578.201	0.07536198
578.402	0.07561392
578.604	0.07581995
578.805	0.07608423
579.007	0.07636245
579.208	0.07664364
579.409	0.07687318
579.611	0.07713182
579.812	0.07740161
580.013	0.07775563
580.215	0.07804659
580.416	0.07831783
580.617	0.07862833
580.818	0.0789743
581.019	0.07924871
581.221	0.0795406
581.422	0.07978341
581.623	0.08007256
581.824	0.08031802
582.025	0.08064267
582.226	0.08088625
582.428	0.08119607
582.629	0.08148139
582.83	0.08181377
583.031	0.0820998
583.232	0.08239853
583.433	0.08265778
583.634	0.08294929
583.835	0.08321009
584.036	0.0834723
584.237	0.08369404
584.438	0.08396426
584.639	0.08421571
584.84	0.08450982
585.041	0.08478882
585.242	0.0850485
585.442	0.08533099
585.643	0.08561443
585.844	0.08587383
586.045	0.08615015
586.246	0.08633773
586.447	0.08662087
586.647	0.08688178
586.848	0.08717565
587.049	0.08744376
587.25	0.08772552
587.45	0.08801238
587.651	0.08830804
587.852	0.08857602
588.053	0.08891947
588.253	0.08918147
588.454	0.08943612
588.655	0.08969186
588.855	0.08997734
589.056	0.09026936
589.256	0.09055331
589.457	0.09078899
589.658	0.091084
589.858	0.09142014
590.059	0.0917646
590.259	0.09205521
590.46	0.09234892
590.66	0.09263011
590.861	0.09292317
591.061	0.09317137
591.262	0.0934206
591.462	0.09366158
591.662	0.09390977
591.863	0.09415223
592.063	0.0943759
592.264	0.09464773
592.464	0.09492243
592.664	0.09520616
592.865	0.09553308
593.065	0.09577959
593.265	0.09609836
593.465	0.09640111
593.666	0.09665998
593.866	0.0969179
594.066	0.09719681
594.266	0.09734278
594.467	0.09766391
594.667	0.09783815
594.867	0.0981392
595.067	0.09834672
595.267	0.09859883
595.467	0.0988511
595.668	0.09915507
595.868	0.09943531
596.068	0.09976085
596.268	0.10000804
596.468	0.10033271
596.668	0.10060761
596.868	0.10087066
597.068	0.101135
597.268	0.10138655
597.468	0.10161719
597.668	0.10185522
597.868	0.10210274
598.068	0.10237682
598.268	0.10260672
598.467	0.10290632
598.667	0.10310615
598.867	0.10335457
599.067	0.10361635
599.267	0.10381004
599.467	0.10404541
599.667	0.10430932
599.866	0.1045285
600.066	0.10477437
600.266	0.10501044
600.466	0.1052643
600.665	0.10551074
600.865	0.10578761
601.065	0.10600369
601.264	0.10619535
601.464	0.10645198
601.664	0.10678164
601.863	0.10700249
602.063	0.10730406
602.263	0.10748513
602.462	0.10771351
602.662	0.10797352
602.861	0.10824742
603.061	0.10837956
603.26	0.10860579
603.46	0.10877339
603.659	0.1090787
603.859	0.10929435
604.058	0.10948941
604.258	0.10972256
604.457	0.11002587
604.657	0.11023101
604.856	0.11042219
605.056	0.11061711
605.255	0.11087349
605.454	0.11120023
605.654	0.11138164
605.853	0.11154332
606.052	0.1118074
606.252	0.1120862
606.451	0.11228325
606.65	0.11254837
606.849	0.11267088
607.049	0.11291583
607.248	0.11314333
607.447	0.11331959
607.646	0.11351148
607.845	0.11373939
608.045	0.11387848
608.244	0.11418405
608.443	0.11436094
608.642	0.11462256
608.841	0.11483952
609.04	0.11504209
609.239	0.11527282
609.438	0.11546121
609.637	0.11562114
609.836	0.11583087
610.035	0.1159738
610.234	0.11622764
610.433	0.11645431
610.632	0.11663193
610.831	0.11691056
611.03	0.11708875
611.229	0.11736635
611.428	0.11758911
611.627	0.11779473
611.826	0.11804987
612.025	0.11833541
612.224	0.11850075
612.422	0.11872834
612.621	0.11887415
612.82	0.11911679
613.019	0.11933513
613.218	0.1195511
613.416	0.11966399
613.615	0.11995038
613.814	0.12021269
614.012	0.120446
614.211	0.12061696
614.41	0.12080003
614.608	0.12097491
614.807	0.12117694
615.006	0.12137555
615.204	0.12151225
615.403	0.12174062
615.602	0.12194713
615.8	0.12221832
615.999	0.12235064
616.197	0.12262199
616.396	0.12281546
616.594	0.12295684
616.793	0.12313614
616.991	0.12334452
617.19	0.12336567
617.388	0.12363798
617.586	0.12378064
617.785	0.12389827
617.983	0.12410996
618.182	0.12426913
618.38	0.12438594
618.578	0.12465604
618.777	0.12484098
618.975	0.12499703
619.173	0.12519377
619.372	0.12539539
619.57	0.12554411
619.768	0.12576088
619.966	0.12594754
620.165	0.12604686
620.363	0.12628365
620.561	0.12640811
620.759	0.12660716
620.957	0.12682284
621.155	0.12700326
621.354	0.12709376
621.552	0.12734908
621.75	0.12744523
621.948	0.12769683
622.146	0.12786367
622.344	0.12801705
622.542	0.12817237
622.74	0.12839879
622.938	0.12848394
623.136	0.12868814
623.334	0.12886004
623.532	0.12896417
623.73	0.1290998
623.928	0.12930605
624.126	0.1294714
624.324	0.12969616
624.522	0.12981133
624.719	0.12993453
624.917	0.13014785
625.115	0.13031119
625.313	0.13046958
625.511	0.13063236
625.708	0.13067578
625.906	0.13085336
626.104	0.13096018
626.302	0.13113955
626.499	0.13128854
626.697	0.1313941
626.895	0.13150349
627.093	0.13170053
627.29	0.13188602
627.488	0.1320685
627.686	0.1322139
627.883	0.13230974
628.081	0.13240718
628.278	0.13269594
628.476	0.13281669
628.673	0.13291861
628.871	0.13308255
629.068	0.133184
629.266	0.13337684
629.463	0.13350276
629.661	0.13352792
629.858	0.13367195
630.056	0.13380998
630.253	0.13390147
630.451	0.1340294
630.648	0.134142
630.845	0.1343338
631.043	0.13448206
631.24	0.13468422
631.438	0.13482307
631.635	0.13498593
631.832	0.13507622
632.029	0.13520525
632.227	0.1353662
632.424	0.1355124
632.621	0.1355877
632.818	0.13570052
633.016	0.13583867
633.213	0.13594308
633.41	0.13611437
633.607	0.13618373
633.804	0.13626169
634.001	0.13634784
634.199	0.1364925
634.396	0.13658486
634.593	0.13673265
634.79	0.13686047
634.987	0.13701205
635.184	0.1371713
635.381	0.13736383
635.578	0.13753412
635.775	0.13768096
635.972	0.13785033
636.169	0.13795054
636.366	0.13804896
636.563	0.13812336
636.76	0.13819336
636.957	0.13825687
637.153	0.13830465
637.35	0.13839919
637.547	0.13847979
637.744	0.13858895
637.941	0.13875064
638.138	0.13892574
638.334	0.1390499
638.531	0.13922309
638.728	0.13933351
638.925	0.13954753
639.121	0.13966731
639.318	0.13975044
639.515	0.13982307
639.711	0.13992889
639.908	0.13997758
640.105	0.14008479
640.301	0.14012611
640.498	0.14019322
640.695	0.14032156
640.891	0.14040321
641.088	0.14048164
641.284	0.1406257
641.481	0.14070495
641.677	0.14079089
641.874	0.14091877
642.07	0.14102984
642.267	0.14118542
642.463	0.14130657
642.66	0.14143215
642.856	0.14154071
643.053	0.14155663
643.249	0.14167306
643.445	0.14175434
643.642	0.1417947
643.838	0.14192118
644.034	0.14201054
644.231	0.14209711
644.427	0.14226645
644.623	0.14235835
644.82	0.14246381
645.016	0.14258748
645.212	0.14259704
645.408	0.14269036
645.604	0.14289876
645.801	0.1430308
645.997	0.14313201
646.193	0.14316732
646.389	0.14329176
646.585	0.14340999
646.781	0.14352237
646.977	0.14356451
647.173	0.14360829
647.37	0.14366992
647.566	0.14381475
647.762	0.14385745
647.958	0.14400974
648.154	0.14402891
648.35	0.14408372
648.546	0.14419128
648.742	0.14438042
648.937	0.14438319
649.133	0.14450438
649.329	0.14462976
649.525	0.14476818
649.721	0.14490461
649.917	0.14507888
650.113	0.14506305
650.309	0.14528939
650.504	0.14533898
650.7	0.14533861
650.896	0.14549331
651.092	0.14554299
651.287	0.14557417
651.483	0.14574334
651.679	0.14576416
651.875	0.14591235
652.07	0.14596073
652.266	0.14598666
652.462	0.1460537
652.657	0.14612213
652.853	0.1461498
653.048	0.14625798
653.244	0.14626577
653.44	0.14638262
653.635	0.14643121
653.831	0.14657231
654.026	0.14668821
654.222	0.14677851
654.417	0.14690181
654.613	0.14702732
654.808	0.1471395
655.004	0.14725562
655.199	0.14729643
655.394	0.14735636
655.59	0.14749707
655.785	0.14747761
655.98	0.14763284
656.176	0.14769823
656.371	0.14784852
656.566	0.14798702
656.762	0.14802821
656.957	0.148102
657.152	0.14824226
657.348	0.14829
657.543	0.14841883
657.738	0.14848904
657.933	0.14850894
658.128	0.14860556
658.324	0.14860421
658.519	0.14867013
658.714	0.14873371
658.909	0.14880738
659.104	0.14887049
659.299	0.14896855
659.494	0.14907345
659.689	0.1492369
659.884	0.14934409
660.079	0.14940749
660.274	0.14950718
660.469	0.14960296
660.664	0.14973331
660.859	0.14983529
661.054	0.14991334
661.249	0.15001714
661.444	0.15011714
661.639	0.15015169
661.834	0.15018162
662.029	0.15025748
662.224	0.15030187
662.418	0.15038883
662.613	0.15046828
662.808	0.15052013
663.003	0.15060202
663.198	0.15072837
663.392	0.15077365
663.587	0.15097549
663.782	0.15102021
663.977	0.1510902
664.171	0.15120855
664.366	0.15133928
664.561	0.15144483
664.755	0.151614
664.95	0.15162739
665.144	0.15175051
665.339	0.15186797
665.534	0.15197447
665.728	0.15209263
665.923	0.15214934
666.117	0.15219975
666.312	0.15228719
666.506	0.15243887
666.701	0.15250057
666.895	0.15256143
667.09	0.15258217
667.284	0.15273968
667.479	0.15282808
667.673	0.15291167
667.867	0.15298913
668.062	0.15308477
668.256	0.15322266
668.45	0.1533843
668.645	0.15346256
668.839	0.15358517
669.033	0.15374209
669.228	0.15378978
669.422	0.15389757
669.616	0.15396453
669.81	0.15409356
670.004	0.15413445
670.199	0.15419157
670.393	0.15422656
670.587	0.15433111
670.781	0.15443581
670.975	0.15457428
671.169	0.15458255
671.363	0.15466966
671.558	0.15474689
671.752	0.15490419
671.946	0.15505426
672.14	0.15517271
672.334	0.15521695
672.528	0.15542313
672.722	0.15553552
672.916	0.15573231
673.11	0.15577279
673.304	0.15590262
673.497	0.15595065
673.691	0.15614481
673.885	0.15622628
674.079	0.15643364
674.273	0.15647037
674.467	0.15666536
674.661	0.15670835
674.854	0.15688167
675.048	0.15697823
675.242	0.15707322
675.436	0.15710878
675.629	0.15726464
675.823	0.1572737
676.017	0.15739503
676.211	0.15744665
676.404	0.15753289
676.598	0.15758632
676.792	0.15771152
676.985	0.1578345
677.179	0.15795716
677.372	0.15803768
677.566	0.15824243
677.76	0.15836159
677.953	0.15851377
678.147	0.15864903
678.34	0.15879462
678.534	0.15891723
678.727	0.159098
678.921	0.15918694
679.114	0.15929425
679.307	0.15944782
679.501	0.15956712
679.694	0.15963759
679.888	0.15982517
680.081	0.15994198
680.274	0.16003994
680.468	0.16019791
680.661	0.16030269
680.854	0.16046226
681.048	0.1605878
681.241	0.16073061
681.434	0.16080977
681.627	0.16094122
681.821	0.16108369
682.014	0.16128332
682.207	0.16133813
682.4	0.16142381
682.593	0.16151345
682.786	0.16165602
682.98	0.16177545
683.173	0.16191736
683.366	0.16197348
683.559	0.16209766
683.752	0.16225657
683.945	0.16236701
684.138	0.16253978
684.331	0.16262861
684.524	0.16273041
684.717	0.16281124
684.91	0.16298423
685.103	0.16311224
685.296	0.16327853
685.489	0.16337018
685.682	0.16353851
685.874	0.16369031
686.067	0.16385074
686.26	0.16400857
686.453	0.16410943
686.646	0.16418208
686.839	0.16432922
687.031	0.16446565
687.224	0.16454372
687.417	0.16473296
687.61	0.16482199
687.802	0.16498236
687.995	0.16515186
688.188	0.16530521
688.38	0.16541216
688.573	0.16560969
688.766	0.16569914
688.958	0.16586056
689.151	0.1660021
689.343	0.16616715
689.536	0.16623729
689.729	0.1664296
689.921	0.16653231
690.114	0.16665552
690.306	0.166764
690.499	0.16686979
690.691	0.16702213
690.884	0.16721262
691.076	0.16735
691.268	0.16746506
691.461	0.16758665
691.653	0.16775244
691.846	0.16792994
692.038	0.16802573
692.23	0.16815298
692.423	0.16826562
692.615	0.16844623
692.807	0.16863915
692.999	0.16877134
693.192	0.1689267
693.384	0.16908553
693.576	0.16917491
693.768	0.16938561
693.961	0.16948762
694.153	0.16966563
694.345	0.16984653
694.537	0.17000528
694.729	0.17017313
694.921	0.17034119
695.113	0.17047155
695.305	0.170615
695.498	0.17066745
695.69	0.17081238
695.882	0.17096747
696.074	0.1711389
696.266	0.17131737
696.458	0.17142765
696.65	0.17161075
696.842	0.17182598
697.033	0.17193976
697.225	0.17207342
697.417	0.17223837
697.609	0.17241003
697.801	0.1725714
697.993	0.17279046
698.185	0.17298524
698.376	0.17314921
698.568	0.17332614
698.76	0.17349101
698.952	0.17365331
699.144	0.17380421
699.335	0.17389088
699.527	0.1739884
699.719	0.17415407
699.91	0.17435552
700.102	0.1744252
700.294	0.17461168
700.485	0.1748258
700.677	0.17502376
700.869	0.17521335
701.06	0.17539996
701.252	0.17552001
701.443	0.17574166
701.635	0.17588968
701.826	0.17600465
702.018	0.17616813
702.209	0.17632158
702.401	0.17645406
702.592	0.17662076
702.784	0.17679292
702.975	0.17696589
703.166	0.1771378
703.358	0.17725955
703.549	0.17743829
703.741	0.17763335
703.932	0.17775072
704.123	0.17786919
704.315	0.17800919
704.506	0.17824895
704.697	0.1784231
704.888	0.17862359
705.08	0.17881726
705.271	0.17903505
705.462	0.17920627
705.653	0.1793964
705.844	0.17948167
706.035	0.17966314
706.227	0.17980658
706.418	0.17991592
706.609	0.18005495
706.8	0.18025346
706.991	0.18041569
707.182	0.18063493
707.373	0.18079064
707.564	0.18092754
707.755	0.18107063
707.946	0.18120038
708.137	0.18131043
708.328	0.181431
708.519	0.18158924
708.71	0.18180157
708.901	0.18198443
709.092	0.18217988
709.283	0.18240138
709.473	0.18262231
709.664	0.18283643
709.855	0.18297565
710.046	0.18313272
710.237	0.18330321
710.427	0.18346446
710.618	0.18363304
710.809	0.18379159
711	0.18396334
711.19	0.18412793
711.381	0.18428385
711.572	0.18446187
711.762	0.18469036
711.953	0.18483305
712.144	0.18496804
712.334	0.18511083
712.525	0.18534282
712.715	0.18551226
712.906	0.18569247
713.097	0.18579221
713.287	0.18599003
713.478	0.18623719
713.668	0.18642778
713.859	0.18653291
714.049	0.18666721
714.239	0.18682319
714.43	0.18706263
714.62	0.18723255
714.811	0.18739102
715.001	0.18756407
715.191	0.18776656
715.382	0.18797471
715.572	0.18814927
715.762	0.18822595
715.953	0.18840734
716.143	0.18862872
716.333	0.18877317
716.523	0.18894699
716.714	0.18917863
716.904	0.18933069
717.094	0.18960636
717.284	0.18973236
717.474	0.18980455
717.664	0.1900494
717.855	0.19017434
718.045	0.19027561
718.235	0.19046939
718.425	0.19063216
718.615	0.19087068
718.805	0.19109993
718.995	0.19122677
719.185	0.19143502
719.375	0.19163566
719.565	0.19186979
719.755	0.19205214
719.945	0.19217725
720.135	0.19236097
720.325	0.19253553
720.515	0.19275016
720.704	0.19294504
720.894	0.19312125
721.084	0.19331313
721.274	0.19355807
721.464	0.19378896
721.654	0.19404812
721.843	0.19421379
722.033	0.1943782
722.223	0.19451043
722.413	0.19472155
722.602	0.19488572
722.792	0.19504694
722.982	0.19517919
723.171	0.1953479
723.361	0.19550404
723.55	0.19566765
723.74	0.19574588
723.93	0.19589952
724.119	0.19604786
724.309	0.19621629
724.498	0.19640296
724.688	0.1966117
724.877	0.19680598
725.067	0.19699308
725.256	0.19717833
725.446	0.1973365
725.635	0.19750479
725.825	0.19766655
726.014	0.19778826
726.203	0.19797186
726.393	0.19811782
726.582	0.19825135
726.771	0.19834517
726.961	0.19849942
727.15	0.19859145
727.339	0.1987264
727.529	0.19885515
727.718	0.19897521
727.907	0.19908893
728.096	0.19927275
728.286	0.19942821
728.475	0.19964609
728.664	0.19983465
728.853	0.19998154
729.042	0.20007856
729.231	0.20021502
729.42	0.20035424
729.609	0.20047312
729.799	0.20050707
729.988	0.20059468
730.177	0.20063403
730.366	0.2008039
730.555	0.20094348
730.744	0.20101361
730.933	0.20112293
731.122	0.20126009
731.31	0.20144009
731.499	0.20158868
731.688	0.20172447
731.877	0.20183834
732.066	0.20200346
732.255	0.20207421
732.444	0.20221678
732.632	0.20230677
732.821	0.20240913
733.01	0.20255978
733.199	0.20265254
733.388	0.2027353
733.576	0.20288661
733.765	0.20301095
733.954	0.20312879
734.142	0.20327203
734.331	0.203377
734.52	0.20352166
734.708	0.20369751
734.897	0.20376755
735.086	0.20389508
735.274	0.20399688
735.463	0.20407637
735.651	0.20418022
735.84	0.20432264
736.028	0.20442328
736.217	0.20460538
736.405	0.20470452
736.594	0.20483892
736.782	0.20503752
736.971	0.20514246
737.159	0.20521275
737.347	0.20530713
737.536	0.20536326
737.724	0.20545997
737.912	0.20553247
738.101	0.20557358
738.289	0.20569087
738.477	0.20576477
738.666	0.20584299
738.854	0.20601981
739.042	0.20610628
739.23	0.20620788
739.418	0.20630595
739.607	0.20633008
739.795	0.20647565
739.983	0.20663388
740.171	0.20668994
740.359	0.20681076
740.547	0.20692246
740.735	0.20705552
740.923	0.20727759
741.112	0.20737665
741.3	0.20742561
741.488	0.20755512
741.676	0.20771799
741.864	0.20779588
742.052	0.20796261
742.239	0.20795541
742.427	0.20802829
742.615	0.20810628
742.803	0.20817968
742.991	0.20819632
743.179	0.20831819
743.367	0.20834662
743.555	0.20851386
743.742	0.20863295
743.93	0.20878755
744.118	0.2088318
744.306	0.20899976
744.494	0.20908965
744.681	0.20921492
744.869	0.20926338
745.057	0.20934123
745.244	0.20938864
745.432	0.20953923
745.62	0.20953107
745.807	0.20961027
745.995	0.20966243
746.182	0.20973424
746.37	0.20979432
746.558	0.20986724
746.745	0.20991224
746.933	0.21004817
747.12	0.21011403
747.308	0.21017803
747.495	0.21029653
747.683	0.21037527
747.87	0.21049434
748.057	0.21055695
748.245	0.21061169
748.432	0.21072564
748.62	0.21078599
748.807	0.21075518
748.994	0.21090782
749.182	0.21093235
749.369	0.21103581
749.556	0.21112373
749.743	0.21114134
749.931	0.21122219
750.118	0.21130115
750.305	0.21128886
750.492	0.21134471
750.68	0.21137786
750.867	0.2114243
751.054	0.21149926
751.241	0.21153187
751.428	0.21165092
751.615	0.21171954
751.802	0.21183453
751.989	0.2118852
752.176	0.21195375
752.363	0.21198166
752.55	0.21205128
752.737	0.21208934
752.924	0.21211524
753.111	0.21216749
753.298	0.21223611
753.485	0.21225819
753.672	0.21233665
753.859	0.21240291
754.046	0.21253187
754.233	0.21260642
754.42	0.21261684
754.606	0.21259966
754.793	0.21263512
754.98	0.21265388
755.167	0.21266389
755.353	0.21263327
755.54	0.21271267
755.727	0.21276788
755.914	0.21284002
756.1	0.21289605
756.287	0.21293381
756.474	0.21294096
756.66	0.21298864
756.847	0.21296818
757.033	0.21292788
757.22	0.21292469
757.407	0.21297607
757.593	0.21303489
757.78	0.21309442
757.966	0.21312389
758.153	0.213172
758.339	0.21320952
758.526	0.21321922
758.712	0.21315098
758.898	0.21314631
759.085	0.21310823
759.271	0.21309641
759.458	0.21306667
759.644	0.21305995
759.83	0.21309985
760.017	0.21317941
760.203	0.21314366
760.389	0.213183
760.576	0.21317704
760.762	0.21319353
760.948	0.21324531
761.134	0.21322796
761.32	0.2132174
761.507	0.21319287
761.693	0.21324592
761.879	0.2132884
762.065	0.21331902
762.251	0.21336905
762.437	0.21345683
762.623	0.21345863
762.809	0.2135175
762.995	0.21346213
763.181	0.21342319
763.367	0.21342569
763.553	0.21337044
763.739	0.21330502
763.925	0.21330599
764.111	0.21327797
764.297	0.21327525
764.483	0.21321166
764.669	0.21316661
764.855	0.2131274
765.041	0.21312927
765.227	0.21305167
765.412	0.21305951
765.598	0.21299993
765.784	0.21296951
765.97	0.21292003
766.156	0.21291295
766.341	0.21290214
766.527	0.21297024
766.713	0.21291148
766.898	0.21293456
767.084	0.21296227
767.27	0.21291833
767.455	0.21292238
767.641	0.21286687
767.827	0.21283664
768.012	0.21283282
768.198	0.21283548
768.383	0.21281683
768.569	0.21286129
768.754	0.2127972
768.94	0.21278754
769.125	0.21268517
769.311	0.21259161
769.496	0.21251149
769.682	0.21251998
769.867	0.21249659
770.052	0.21246449
770.238	0.21231971
770.423	0.21232281
770.608	0.21229847
770.794	0.21225451
770.979	0.21214084
771.164	0.21204272
771.35	0.21200429
771.535	0.21206912
771.72	0.2119935
771.905	0.21200933
772.09	0.21195846
772.276	0.21195604
772.461	0.21186503
772.646	0.2118156
772.831	0.21165088
773.016	0.21158417
773.201	0.21149746
773.386	0.21146805
773.571	0.21135103
773.756	0.21131454
773.941	0.21115296
774.126	0.2112029
774.311	0.21112978
774.496	0.21108121
774.681	0.21095333
774.866	0.21090908
775.051	0.21084047
775.236	0.21078926
775.421	0.21064134
775.606	0.21051469
775.791	0.21040513
775.976	0.21037561
776.16	0.21029322
776.345	0.21024365
776.53	0.21026333
776.715	0.21022131
776.899	0.21019542
777.084	0.21007532
777.269	0.20999666
777.454	0.20987625
777.638	0.20980782
777.823	0.20964815
778.008	0.20953468
778.192	0.20946913
778.377	0.20939202
778.561	0.20925917
778.746	0.20920084
778.931	0.20905581
779.115	0.20900176
779.3	0.20893675
779.484	0.20880908
779.669	0.20872429
779.853	0.2086282
780.037	0.20850506
780.222	0.20835498
780.406	0.20822272
780.591	0.20815532
780.775	0.20805568
780.959	0.20796168
781.144	0.20784539
781.328	0.2077087
781.512	0.20765402
781.697	0.20753814
781.881	0.20740125
782.065	0.20727167
782.249	0.20709518
782.434	0.2070126
782.618	0.20693891
782.802	0.2068462
782.986	0.20674139
783.17	0.20659646
783.354	0.20648837
783.539	0.206397
783.723	0.20626928
783.907	0.20614447
784.091	0.20598225
784.275	0.20587395
784.459	0.20573066
784.643	0.20561253
784.827	0.20548367
785.011	0.205417
785.195	0.20533427
785.379	0.20529034
785.563	0.20516742
785.747	0.20504708
785.93	0.20494982
786.114	0.20482391
786.298	0.20458653
786.482	0.20437032
786.666	0.20414779
786.85	0.2040196
787.033	0.20391227
787.217	0.20374884
787.401	0.20358116
787.585	0.20342246
787.768	0.20330114
787.952	0.20319273
788.136	0.20299634
788.319	0.20279261
788.503	0.20259674
788.687	0.20243165
788.87	0.20229514
789.054	0.20217711
789.237	0.20199357
789.421	0.20182197
789.605	0.2017006
789.788	0.20151689
789.972	0.20140097
790.155	0.20122749
790.338	0.20094714
790.522	0.2007697
790.705	0.20057684
790.889	0.20040461
791.072	0.20020701
791.256	0.20004094
791.439	0.19989381
791.622	0.19978174
791.806	0.1996713
791.989	0.19951183
792.172	0.1993203
792.355	0.19925252
792.539	0.19908482
792.722	0.19887309
792.905	0.19868632
793.088	0.19848762
793.271	0.19832323
793.455	0.19813976
793.638	0.19795302
793.821	0.19774762
794.004	0.19767352
794.187	0.19755381
794.37	0.1973666
794.553	0.19725011
794.736	0.19710224
794.919	0.19684918
795.102	0.19669872
795.285	0.19645834
795.468	0.19628232
795.651	0.19605451
795.834	0.19584239
796.017	0.19564225
796.2	0.19551094
796.383	0.19538432
796.566	0.19522287
796.749	0.19500767
796.931	0.19486452
797.114	0.1946671
797.297	0.19445372
797.48	0.19425088
797.663	0.19402174
797.845	0.19382322
798.028	0.19374531
798.211	0.19359477
798.393	0.19338397
798.576	0.19319203
798.759	0.19296582
798.941	0.19274864
799.124	0.19252642
799.307	0.19218122
799.489	0.19190831
799.672	0.19171679
799.854	0.1915072
800.037	0.19131751
800.219	0.19114609
800.402	0.19097822
800.584	0.19079614
800.767	0.19065441
800.949	0.19040399
801.132	0.19024691
801.314	0.19000128
801.496	0.18974622
801.679	0.1894883
801.861	0.18929617
802.043	0.18902171
802.226	0.18883382
802.408	0.18860759
802.59	0.18840358
802.772	0.18820965
802.955	0.18803876
803.137	0.18780339
803.319	0.1875901
803.501	0.18734154
803.684	0.18714018
803.866	0.18693402
804.048	0.18669291
804.23	0.18640423
804.412	0.18613093
804.594	0.18582236
804.776	0.18571616
804.958	0.18544482
805.14	0.18526989
805.322	0.18509981
805.504	0.18493723
805.686	0.18478809
805.868	0.18460419
806.05	0.18428829
806.232	0.18412591
806.414	0.18386944
806.596	0.18363582
806.778	0.18332207
806.96	0.18310869
807.141	0.18291185
807.323	0.18271409
807.505	0.18237158
807.687	0.18210431
807.869	0.18188601
808.05	0.18169486
808.232	0.18149464
808.414	0.18124853
808.595	0.180997
808.777	0.18075072
808.959	0.18054689
809.14	0.18029682
809.322	0.18010036
809.504	0.17978168
809.685	0.17965565
809.867	0.17942641
810.048	0.17927082
810.23	0.17905185
810.411	0.17877369
810.593	0.17848228
810.774	0.17826683
810.956	0.17794995
811.137	0.17767119
811.319	0.17736902
811.5	0.17711189
811.681	0.17686214
811.863	0.17667816
812.044	0.17636801
812.225	0.17612387
812.407	0.17588428
812.588	0.17566139
812.769	0.17539768
812.951	0.17518079
813.132	0.17490685
813.313	0.1747676
813.494	0.17448152
813.675	0.17419027
813.857	0.17398959
814.038	0.17380984
814.219	0.17352079
814.4	0.17327561
814.581	0.17299308
814.762	0.17274977
814.943	0.17263915
815.124	0.17235056
815.305	0.17203138
815.486	0.17173357
815.667	0.1714687
815.848	0.17121555
816.029	0.1709417
816.21	0.17064
816.391	0.17044183
816.572	0.17023605
816.753	0.17012466
816.934	0.16985036
817.115	0.16953542
817.295	0.16927283
817.476	0.16894817
817.657	0.1685904
817.838	0.16832493
818.019	0.16795224
818.199	0.16766986
818.38	0.16748307
818.561	0.16724449
818.741	0.16704054
818.922	0.16681158
819.103	0.16654961
819.283	0.16636169
819.464	0.16615942
819.645	0.16587863
819.825	0.16556309
820.006	0.16528914
820.186	0.16503228
820.367	0.16476293
820.547	0.1644302
820.728	0.16407909
820.908	0.16378117
821.089	0.16355521
821.269	0.16330363
821.45	0.16305713
821.63	0.16275082
821.81	0.16246591
821.991	0.16226284
822.171	0.16202941
822.351	0.16176046
822.532	0.16140881
822.712	0.16109028
822.892	0.16072318
823.072	0.16043477
823.253	0.16012587
823.433	0.15974825
823.613	0.15951579
823.793	0.15924536
823.973	0.15896893
824.154	0.15874276
824.334	0.15854023
824.514	0.15825014
824.694	0.15815574
824.874	0.15778323
825.054	0.15752241
825.234	0.15717353
825.414	0.15686765
825.594	0.15652043
825.774	0.15626378
825.954	0.15589862
826.134	0.15563028
826.314	0.15540571
826.494	0.15520597
826.674	0.15499878
826.854	0.15465473
827.033	0.15430356
827.213	0.15399856
827.393	0.15370669
827.573	0.15340322
827.753	0.15311831
827.932	0.15282504
828.112	0.1526188
828.292	0.15242239
828.472	0.15212616
828.651	0.15192458
828.831	0.15160198
829.011	0.15133878
829.19	0.15105945
829.37	0.15074141
829.549	0.15040346
829.729	0.15016572
829.909	0.149847
830.088	0.14960796
830.268	0.14925621
830.447	0.14897124
830.627	0.14876214
830.806	0.1485164
830.986	0.14823399
831.165	0.14796261
831.344	0.14763276
831.524	0.14744148
831.703	0.14721418
831.883	0.14687363
832.062	0.1465756
832.241	0.14613892
832.421	0.14583468
832.6	0.14555775
832.779	0.1452337
832.958	0.14485526
833.138	0.1445411
833.317	0.14427706
833.496	0.14408763
833.675	0.14383132
833.854	0.14360778
834.034	0.14334425
834.213	0.143058
834.392	0.1427636
834.571	0.14241843
834.75	0.14206635
834.929	0.14170615
835.108	0.14125925
835.287	0.14092264
835.466	0.14063606
835.645	0.14038797
835.824	0.14012807
836.003	0.13985041
836.182	0.13962462
836.361	0.13947423
836.54	0.13918495
836.719	0.13883784
836.897	0.13850908
837.076	0.13817302
837.255	0.13783297
837.434	0.13754835
837.613	0.13717079
837.791	0.13684269
837.97	0.13662653
838.149	0.13632689
838.328	0.13601069
838.506	0.13576586
838.685	0.13540239
838.864	0.13516339
839.042	0.13488878
839.221	0.13457849
839.4	0.13422081
839.578	0.13393594
839.757	0.13364486
839.935	0.13336153
840.114	0.13306169
840.292	0.13275279
840.471	0.13256201
840.649	0.13236816
840.828	0.13213933
841.006	0.1319786
841.185	0.1316375
841.363	0.13134028
841.541	0.13110477
841.72	0.13073414
841.898	0.13048538
842.076	0.13013855
842.255	0.1297211
842.433	0.12943456
842.611	0.12907104
842.789	0.1287347
842.968	0.12842294
843.146	0.12804574
843.324	0.12785735
843.502	0.12757826
843.68	0.12740121
843.859	0.1271662
844.037	0.12690725
844.215	0.12658042
844.393	0.12632971
844.571	0.12598237
844.749	0.12569943
844.927	0.12536354
845.105	0.12500551
845.283	0.12464143
845.461	0.12439988
845.639	0.12412575
845.817	0.12383226
845.995	0.12357163
846.173	0.12323753
846.351	0.12301144
846.529	0.12276932
846.706	0.12248652
846.884	0.12217285
847.062	0.12185652
847.24	0.12156621
847.418	0.12122954
847.595	0.1208765
847.773	0.12063644
847.951	0.12028745
848.129	0.11997297
848.306	0.11972552
848.484	0.11943078
848.662	0.1192441
848.839	0.11904876
849.017	0.11870721
849.194	0.11843699
849.372	0.11814675
849.549	0.11782781
849.727	0.11743308
849.905	0.11707874
850.082	0.11671455
850.26	0.11642274
850.437	0.11614375
850.614	0.11593081
850.792	0.11562443
850.969	0.11552452
851.147	0.11532649
851.324	0.11511477
851.501	0.11495656
851.679	0.11459858
851.856	0.11429056
852.033	0.11401975
852.211	0.11362423
852.388	0.11331694
852.565	0.11305766
852.742	0.11264766
852.92	0.11242829
853.097	0.11215544
853.274	0.11198066
853.451	0.11171142
853.628	0.11146257
853.805	0.11116547
853.982	0.11093337
854.159	0.11063898
854.336	0.11032877
854.514	0.10990865
854.691	0.10961286
854.868	0.10925185
855.045	0.10884369
855.221	0.10852717
855.398	0.10827349
855.575	0.10805036
855.752	0.1078732
855.929	0.10765578
856.106	0.10733297
856.283	0.10724286
856.46	0.1070268
856.637	0.1068224
856.813	0.10654384
856.99	0.10620518
857.167	0.10589951
857.344	0.10558097
857.52	0.10518975
857.697	0.10486135
857.874	0.10446541
858.05	0.10406563
858.227	0.10383476
858.404	0.10358363
858.58	0.10348334
858.757	0.10326108
858.933	0.10304321
859.11	0.10289488
859.287	0.10268001
859.463	0.10241468
859.64	0.10209695
859.816	0.10178983
859.993	0.1014665
860.169	0.10116277
860.345	0.10079893
860.522	0.10054128
860.698	0.10030372
860.875	0.10004173
861.051	0.09976294
861.227	0.09950272
861.404	0.09922079
861.58	0.09898678
861.756	0.09874808
861.932	0.09839439
862.109	0.09807179
862.285	0.09783667
862.461	0.09757993
862.637	0.09727361
862.813	0.09695049
862.99	0.09656242
863.166	0.0962685
863.342	0.09607684
863.518	0.09568916
863.694	0.09546074
863.87	0.09524216
864.046	0.09511986
864.222	0.09496864
864.398	0.09474465
864.574	0.09441813
864.75	0.09414305
864.926	0.0938052
865.102	0.09344484
865.278	0.0929936
865.454	0.09272877
865.63	0.09242285
865.805	0.0922147
865.981	0.09205536
866.157	0.09185088
866.333	0.09173934
866.509	0.09161859
866.684	0.09142539
866.86	0.09135655
867.036	0.09113371
867.212	0.09083409
867.387	0.09059807
867.563	0.09033407
867.739	0.08999896
867.914	0.08964873
868.09	0.08934356
868.265	0.08910743
868.441	0.08878831
868.617	0.08848339
868.792	0.08820359
868.968	0.08798574
869.143	0.08780638
869.319	0.08749848
869.494	0.08722215
869.67	0.08708506
869.845	0.08690786
870.02	0.08666952
870.196	0.08635221
870.371	0.08603354
870.546	0.08572412
870.722	0.085385
870.897	0.08503187
871.072	0.08471978
871.248	0.08444619
871.423	0.08421992
871.598	0.08402579
871.773	0.08378156
871.949	0.0836723
872.124	0.08352272
872.299	0.083282
872.474	0.08299752
872.649	0.08272233
872.824	0.08238596
872.999	0.0820968
873.174	0.08163859
873.349	0.08128651
873.524	0.08098082
873.699	0.0807909
873.874	0.0805823
874.049	0.08038839
874.224	0.08025387
874.399	0.0801222
874.574	0.07999861
874.749	0.07988763
874.924	0.07953277
875.099	0.07931634
875.274	0.07905083
875.449	0.07886136
875.623	0.07856578
875.798	0.07823789
875.973	0.07785586
876.148	0.07758608
876.322	0.07732613
876.497	0.07709384
876.672	0.07675207
876.846	0.07655223
877.021	0.07644139
877.196	0.07631106
877.37	0.0761922
877.545	0.07600849
877.72	0.07575889
877.894	0.07550838
878.069	0.07537576
878.243	0.07498374
878.418	0.07463591
878.592	0.07424124
878.767	0.07387263
878.941	0.07356499
879.116	0.07332603
879.29	0.07298846
879.464	0.07276905
879.639	0.07269063
879.813	0.07263346
879.987	0.07252076
880.162	0.07241081
880.336	0.07223594
880.51	0.07204072
880.685	0.07179601
880.859	0.07143999
881.033	0.07111769
881.207	0.07080463
881.381	0.07052501
881.556	0.07018038
881.73	0.06986183
881.904	0.06969457
882.078	0.06954992
882.252	0.06937999
882.426	0.06930154
882.6	0.06912002
882.774	0.06900836
882.948	0.06891533
883.122	0.06869028
883.296	0.06841878
883.47	0.06819946
883.644	0.06782394
883.818	0.06748936
883.992	0.06719494
884.166	0.06684855
884.34	0.06656848
884.514	0.06650903
884.687	0.06634381
884.861	0.06621386
885.035	0.0661804
885.209	0.06598658
885.382	0.0659568
885.556	0.06588769
885.73	0.06560406
885.904	0.06547524
886.077	0.0651732
886.251	0.06478595
886.425	0.06460693
886.598	0.06432102
886.772	0.06403178
886.945	0.06368927
887.119	0.06331389
887.292	0.06313839
887.466	0.06292046
887.64	0.06270275
887.813	0.0624775
887.986	0.06230505
888.16	0.06220491
888.333	0.06208762
888.507	0.06194704
888.68	0.06182645
888.854	0.06162872
889.027	0.06140829
889.2	0.06119263
889.374	0.06088899
889.547	0.06063679
889.72	0.06039713
889.893	0.06024204
890.067	0.0599859
890.24	0.05974963
890.413	0.05962512
890.586	0.05946747
890.759	0.0592927
890.933	0.05912437
891.106	0.05891255
891.279	0.05883929
891.452	0.05868263
891.625	0.05845479
891.798	0.05828494
891.971	0.05808338
892.144	0.05780176
892.317	0.05755839
892.49	0.05722186
892.663	0.05705176
892.836	0.05682151
893.009	0.05663782
893.182	0.05645994
893.355	0.05638361
893.527	0.05628438
893.7	0.05622804
893.873	0.05611149
894.046	0.05581887
894.219	0.05563545
894.391	0.0555196
894.564	0.05532663
894.737	0.05500292
894.91	0.05471512
895.082	0.05438381
895.255	0.05421204
895.428	0.05385814
895.6	0.05357939
895.773	0.05332985
895.945	0.05324532
896.118	0.05302509
896.291	0.05300624
896.463	0.05293102
896.636	0.05294863
896.808	0.0528401
896.981	0.05269002
897.153	0.0525027
897.326	0.05238185
897.498	0.05202545
897.67	0.05174494
897.843	0.05157194
898.015	0.05130576
898.187	0.05112558
898.36	0.05086293
898.532	0.05070881
898.704	0.05057877
898.877	0.05053191
899.049	0.05033475
899.221	0.05015122
899.393	0.04995606
899.566	0.04988701
899.738	0.0497238
899.91	0.0496406
900.082	0.049421
900.254	0.04923409
900.426	0.04908853
900.598	0.04898204
900.77	0.04862525
900.942	0.04837596
901.114	0.0481279
901.286	0.04796181
901.458	0.0477442
901.63	0.047481
901.802	0.04723451
901.974	0.04716702
902.146	0.04700315
902.318	0.04676957
902.49	0.04659042
902.662	0.04645811
902.834	0.04637964
903.005	0.04623475
903.177	0.04612345
903.349	0.04596882
903.521	0.04583738
903.693	0.04559823
903.864	0.04542983
904.036	0.04520721
904.208	0.04505318
904.379	0.04486601
904.551	0.04472305
904.723	0.04453543
904.894	0.0444581
905.066	0.04438323
905.237	0.04440384
905.409	0.04428197
905.58	0.04425303
905.752	0.04416768
905.923	0.04399915
906.095	0.04380704
906.266	0.04355507
906.438	0.04332949
906.609	0.04310826
906.78	0.04275253
906.952	0.04253523
907.123	0.04252309
907.295	0.04232767
907.466	0.0421242
907.637	0.04198273
907.808	0.04197135
907.98	0.04204306
908.151	0.04197318
908.322	0.04186008
908.493	0.04185482
908.665	0.04169468
908.836	0.04160131
909.007	0.04132231
909.178	0.04103264
909.349	0.04076535
909.52	0.04058718
909.691	0.04024797
909.862	0.04019714
910.033	0.03986599
910.204	0.03970992
910.375	0.03957928
910.546	0.03956201
910.717	0.0394403
910.888	0.03942492
911.059	0.03926803
911.23	0.03931206
911.401	0.03921578
911.572	0.03902607
911.742	0.0388315
911.913	0.03856744
912.084	0.03840037
912.255	0.03817458
912.426	0.03794443
912.596	0.03783358
912.767	0.03756054
912.938	0.03725976
913.108	0.03715166
913.279	0.03693282
913.45	0.03676684
913.62	0.03669295
913.791	0.03648861
913.962	0.03647043
914.132	0.03655714
914.303	0.0363815
914.473	0.03634776
914.644	0.03625051
914.814	0.03596356
914.985	0.03580994
915.155	0.03568037
915.326	0.03534893
915.496	0.03520277
915.666	0.03511492
915.837	0.03510274
916.007	0.03489526
916.177	0.03485475
916.348	0.03467889
916.518	0.03460436
916.688	0.03459466
916.858	0.03444378
917.029	0.03428778
917.199	0.03428827
917.369	0.03415297
917.539	0.03402445
917.709	0.03401752
917.88	0.03372895
918.05	0.03355491
918.22	0.03329214
918.39	0.03298142
918.56	0.03278711
918.73	0.03265561
918.9	0.0323885
919.07	0.03234135
919.24	0.03220495
919.41	0.0322214
919.58	0.03227827
919.75	0.03220186
919.92	0.03215793
920.09	0.03216005
920.26	0.03204246
920.429	0.03192246
920.599	0.03173419
920.769	0.031601
920.939	0.03143543
921.109	0.0312948
921.278	0.03115406
921.448	0.03113331
921.618	0.03094632
921.787	0.03079688
921.957	0.03063181
922.127	0.030574
922.296	0.03054005
922.466	0.03043028
922.636	0.03020967
922.805	0.03026641
922.975	0.03018415
923.144	0.03018374
923.314	0.02997878
923.483	0.02969754
923.653	0.02961146
923.822	0.02948515
923.992	0.02919145
924.161	0.02911541
924.331	0.02894869
924.5	0.02884055
924.669	0.02874192
924.839	0.02854777
925.008	0.02848378
925.177	0.02840186
925.347	0.02832967
925.516	0.0283083
925.685	0.02831889
925.854	0.0283922
926.023	0.0283481
926.193	0.02822466
926.362	0.02812433
926.531	0.02793033
926.7	0.02770617
926.869	0.02750199
927.038	0.02736823
927.207	0.02720237
927.376	0.0269689
927.545	0.02685282
927.715	0.02683934
927.884	0.02672124
928.052	0.02677402
928.221	0.02663772
928.39	0.02655639
928.559	0.02654491
928.728	0.0265636
928.897	0.02643314
929.066	0.0263637
929.235	0.02619321
929.404	0.02619247
929.572	0.02596243
929.741	0.0259382
929.91	0.02585072
930.079	0.02569312
930.247	0.02563271
930.416	0.02536272
930.585	0.02515909
930.753	0.02520916
930.922	0.02508257
931.091	0.02487463
931.259	0.02479998
931.428	0.02468482
931.596	0.02467439
931.765	0.02475154
931.934	0.02471498
932.102	0.02464542
932.27	0.02477101
932.439	0.02466641
932.607	0.02450808
932.776	0.02448437
932.944	0.02413608
933.113	0.02387662
933.281	0.02373369
933.449	0.02339559
933.618	0.02333954
933.786	0.02330452
933.954	0.02327974
934.123	0.02325944
934.291	0.02328555
934.459	0.02315879
934.627	0.02329234
934.795	0.02329263
934.964	0.02338433
935.132	0.02324246
935.3	0.02333558
935.468	0.02346197
935.636	0.02367203
935.804	0.02371025
935.972	0.0237061
936.14	0.02371653
936.308	0.02382516
936.476	0.02371522
936.644	0.02379431
936.812	0.02378093
936.98	0.0235696
937.148	0.02361167
937.316	0.02347856
937.484	0.02344737
937.652	0.02347737
937.82	0.02342695
937.987	0.02343298
938.155	0.0234644
938.323	0.02344258
938.491	0.02383597
938.658	0.0239582
938.826	0.02413009
938.994	0.02422721
939.162	0.02423856
939.329	0.0241051
939.497	0.02408493
939.665	0.02371342
939.832	0.02383511
940	0.02404801
940.167	0.02403294
940.335	0.02417293
940.502	0.02477035
940.67	0.02565413
940.837	0.0263679
941.005	0.02619498
941.172	0.0255842
941.34	0.02513397
941.507	0.0252705
941.674	0.02504595
941.842	0.02442663
942.009	0.02398895
942.177	0.02415636
942.344	0.02521079
942.511	0.02557204
942.678	0.02521894
942.846	0.02535886
943.013	0.02499791
943.18	0.02415912
943.347	0.02439805
943.514	0.02413661
943.682	0.02390798
943.849	0.02404406
944.016	0.02453104
944.183	0.02454072
944.35	0.02458931
944.517	0.02482778
944.684	0.02454622
944.851	0.02455127
945.018	0.02480637
945.185	0.02435714
945.352	0.0247475
945.519	0.02437644
945.686	0.02456717
945.853	0.02443648
946.02	0.02377249
946.187	0.02304408
946.353	0.02389939
946.52	0.02373721
946.687	0.02464248
946.854	0.024259
947.021	0.02426241
947.187	0.02525854
947.354	0.02585451
947.521	0.02452195
947.687	0.02480224
947.854	0.02542221
948.021	0.02423692
948.187	0.02426208
948.354	0.02392762
948.52	0.02323332
948.687	0.02379415
948.854	0.02276229
949.02	0.02151619
949.187	0.02083426
949.353	0.02077524
949.52	0.02032054
949.686	0.01998153
949.852	0.01996981
950.019	0.02047309
950.185	0.02029251
950.352	0.02122083
950.518	0.02042464
950.684	0.02078792
950.851	0.02082804
951.017	0.02050787
951.183	0.02035107
951.349	0.02057022
951.516	0.02035796
951.682	0.02055072
951.848	0.01926375
952.014	0.0191156
952.18	0.01894344
952.346	0.01900432
952.512	0.01872755
952.679	0.01827984
952.845	0.01796808
953.011	0.01891825
953.177	0.01908704
953.343	0.01870408
953.509	0.01834611
953.675	0.01825791
953.841	0.01853396
954.007	0.01833481
954.172	0.0184286
954.338	0.01776951
954.504	0.01733236
954.67	0.01709767
954.836	0.01676779
955.002	0.0164817
955.167	0.01666842
955.333	0.01581326
955.499	0.01565721
955.665	0.01599094
955.83	0.01582524
955.996	0.01584512
956.162	0.01589166
956.327	0.01551182
956.493	0.01573053
956.659	0.01597602
956.824	0.01620422
956.99	0.01567719
957.155	0.01569126
957.321	0.01558878
957.486	0.01542073
957.652	0.01522286
957.817	0.01507594
957.983	0.01412884
958.148	0.01441228
958.314	0.01472137
958.479	0.01414732
958.644	0.01479341
958.81	0.01436457
958.975	0.01425528
959.14	0.01429751
959.306	0.01445127
959.471	0.01393255
959.636	0.0138671
959.801	0.01341105
959.967	0.01340651
960.132	0.01349901
960.297	0.01371965
960.462	0.01377137
960.627	0.01370796
960.792	0.01398506
960.957	0.01392545
961.123	0.01401573
961.288	0.01389896
961.453	0.01397737
961.618	0.01349669
961.783	0.01357429
961.948	0.01341382
962.113	0.01299838
962.277	0.0130873
962.442	0.0127099
962.607	0.01239576
962.772	0.01245253
962.937	0.01236389
963.102	0.01245449
963.267	0.01282238
963.431	0.0126834
963.596	0.01317042
963.761	0.01341444
963.926	0.01322665
964.09	0.01306981
964.255	0.01287542
964.42	0.0121631
964.584	0.01200246
964.749	0.01177706
964.914	0.01124286
965.078	0.01134674
965.243	0.01120855
965.407	0.01113477
965.572	0.0115074
965.736	0.01163363
965.901	0.01152514
966.065	0.01190985
966.23	0.01169767
966.394	0.01178756
966.559	0.01182985
966.723	0.01155448
966.887	0.01121376
967.052	0.01059335
967.216	0.01035614
967.38	0.01039268
967.545	0.0103064
967.709	0.01038379
967.873	0.01069135
968.037	0.01071754
968.202	0.01135407
968.366	0.01157951
968.53	0.01183886
968.694	0.01195667
968.858	0.01130568
969.022	0.01118588
969.187	0.01120339
969.351	0.01125405
969.515	0.0109111
969.679	0.01067442
969.843	0.0099397
970.007	0.01052513
970.171	0.01040435
970.335	0.01007259
970.499	0.00962996
970.662	0.00943425
970.826	0.00908549
970.99	0.00935166
971.154	0.00918916
971.318	0.00935819
971.482	0.00978295
971.645	0.01020754
971.809	0.0108067
971.973	0.01079878
972.137	0.01061512
972.3	0.01096771
972.464	0.01052883
972.628	0.01050018
972.791	0.00999462
972.955	0.00944605
973.119	0.00930384
973.282	0.00942242
973.446	0.00890257
973.609	0.00935066
973.773	0.00931061
973.936	0.00948142
974.1	0.00953706
974.263	0.01012253
974.427	0.01029076
974.59	0.01054337
974.754	0.01013729
974.917	0.00962945
975.08	0.00987065
975.244	0.00998208
975.407	0.01006592
975.57	0.00968292
975.734	0.00921927
975.897	0.0096378
976.06	0.00989793
976.223	0.00990869
976.387	0.01023476
976.55	0.00936709
976.713	0.0097312
976.876	0.01025167
977.039	0.0100151
977.202	0.01003274
977.365	0.00983435
977.528	0.00899771
977.692	0.00945094
977.855	0.00946425
978.018	0.0089889
978.181	0.00855871
978.344	0.00903835
978.506	0.00878633
978.669	0.00924514
978.832	0.00921018
978.995	0.00858098
979.158	0.008798
979.321	0.00921491
979.484	0.00892061
979.646	0.00887889
979.809	0.00834605
979.972	0.0080494
980.135	0.00886109
980.297	0.00868347
980.46	0.0087575
980.623	0.00800225
980.786	0.00830117
980.948	0.00860567
981.111	0.00905292
981.273	0.00904329
981.436	0.00912652
981.599	0.00907864
981.761	0.00986387
981.924	0.00929513
982.086	0.00959539
982.249	0.00977662
982.411	0.00963356
982.573	0.0096868
982.736	0.00958214
982.898	0.00959485
983.061	0.01040577
983.223	0.00980541
983.385	0.00904104
983.548	0.00873189
983.71	0.00850501
983.872	0.00782092
984.034	0.00776508
984.197	0.00682569
984.359	0.00667053
984.521	0.00705957
984.683	0.00701797
984.845	0.00724412
985.008	0.00778128
985.17	0.00754601
985.332	0.00814905
985.494	0.00821949
985.656	0.00850105
985.818	0.0090102
985.98	0.00883466
986.142	0.00919109
986.304	0.00904856
986.466	0.00910108
986.628	0.00985143
986.79	0.01008245
986.952	0.00985541
987.113	0.00963484
987.275	0.0094602
987.437	0.00944635
987.599	0.00931452
987.761	0.00861607
987.922	0.00769388
988.084	0.0077539
988.246	0.00796886
988.408	0.00713459
988.569	0.00706481
988.731	0.00691774
988.893	0.00679678
989.054	0.00707562
989.216	0.00746327
989.377	0.00806668
989.539	0.00877657
989.701	0.00886497
989.862	0.00856856
990.024	0.00899632
990.185	0.00873217
990.347	0.00851265
990.508	0.0074831
990.669	0.00742924
990.831	0.00677844
990.992	0.00694786
991.154	0.00725984
991.315	0.00728051
991.476	0.00680006
991.638	0.00797432
991.799	0.00807443
991.96	0.0091871
992.121	0.00895723
992.283	0.00849123
992.444	0.00857831
992.605	0.00831794
992.766	0.00701068
992.927	0.00641496
993.088	0.0064683
993.249	0.00637708
993.41	0.00694293
993.572	0.00688214
993.733	0.00701155
993.894	0.00774914
994.055	0.007794
994.216	0.00747284
994.376	0.00724082
994.537	0.00679961
994.698	0.00683417
994.859	0.00664603
995.02	0.00636372
995.181	0.00674667
995.342	0.00710372
995.503	0.00748976
995.663	0.0075915
995.824	0.00736359
995.985	0.00790497
996.146	0.0076136
996.306	0.00725586
996.467	0.00610932
996.628	0.0069335
996.788	0.00719176
996.949	0.00679284
997.11	0.00730821
997.27	0.00727267
997.431	0.00733398
997.591	0.00829549
997.752	0.00639855
997.912	0.00598876
998.073	0.00690144
998.233	0.00616849
998.394	0.00600337
998.554	0.00671901
998.714	0.00665646
998.875	0.00776834
999.035	0.00771834
999.196	0.00810266
999.356	0.00833239
999.516	0.00919697
999.676	0.00932692
999.837	0.00896313
999.997	0.00971807
1000.157	0.01037298
1000.317	0.00959045
1000.477	0.00959652
1000.638	0.0088906
1000.798	0.00777595
1000.958	0.00838793
1001.118	0.00807977
1001.278	0.00681719
1001.438	0.0073508
1001.598	0.00687294
1001.758	0.00850728
1001.918	0.00931224
1002.078	0.0087245
1002.238	0.00777018
1002.398	0.00867391
1002.558	0.00864266
1002.718	0.0085374
1002.878	0.00750247
1003.037	0.00737803
1003.197	0.00817658
1003.357	0.00901665
1003.517	0.01019093
1003.677	0.00899838
1003.836	0.00953812
1003.996	0.00887473
1004.156	0.00957912
1004.315	0.0080699
1004.475	0.00844876
1004.635	0.00700241
1004.794	0.00837385
1004.954	0.00727357
1005.114	0.00758018
1005.273	0.0067888
1005.433	0.00724546
1005.592	0.00589234
1005.752	0.00606552
1005.911	0.00562116
1006.071	0.00669328
1006.23	0.00657339
1006.389	0.00639362
1006.549	0.00617778
1006.708	0.00670084
1006.868	0.00662818
1007.027	0.00737325
1007.186	0.00760665
1007.345	0.00840584
1007.505	0.00939024
1007.664	0.0103106
1007.823	0.01124371
1007.982	0.01125225
1008.142	0.01059068
1008.301	0.00968128
1008.46	0.0090929
1008.619	0.0085006
1008.778	0.00823763
1008.937	0.00791735
1009.096	0.0077679
1009.255	0.00762697
1009.414	0.00701949
1009.573	0.0065826
1009.732	0.00634544
1009.891	0.0055028
1010.05	0.00600933
1010.209	0.00708454
1010.368	0.00700046
1010.527	0.00946064
1010.686	0.00925516
1010.845	0.01011758
1011.003	0.01038381
1011.162	0.01011998
1011.321	0.00907142
1011.48	0.0101085
1011.638	0.01056814
1011.797	0.01272627
1011.956	0.01238769
1012.115	0.01410055
1012.273	0.01351884
1012.432	0.0147519
1012.59	0.01330334
1012.749	0.01121646
1012.908	0.00875311
1013.066	0.00925466
1013.225	0.00808148
1013.383	0.00963968
1013.542	0.00796481
1013.7	0.00939162
1013.859	0.01123627
1014.017	0.01284026
1014.175	0.01232771
1014.334	0.01230504
1014.492	0.00976935
1014.65	0.01097739
1014.809	0.0095531
1014.967	0.00818096
1015.125	0.00906193
1015.284	0.00795087
1015.442	0.00885277
1015.6	0.01210839
1015.758	0.01096009
1015.916	0.01136047
1016.075	0.01156174
1016.233	0.01198179
1016.391	0.01162063
1016.549	0.0112319
1016.707	0.01092854
1016.865	0.01057166
1017.023	0.01113272
1017.181	0.0109173
1017.339	0.00943122
1017.497	0.01013931
1017.655	0.01072509
1017.813	0.00825202
1017.971	0.01000127
1018.129	0.00912982
1018.286	0.00915997
1018.444	0.00866402
1018.602	0.00978121
1018.76	0.00733735
1018.918	0.0087223
1019.075	0.00903429
1019.233	0.01030431
1019.391	0.01155957
1019.549	0.01313336
1019.706	0.01487747
1019.864	0.01888844
1020.022	0.01982832
1020.179	0.02034421
1020.337	0.02163882
1020.494	0.01824681
1020.652	0.01704392
1020.809	0.01851678
1020.967	0.0179503
1021.124	0.01709328
1021.282	0.01406603
1021.439	0.01434125
1021.597	0.01562725
1021.754	0.01669475
1021.911	0.0126455
1022.069	0.01046528
1022.226	0.00879626
1022.384	0.01397748
1022.541	0.01122481
1022.698	0.01552545
1022.855	0.01537997
1023.013	0.01704958
1023.17	0.01863465
1023.327	0.01880698
1023.484	0.01723879
1023.641	0.01930692
1023.798	0.01779516
1023.956	0.01676441
1024.113	0.01579192
1024.27	0.01558408
1024.427	0.01966311
1024.584	0.02028746
1024.741	0.01780558
1024.898	0.01744701
1025.055	0.01872641
1025.212	0.01623594
1025.369	0.01305319
1025.525	0.01370706
1025.682	0.01248975
1025.839	0.01537393
1025.996	0.01120095
1026.153	0.01303945
1026.31	0.01309664
1026.466	0.01444077
1026.623	0.01260571
1026.78	0.01489384
1026.937	0.01656967
1027.093	0.02039296
1027.25	0.01976052
1027.407	0.01732888
1027.563	0.01986904
1027.72	0.01650494
1027.876	0.0164017
1028.033	0.0140381
1028.19	0.01369675
1028.346	0.01242992
1028.503	0.01961351
1028.659	0.01814459
1028.816	0.01997707
1028.972	0.01600394
1029.128	0.01694745
1029.285	0.01988696
1029.441	0.01841849
1029.598	0.01535873
1029.754	0.01987998
1029.91	0.02524957
1030.067	0.02510697
1030.223	0.02022374
1030.379	0.02080899
1030.535	0.02411688
1030.691	0.01883092
1030.848	0.01860251
1031.004	0.01690467
1031.16	0.02075155
1031.316	0.03045607
1031.472	0.02724167
1031.628	0.02562429
1031.784	0.04055066
1031.94	0.04374368
1032.096	0.04660123
1032.252	0.0466294
1032.408	0.04932004
1032.564	0.0603195
1032.72	0.06143879
1032.876	0.05762189
1033.032	0.05669143
1033.188	0.05394604
1033.344	0.05491166
1033.5	0.04962954
1033.655	0.04213247
1033.811	0.04716393
1033.967	0.04782567
