Data from 0_1_mm_pl_80pc_Absorbance__0__18-14-09-419.txt Node

Date: Wed Mar 01 18:14:09 CET 2023
User: Ange
Spectrometer: FLMT08341
Trigger mode: 0
Integration Time (sec): 1.000000E-2
Scans to average: 400
Electric dark correction enabled: true
Nonlinearity correction enabled: false
Boxcar width: 3
XAxis mode: Wavelengths
Number of Pixels in Spectrum: 3648
>>>>>Begin Spectral Data<<<<<
345.271	-0.01301876
345.487	-0.01062693
345.704	0.01187599
345.921	0.00887089
346.137	0.0051088
346.354	0.01775708
346.571	0.04219184
346.787	0.13624988
347.004	-0.14930263
347.22	-0.00098062
347.437	0.02439339
347.653	0.06334527
347.87	-0.1953367
348.086	-1.24915744
348.303	0.27466245
348.519	0.02262239
348.736	0.02989248
348.952	0.03539592
349.169	0.04149091
349.385	0.04396776
349.601	0.04472425
349.818	0.04330355
350.034	0.04431691
350.251	0.04378913
350.467	0.04493078
350.683	0.04166532
350.9	0.04092381
351.116	0.04122074
351.332	0.04160365
351.549	0.03979827
351.765	0.04091215
351.981	0.04049298
352.197	0.04106528
352.414	0.0421201
352.63	0.04174546
352.846	0.0426547
353.062	0.04315601
353.278	0.04443573
353.495	0.04586871
353.711	0.04642961
353.927	0.04494902
354.143	0.04532974
354.359	0.04273862
354.575	0.04301419
354.792	0.04202941
355.008	0.03903612
355.224	0.03883535
355.44	0.03851456
355.656	0.03764515
355.872	0.03920451
356.088	0.03931194
356.304	0.03782426
356.52	0.03845939
356.736	0.03821842
356.952	0.03882928
357.168	0.03891201
357.384	0.03867285
357.6	0.0372371
357.816	0.03693424
358.032	0.03734815
358.248	0.03794031
358.464	0.03794394
358.679	0.03860106
358.895	0.03754166
359.111	0.03975146
359.327	0.04017749
359.543	0.04034583
359.759	0.04176312
359.974	0.0425918
360.19	0.03997958
360.406	0.04006573
360.622	0.03935391
360.838	0.03862469
361.053	0.03842548
361.269	0.03717808
361.485	0.03649461
361.701	0.03851797
361.916	0.03717822
362.132	0.03611869
362.348	0.03592145
362.563	0.03589984
362.779	0.03650352
362.995	0.03629634
363.21	0.03590462
363.426	0.03703657
363.641	0.03661692
363.857	0.03810397
364.073	0.03752924
364.288	0.03654733
364.504	0.03625754
364.719	0.03595166
364.935	0.03554898
365.15	0.03651115
365.366	0.03597192
365.581	0.03554437
365.797	0.03531166
366.012	0.03476802
366.228	0.03446633
366.443	0.03494716
366.658	0.03351291
366.874	0.03301503
367.089	0.03297481
367.305	0.0337028
367.52	0.03359272
367.735	0.03390359
367.951	0.03351944
368.166	0.03424137
368.381	0.03417402
368.597	0.03534732
368.812	0.03548768
369.027	0.03562924
369.243	0.03569094
369.458	0.03624231
369.673	0.03606505
369.888	0.0364471
370.104	0.03592927
370.319	0.03470185
370.534	0.03523126
370.749	0.0353508
370.964	0.03475532
371.179	0.03488024
371.395	0.03475897
371.61	0.03477086
371.825	0.03499947
372.04	0.03496607
372.255	0.03505495
372.47	0.03564057
372.685	0.03565735
372.9	0.03587421
373.115	0.0357886
373.33	0.03659132
373.545	0.03652358
373.76	0.03578669
373.975	0.03506687
374.19	0.0352994
374.405	0.03504426
374.62	0.0348633
374.835	0.03464317
375.05	0.03440571
375.265	0.03486804
375.48	0.03536095
375.695	0.03508783
375.91	0.03462432
376.125	0.03456265
376.339	0.03400242
376.554	0.03455096
376.769	0.03500373
376.984	0.03493591
377.199	0.03599541
377.414	0.03644602
377.628	0.03695004
377.843	0.03739923
378.058	0.03707441
378.273	0.03654678
378.487	0.03707879
378.702	0.03687821
378.917	0.03684259
379.131	0.03708431
379.346	0.03671107
379.561	0.03627268
379.775	0.03623424
379.99	0.03581754
380.205	0.03530684
380.419	0.03502959
380.634	0.03403573
380.848	0.03361831
381.063	0.0335477
381.278	0.03410514
381.492	0.03375155
381.707	0.0339114
381.921	0.03443202
382.136	0.03528632
382.35	0.03602705
382.565	0.03692952
382.779	0.03607296
382.994	0.03684152
383.208	0.03670992
383.422	0.03650367
383.637	0.03636501
383.851	0.03651296
384.066	0.03612968
384.28	0.0368338
384.494	0.03573483
384.709	0.03538675
384.923	0.03581506
385.137	0.03559281
385.352	0.03539355
385.566	0.03551614
385.78	0.03551159
385.995	0.03588357
386.209	0.03592952
386.423	0.03525017
386.637	0.03511065
386.852	0.03543098
387.066	0.03532617
387.28	0.03535948
387.494	0.03559686
387.708	0.03590607
387.923	0.03588469
388.137	0.03639501
388.351	0.0362265
388.565	0.03627973
388.779	0.03624079
388.993	0.03618082
389.207	0.03620111
389.421	0.03636751
389.635	0.03646077
389.85	0.03621077
390.064	0.03645271
390.278	0.0362817
390.492	0.03644835
390.706	0.03649694
390.92	0.03642875
391.134	0.0359495
391.348	0.03642977
391.561	0.03644172
391.775	0.03609365
391.989	0.03642159
392.203	0.03624452
392.417	0.03660354
392.631	0.03669612
392.845	0.03636755
393.059	0.0363923
393.273	0.03648381
393.486	0.03600778
393.7	0.03617978
393.914	0.03602722
394.128	0.03592287
394.342	0.03607501
394.555	0.03568345
394.769	0.03572853
394.983	0.03575234
395.197	0.0358776
395.41	0.03602806
395.624	0.03613219
395.838	0.0361868
396.051	0.03658165
396.265	0.03691546
396.479	0.03698212
396.692	0.0371861
396.906	0.03723279
397.12	0.03739309
397.333	0.03688902
397.547	0.03690779
397.76	0.03659027
397.974	0.03686822
398.187	0.03695641
398.401	0.0369465
398.614	0.03730683
398.828	0.03758774
399.041	0.0375301
399.255	0.0378192
399.468	0.0376007
399.682	0.03728452
399.895	0.03718777
400.109	0.03700587
400.322	0.0373428
400.536	0.03675823
400.749	0.03691055
400.962	0.03699347
401.176	0.03701608
401.389	0.03720054
401.602	0.03657104
401.816	0.03632981
402.029	0.03650917
402.242	0.03623877
402.456	0.0361073
402.669	0.03579515
402.882	0.03568841
403.095	0.03567809
403.309	0.03562323
403.522	0.03607664
403.735	0.03609706
403.948	0.03608179
404.161	0.03645368
404.375	0.03614085
404.588	0.03642608
404.801	0.03658661
405.014	0.03659496
405.227	0.03666327
405.44	0.03696692
405.653	0.03691158
405.866	0.03724082
406.079	0.03737361
406.293	0.03735527
406.506	0.03709031
406.719	0.03737425
406.932	0.03711604
407.145	0.03699667
407.358	0.03685161
407.571	0.03680685
407.784	0.03668292
407.996	0.03692163
408.209	0.03639087
408.422	0.03630755
408.635	0.03652238
408.848	0.03666414
409.061	0.0363928
409.274	0.0365554
409.487	0.03617544
409.7	0.03649196
409.912	0.0364526
410.125	0.03625757
410.338	0.03609493
410.551	0.03608903
410.764	0.03597133
410.976	0.03587449
411.189	0.03565903
411.402	0.0356723
411.615	0.03546781
411.827	0.0356561
412.04	0.03567033
412.253	0.03548476
412.465	0.03549215
412.678	0.03535944
412.891	0.03534995
413.103	0.03535398
413.316	0.0350313
413.529	0.03507568
413.741	0.03520064
413.954	0.03541101
414.166	0.03530418
414.379	0.0351764
414.591	0.03515074
414.804	0.03504213
415.016	0.03485938
415.229	0.03478141
415.441	0.03454591
415.654	0.03460081
415.866	0.03458144
416.079	0.03458055
416.291	0.03471688
416.504	0.03479381
416.716	0.03476724
416.928	0.03474953
417.141	0.03462911
417.353	0.03475221
417.566	0.03469032
417.778	0.03451467
417.99	0.03460456
418.203	0.03462409
418.415	0.03425682
418.627	0.03425919
418.839	0.03412103
419.052	0.03416375
419.264	0.0343415
419.476	0.034144
419.688	0.03383144
419.901	0.03413581
420.113	0.03447871
420.325	0.034207
420.537	0.03395021
420.749	0.0334463
420.961	0.0333805
421.174	0.03337177
421.386	0.03316932
421.598	0.03265742
421.81	0.03243316
422.022	0.03214974
422.234	0.03224246
422.446	0.03216756
422.658	0.03192384
422.87	0.03193045
423.082	0.03177212
423.294	0.03190013
423.506	0.03196006
423.718	0.0317322
423.93	0.03149855
424.142	0.03148443
424.354	0.03128044
424.566	0.0313147
424.778	0.03104058
424.99	0.03094308
425.202	0.03083449
425.414	0.0307295
425.625	0.03083593
425.837	0.03092833
426.049	0.03094911
426.261	0.03103175
426.473	0.03099311
426.684	0.03094491
426.896	0.03097956
427.108	0.03054034
427.32	0.0302439
427.531	0.03007159
427.743	0.02995778
427.955	0.02994955
428.167	0.03007842
428.378	0.02981769
428.59	0.02995677
428.802	0.02986157
429.013	0.02962075
429.225	0.0294031
429.436	0.0291131
429.648	0.02885249
429.86	0.02884458
430.071	0.0287233
430.283	0.02857738
430.494	0.02842511
430.706	0.02831012
430.917	0.02823347
431.129	0.02803427
431.34	0.02772854
431.552	0.0274644
431.763	0.02742506
431.975	0.02718605
432.186	0.02700569
432.398	0.02700473
432.609	0.02685556
432.821	0.02689997
433.032	0.02657649
433.243	0.0264198
433.455	0.02650233
433.666	0.02647223
433.877	0.02639547
434.089	0.02637441
434.3	0.02630173
434.511	0.02653073
434.723	0.02640767
434.934	0.02643668
435.145	0.02629773
435.356	0.02605516
435.568	0.02605693
435.779	0.02587744
435.99	0.02568777
436.201	0.0256819
436.412	0.02533433
436.624	0.02532191
436.835	0.0252425
437.046	0.02512307
437.257	0.02488218
437.468	0.02480394
437.679	0.02437094
437.89	0.0240752
438.101	0.02381977
438.312	0.02360267
438.523	0.02331285
438.734	0.02312718
438.945	0.02281864
439.156	0.02289227
439.367	0.02293223
439.578	0.0227286
439.789	0.02264329
440	0.02241908
440.211	0.02255023
440.422	0.02236922
440.633	0.02223406
440.844	0.02195449
441.055	0.02188405
441.266	0.02177171
441.477	0.02176467
441.687	0.02153067
441.898	0.02156721
442.109	0.02130617
442.32	0.02123374
442.531	0.02107426
442.741	0.02095077
442.952	0.02078157
443.163	0.02064761
443.374	0.0203275
443.584	0.02040762
443.795	0.0202703
444.006	0.02010447
444.216	0.01992472
444.427	0.019834
444.638	0.01976873
444.848	0.01978944
445.059	0.0196483
445.27	0.01958348
445.48	0.01959138
445.691	0.01955167
445.901	0.01946353
446.112	0.01922952
446.323	0.01904809
446.533	0.01869442
446.744	0.01864831
446.954	0.01843336
447.165	0.01815008
447.375	0.0178684
447.586	0.01766631
447.796	0.01753126
448.006	0.01741853
448.217	0.01720272
448.427	0.01718495
448.638	0.0172756
448.848	0.0172482
449.058	0.01733546
449.269	0.01718856
449.479	0.01712747
449.689	0.01704894
449.9	0.01690805
450.11	0.01666808
450.32	0.01653009
450.531	0.01619452
450.741	0.01617858
450.951	0.01601861
451.161	0.01582217
451.372	0.01565288
451.582	0.01546765
451.792	0.01539977
452.002	0.01540734
452.212	0.01529522
452.422	0.01524817
452.633	0.01516988
452.843	0.01508823
453.053	0.01502606
453.263	0.01491123
453.473	0.01475806
453.683	0.01445109
453.893	0.0143486
454.103	0.01423262
454.313	0.01407551
454.523	0.01393396
454.733	0.01380657
454.943	0.01368666
455.153	0.01371006
455.363	0.01363406
455.573	0.01349983
455.783	0.01348161
455.993	0.01332631
456.203	0.01327427
456.413	0.01320592
456.623	0.01309741
456.833	0.01288058
457.042	0.01276034
457.252	0.01251591
457.462	0.01250721
457.672	0.01226061
457.882	0.01221845
458.091	0.01208614
458.301	0.01209687
458.511	0.01210253
458.721	0.01205477
458.931	0.01192916
459.14	0.01196794
459.35	0.01193598
459.56	0.01187236
459.769	0.01180827
459.979	0.0116796
460.189	0.01169315
460.398	0.01166889
460.608	0.01154029
460.817	0.0114464
461.027	0.01140556
461.237	0.01133942
461.446	0.0113153
461.656	0.01115623
461.865	0.0109446
462.075	0.01094635
462.284	0.01067986
462.494	0.01061326
462.703	0.01050891
462.913	0.01043619
463.122	0.01047325
463.332	0.01043995
463.541	0.01028597
463.751	0.01021418
463.96	0.01016006
464.169	0.01011167
464.379	0.01003354
464.588	0.00998045
464.797	0.00995504
465.007	0.009924
465.216	0.00985677
465.425	0.00991941
465.635	0.00978045
465.844	0.00964681
466.053	0.00952336
466.263	0.00939842
466.472	0.00920502
466.681	0.00920445
466.89	0.00898805
467.099	0.00893256
467.309	0.00885242
467.518	0.00870631
467.727	0.00880195
467.936	0.00889672
468.145	0.00888979
468.354	0.00881189
468.563	0.0088514
468.772	0.00884966
468.982	0.00881666
469.191	0.00853538
469.4	0.00841202
469.609	0.00839172
469.818	0.00836432
470.027	0.00824197
470.236	0.00821726
470.445	0.00819325
470.654	0.00826035
470.863	0.00822361
471.072	0.00812157
471.28	0.00811933
471.489	0.00811197
471.698	0.00813573
471.907	0.00805119
472.116	0.00805071
472.325	0.00799883
472.534	0.00793898
472.743	0.0078426
472.951	0.0077805
473.16	0.00768591
473.369	0.00767666
473.578	0.00767394
473.786	0.00761619
473.995	0.00757264
474.204	0.0076018
474.413	0.00758276
474.621	0.0075646
474.83	0.00754303
475.039	0.00743432
475.247	0.0074287
475.456	0.00735151
475.665	0.00731569
475.873	0.00727557
476.082	0.00735692
476.291	0.00734424
476.499	0.0073674
476.708	0.00737335
476.916	0.00745465
477.125	0.00734662
477.333	0.00729698
477.542	0.0071575
477.75	0.00711576
477.959	0.00706397
478.167	0.00695522
478.376	0.00694547
478.584	0.00700568
478.793	0.0069718
479.001	0.00698181
479.209	0.00704997
479.418	0.00706642
479.626	0.00712773
479.834	0.00715244
480.043	0.00709829
480.251	0.00716928
480.459	0.00716604
480.668	0.00712462
480.876	0.00712299
481.084	0.00709024
481.293	0.00701983
481.501	0.00709579
481.709	0.00709769
481.917	0.00710533
482.125	0.00706206
482.334	0.00710162
482.542	0.00712075
482.75	0.00713055
482.958	0.00705434
483.166	0.00702309
483.374	0.00702266
483.583	0.00701534
483.791	0.00692099
483.999	0.00687315
484.207	0.00693391
484.415	0.00696108
484.623	0.00699356
484.831	0.00696748
485.039	0.00703571
485.247	0.00701277
485.455	0.00707007
485.663	0.00699917
485.871	0.00694666
486.079	0.00696589
486.287	0.00692929
486.495	0.0068665
486.702	0.00692764
486.91	0.00696136
487.118	0.00694539
487.326	0.00695994
487.534	0.00693671
487.742	0.00694709
487.95	0.00698605
488.157	0.00699044
488.365	0.00700148
488.573	0.00704945
488.781	0.00710872
488.988	0.00706193
489.196	0.00714061
489.404	0.00713628
489.612	0.00719217
489.819	0.00720387
490.027	0.00725188
490.235	0.00726644
490.442	0.00736823
490.65	0.00730599
490.857	0.00738094
491.065	0.00736187
491.273	0.00737236
491.48	0.00739664
491.688	0.00747154
491.895	0.00743762
492.103	0.00750095
492.31	0.0074787
492.518	0.00756364
492.725	0.00757987
492.933	0.00757509
493.14	0.00759967
493.348	0.00766076
493.555	0.00776031
493.763	0.00781984
493.97	0.00782541
494.177	0.00783686
494.385	0.0078254
494.592	0.00776603
494.8	0.00774034
495.007	0.00768603
495.214	0.00770621
495.422	0.0077311
495.629	0.00775167
495.836	0.00781087
496.043	0.00787854
496.251	0.00792678
496.458	0.00801665
496.665	0.00809178
496.872	0.00808135
497.08	0.00813623
497.287	0.00817002
497.494	0.00819707
497.701	0.00827624
497.908	0.00826242
498.115	0.00826848
498.322	0.00836012
498.53	0.00837263
498.737	0.008479
498.944	0.00852691
499.151	0.00858139
499.358	0.00861825
499.565	0.00865863
499.772	0.00870248
499.979	0.00877288
500.186	0.00875821
500.393	0.00882577
500.6	0.00882706
500.807	0.00895526
501.014	0.00900991
501.221	0.00906286
501.427	0.00914315
501.634	0.00922278
501.841	0.00927276
502.048	0.00933624
502.255	0.0093471
502.462	0.00942151
502.669	0.00944949
502.875	0.00948223
503.082	0.00953201
503.289	0.00956315
503.496	0.00961385
503.702	0.00964979
503.909	0.00963512
504.116	0.0096765
504.323	0.00969897
504.529	0.0097187
504.736	0.00980429
504.943	0.00984277
505.149	0.00988907
505.356	0.00997065
505.563	0.01007562
505.769	0.01016093
505.976	0.01022481
506.182	0.01025718
506.389	0.01030462
506.595	0.01037306
506.802	0.01040359
507.008	0.01041262
507.215	0.01045349
507.421	0.01055052
507.628	0.01062779
507.834	0.01068048
508.041	0.01073192
508.247	0.01080828
508.454	0.01088605
508.66	0.01094941
508.866	0.01098045
509.073	0.01103051
509.279	0.01110476
509.486	0.01116864
509.692	0.01124578
509.898	0.01131856
510.105	0.01139876
510.311	0.01146759
510.517	0.01156253
510.723	0.01164661
510.93	0.0117061
511.136	0.01177803
511.342	0.01184438
511.548	0.0119621
511.754	0.01205297
511.961	0.01210037
512.167	0.01216923
512.373	0.01224461
512.579	0.01235415
512.785	0.0123916
512.991	0.01243021
513.197	0.01247821
513.404	0.01251878
513.61	0.01261069
513.816	0.01269643
514.022	0.01275025
514.228	0.01282034
514.434	0.01285328
514.64	0.01294202
514.846	0.01305802
515.052	0.01314692
515.258	0.01323206
515.464	0.01327417
515.669	0.0133542
515.875	0.01345393
516.081	0.01346347
516.287	0.0135602
516.493	0.01359536
516.699	0.01365827
516.905	0.01372945
517.111	0.01380833
517.316	0.01390702
517.522	0.0140398
517.728	0.01409859
517.934	0.01419109
518.139	0.01429143
518.345	0.01439546
518.551	0.01447989
518.757	0.01454874
518.962	0.01468606
519.168	0.01477691
519.374	0.01486921
519.579	0.0149389
519.785	0.01498413
519.991	0.01510184
520.196	0.01522999
520.402	0.01526665
520.607	0.01534079
520.813	0.01543689
521.018	0.01552528
521.224	0.01568247
521.429	0.0157934
521.635	0.01584446
521.84	0.01595699
522.046	0.01605205
522.251	0.01618304
522.457	0.01627276
522.662	0.01638024
522.868	0.01645176
523.073	0.01654612
523.279	0.01664711
523.484	0.01675503
523.689	0.01681838
523.895	0.01696485
524.1	0.01706079
524.305	0.01718035
524.511	0.0172708
524.716	0.01736613
524.921	0.01745691
525.126	0.01757913
525.332	0.01762251
525.537	0.01769085
525.742	0.01780552
525.947	0.01793858
526.153	0.01803196
526.358	0.01816123
526.563	0.01824626
526.768	0.01840594
526.973	0.01852659
527.178	0.01864967
527.383	0.01881985
527.588	0.01894005
527.794	0.01904784
527.999	0.01917702
528.204	0.01931171
528.409	0.01945307
528.614	0.01951758
528.819	0.01956114
529.024	0.01965882
529.229	0.0198042
529.434	0.0198949
529.639	0.0200148
529.843	0.02016058
530.048	0.02027815
530.253	0.02040333
530.458	0.02057913
530.663	0.0207006
530.868	0.02091112
531.073	0.02104165
531.278	0.02115746
531.482	0.02134619
531.687	0.0214839
531.892	0.02157523
532.097	0.02171487
532.302	0.0217798
532.506	0.02185411
532.711	0.02195138
532.916	0.02208769
533.12	0.02221826
533.325	0.02238573
533.53	0.0225175
533.734	0.02266474
533.939	0.02282938
534.144	0.02298762
534.348	0.02311395
534.553	0.02324228
534.757	0.02335159
534.962	0.02344576
535.167	0.0236095
535.371	0.02375644
535.576	0.02391494
535.78	0.02402191
535.985	0.02417395
536.189	0.02432034
536.394	0.02449617
536.598	0.02462946
536.803	0.024748
537.007	0.02484956
537.211	0.02499447
537.416	0.02515102
537.62	0.02530465
537.825	0.02544471
538.029	0.02557012
538.233	0.02573455
538.438	0.02589965
538.642	0.02609169
538.846	0.02626432
539.05	0.02642367
539.255	0.02662518
539.459	0.02682843
539.663	0.02696413
539.867	0.02713819
540.072	0.02725818
540.276	0.02739468
540.48	0.02759467
540.684	0.02769147
540.888	0.02779398
541.092	0.02799451
541.297	0.02815157
541.501	0.02831769
541.705	0.02847177
541.909	0.02859988
542.113	0.0287815
542.317	0.02898265
542.521	0.02916387
542.725	0.02933901
542.929	0.02948702
543.133	0.02966179
543.337	0.02982935
543.541	0.02999924
543.745	0.03017484
543.949	0.03032164
544.153	0.03048646
544.357	0.03069655
544.56	0.0308965
544.764	0.03110366
544.968	0.0312987
545.172	0.03146943
545.376	0.03165546
545.58	0.03179437
545.783	0.03205647
545.987	0.03220158
546.191	0.03233692
546.395	0.03253527
546.598	0.0327268
546.802	0.03291057
547.006	0.03310581
547.21	0.03321112
547.413	0.03345675
547.617	0.03366406
547.821	0.03379319
548.024	0.0339866
548.228	0.03413381
548.431	0.03434064
548.635	0.03449789
548.839	0.03464177
549.042	0.03484692
549.246	0.03506145
549.449	0.03522615
549.653	0.0355177
549.856	0.03570869
550.06	0.03594649
550.263	0.03619841
550.467	0.03644992
550.67	0.03664152
550.874	0.03683219
551.077	0.03696857
551.28	0.03719658
551.484	0.0373655
551.687	0.03751812
551.891	0.03765141
552.094	0.03784262
552.297	0.0380781
552.501	0.03833455
552.704	0.0385565
552.907	0.038762
553.11	0.03902702
553.314	0.03924192
553.517	0.03948083
553.72	0.03969563
553.923	0.03987212
554.127	0.04004862
554.33	0.04029674
554.533	0.04047918
554.736	0.04070483
554.939	0.04092788
555.142	0.04113818
555.345	0.04136481
555.549	0.04156464
555.752	0.04176778
555.955	0.0419521
556.158	0.04218592
556.361	0.04241308
556.564	0.04259808
556.767	0.04283733
556.97	0.04307502
557.173	0.04329825
557.376	0.04355345
557.579	0.04373739
557.782	0.04394773
557.984	0.04422943
558.187	0.04446289
558.39	0.04472477
558.593	0.04497785
558.796	0.04520819
558.999	0.04545572
559.202	0.04570339
559.404	0.04595242
559.607	0.04616471
559.81	0.04637186
560.013	0.0466114
560.216	0.0468797
560.418	0.04712566
560.621	0.04735888
560.824	0.04757333
561.026	0.04782705
561.229	0.0480434
561.432	0.04827885
561.634	0.04848678
561.837	0.0487406
562.04	0.04897284
562.242	0.04924753
562.445	0.04942793
562.647	0.04969804
562.85	0.04991131
563.053	0.05019242
563.255	0.05040294
563.458	0.05062964
563.66	0.05085104
563.863	0.05117655
564.065	0.05142505
564.268	0.05167285
564.47	0.05190153
564.672	0.05215059
564.875	0.05242457
565.077	0.05262028
565.28	0.05285793
565.482	0.05311642
565.684	0.05339894
565.887	0.05362594
566.089	0.05390034
566.291	0.05416024
566.494	0.05446672
566.696	0.05471448
566.898	0.05498615
567.1	0.05525603
567.303	0.05555754
567.505	0.05580344
567.707	0.05605984
567.909	0.05628767
568.111	0.0565522
568.314	0.0568358
568.516	0.05712296
568.718	0.05739333
568.92	0.05771924
569.122	0.0579539
569.324	0.05826475
569.526	0.05847959
569.728	0.05876754
569.93	0.05897996
570.132	0.05920076
570.334	0.05943248
570.536	0.05975522
570.738	0.05998676
570.94	0.06028836
571.142	0.06056261
571.344	0.06085219
571.546	0.06113927
571.748	0.06140982
571.95	0.06166802
572.152	0.06196979
572.354	0.06223107
572.555	0.06249854
572.757	0.06277534
572.959	0.06305641
573.161	0.06334579
573.363	0.06355131
573.564	0.06385121
573.766	0.06411653
573.968	0.06437317
574.17	0.06461784
574.371	0.06487078
574.573	0.06511846
574.775	0.06544734
574.976	0.06568239
575.178	0.06597849
575.38	0.06625455
575.581	0.06654375
575.783	0.06686315
575.985	0.0671554
576.186	0.06742609
576.388	0.06773074
576.589	0.0680152
576.791	0.06826129
576.992	0.06857108
577.194	0.06881212
577.395	0.06909582
577.597	0.06937106
577.798	0.06965925
578	0.06990034
578.201	0.07022885
578.402	0.07049352
578.604	0.07077148
578.805	0.07100495
579.007	0.07131417
579.208	0.07161185
579.409	0.07191039
579.611	0.07217524
579.812	0.07246454
580.013	0.07280211
580.215	0.07313357
580.416	0.07342315
580.617	0.07372103
580.818	0.07404145
581.019	0.07434115
581.221	0.07464722
581.422	0.07491417
581.623	0.0752084
581.824	0.07549793
582.025	0.07575811
582.226	0.07600837
582.428	0.07631619
582.629	0.07661549
582.83	0.07699121
583.031	0.07731374
583.232	0.07760119
583.433	0.07791404
583.634	0.07825104
583.835	0.07852289
584.036	0.07878051
584.237	0.07899243
584.438	0.07922728
584.639	0.07949435
584.84	0.07980553
585.041	0.08005554
585.242	0.08034489
585.442	0.08066632
585.643	0.08094497
585.844	0.08126934
586.045	0.08159637
586.246	0.08181939
586.447	0.08210091
586.647	0.08235994
586.848	0.08263126
587.049	0.08294007
587.25	0.08320742
587.45	0.08345189
587.651	0.08374543
587.852	0.08407837
588.053	0.0844318
588.253	0.08470412
588.454	0.08499546
588.655	0.08526865
588.855	0.08560699
589.056	0.08593467
589.256	0.0861995
589.457	0.08648447
589.658	0.08680602
589.858	0.08709014
590.059	0.0874396
590.259	0.08772815
590.46	0.08800705
590.66	0.08835283
590.861	0.08863315
591.061	0.08890037
591.262	0.0891963
591.462	0.08948528
591.662	0.08976288
591.863	0.09005959
592.063	0.09028136
592.264	0.09058531
592.464	0.09087049
592.664	0.09116665
592.865	0.09148152
593.065	0.09174635
593.265	0.09203025
593.465	0.09234851
593.666	0.09259392
593.866	0.09286353
594.066	0.0931509
594.266	0.09334058
594.467	0.09365558
594.667	0.09387312
594.867	0.0941782
595.067	0.09444149
595.267	0.09471428
595.467	0.09499105
595.668	0.09531224
595.868	0.09561102
596.068	0.09598255
596.268	0.09618419
596.468	0.09651552
596.668	0.09683928
596.868	0.09712299
597.068	0.09741069
597.268	0.09770412
597.468	0.0979317
597.668	0.09829389
597.868	0.09854651
598.068	0.09883317
598.268	0.09910375
598.467	0.09942965
598.667	0.09964123
598.867	0.09991736
599.067	0.10017622
599.267	0.10042757
599.467	0.10066375
599.667	0.10092252
599.866	0.10116699
600.066	0.10143573
600.266	0.10171541
600.466	0.10197614
600.665	0.10220954
600.865	0.10254585
601.065	0.10283767
601.264	0.10307242
601.464	0.10336089
601.664	0.10369758
601.863	0.103976
602.063	0.10432128
602.263	0.10448102
602.462	0.10468863
602.662	0.10493159
602.861	0.10522393
603.061	0.10541905
603.26	0.10566643
603.46	0.10586755
603.659	0.10618627
603.859	0.10645824
604.058	0.10669495
604.258	0.10695396
604.457	0.10724359
604.657	0.10745564
604.856	0.10766118
605.056	0.10793467
605.255	0.10821253
605.454	0.10854477
605.654	0.10874218
605.853	0.10892949
606.052	0.10922858
606.252	0.10953467
606.451	0.10977126
606.65	0.11002574
606.849	0.11021725
607.049	0.11049164
607.248	0.11075361
607.447	0.11097212
607.646	0.11120533
607.845	0.11145905
608.045	0.11164799
608.244	0.11199533
608.443	0.11223495
608.642	0.11253523
608.841	0.11277861
609.04	0.11303706
609.239	0.11329488
609.438	0.11352884
609.637	0.11372048
609.836	0.1139567
610.035	0.11411544
610.234	0.11436913
610.433	0.11460089
610.632	0.11476987
610.831	0.11509981
611.03	0.11524962
611.229	0.11552041
611.428	0.11582506
611.627	0.11606834
611.826	0.11633289
612.025	0.11665784
612.224	0.11684342
612.422	0.11709576
612.621	0.11731199
612.82	0.11754476
613.019	0.11780141
613.218	0.11810901
613.416	0.11826606
613.615	0.11853768
613.814	0.11883141
614.012	0.11911194
614.211	0.11929722
614.41	0.11955151
614.608	0.1196978
614.807	0.1199554
615.006	0.12017202
615.204	0.12037516
615.403	0.12062676
615.602	0.12090147
615.8	0.12116511
615.999	0.12138467
616.197	0.1216134
616.396	0.12191917
616.594	0.12208522
616.793	0.12225952
616.991	0.12247434
617.19	0.12257112
617.388	0.12283883
617.586	0.1230373
617.785	0.12316661
617.983	0.12342815
618.182	0.12361692
618.38	0.12378239
618.578	0.1240498
618.777	0.12428942
618.975	0.12454714
619.173	0.12478355
619.372	0.12499956
619.57	0.12518508
619.768	0.12541164
619.966	0.12562669
620.165	0.1257354
620.363	0.12595563
620.561	0.12609287
620.759	0.12631939
620.957	0.12654982
621.155	0.12673268
621.354	0.12688413
621.552	0.12718982
621.75	0.1273837
621.948	0.12763821
622.146	0.12783739
622.344	0.12804376
622.542	0.12826565
622.74	0.12851776
622.938	0.12864555
623.136	0.12886863
623.334	0.12909315
623.532	0.12925004
623.73	0.12945457
623.928	0.12969835
624.126	0.1298931
624.324	0.13013869
624.522	0.13024806
624.719	0.1304273
624.917	0.13062809
625.115	0.13077206
625.313	0.13097509
625.511	0.13119446
625.708	0.13130413
625.906	0.13152428
626.104	0.13166589
626.302	0.13193957
626.499	0.13217188
626.697	0.13231716
626.895	0.13245972
627.093	0.1326668
627.29	0.13286635
627.488	0.13308961
627.686	0.13325727
627.883	0.13339356
628.081	0.13355531
628.278	0.13385734
628.476	0.1340235
628.673	0.13420964
628.871	0.13437021
629.068	0.13453073
629.266	0.13478639
629.463	0.13494044
629.661	0.13503721
629.858	0.13519992
630.056	0.13533829
630.253	0.13550367
630.451	0.13564145
630.648	0.13576764
630.845	0.13594525
631.043	0.13610866
631.24	0.13631989
631.438	0.13651518
631.635	0.13669284
631.832	0.13681749
632.029	0.13697606
632.227	0.13717992
632.424	0.13734577
632.621	0.13748463
632.818	0.13761037
633.016	0.13778214
633.213	0.13795983
633.41	0.13815155
633.607	0.13830708
633.804	0.13843945
634.001	0.13861773
634.199	0.13886316
634.396	0.13901789
634.593	0.13915692
634.79	0.13931619
634.987	0.13949788
635.184	0.13969261
635.381	0.13989001
635.578	0.14009755
635.775	0.14028784
635.972	0.1404888
636.169	0.14063761
636.366	0.14075305
636.563	0.1408703
636.76	0.1409566
636.957	0.14103537
637.153	0.14110053
637.35	0.141276
637.547	0.14141866
637.744	0.14158959
637.941	0.14176538
638.138	0.14197202
638.334	0.14209006
638.531	0.14231632
638.728	0.14247314
638.925	0.14269915
639.121	0.14282897
639.318	0.14296241
639.515	0.14308197
639.711	0.14329482
639.908	0.14339454
640.105	0.1435357
640.301	0.14364494
640.498	0.14377822
640.695	0.14396008
640.891	0.14408966
641.088	0.14417666
641.284	0.14433972
641.481	0.144454
641.677	0.1445287
641.874	0.14469186
642.07	0.14481677
642.267	0.14499745
642.463	0.14514533
642.66	0.14533298
642.856	0.14546232
643.053	0.14560429
643.249	0.14574166
643.445	0.14586325
643.642	0.14595704
643.838	0.14611853
644.034	0.14624281
644.231	0.14636404
644.427	0.14648726
644.623	0.14663084
644.82	0.14683158
645.016	0.14700209
645.212	0.14710903
645.408	0.14724261
645.604	0.14751578
645.801	0.14774273
645.997	0.14788104
646.193	0.1479166
646.389	0.14810203
646.585	0.14823443
646.781	0.14839894
646.977	0.14844866
647.173	0.14851833
647.37	0.14861273
647.566	0.1488139
647.762	0.14887602
647.958	0.14901109
648.154	0.14905112
648.35	0.14918664
648.546	0.14932918
648.742	0.14958178
648.937	0.14961604
649.133	0.14979302
649.329	0.14998786
649.525	0.15016459
649.721	0.15031602
649.917	0.15053066
650.113	0.15056855
650.309	0.15081182
650.504	0.15089175
650.7	0.15096445
650.896	0.15116232
651.092	0.1512884
651.287	0.15136092
651.483	0.15154849
651.679	0.1516537
651.875	0.1518804
652.07	0.15195606
652.266	0.1520021
652.462	0.1521078
652.657	0.15225444
652.853	0.15231266
653.048	0.15240395
653.244	0.15242803
653.44	0.15258505
653.635	0.15269604
653.831	0.15285312
654.026	0.15299697
654.222	0.15316301
654.417	0.15336006
654.613	0.15350653
654.808	0.15364109
655.004	0.1538241
655.199	0.15392771
655.394	0.15402325
655.59	0.15419646
655.785	0.15430425
655.98	0.15449701
656.176	0.15460891
656.371	0.15481215
656.566	0.15496176
656.762	0.1550559
656.957	0.15520335
657.152	0.15531687
657.348	0.15545385
657.543	0.15561768
657.738	0.15573239
657.933	0.15582587
658.128	0.15598911
658.324	0.15597741
658.519	0.15610672
658.714	0.15620442
658.909	0.15635593
659.104	0.15645166
659.299	0.1565924
659.494	0.15668012
659.689	0.15690918
659.884	0.15701419
660.079	0.1571079
660.274	0.15723438
660.469	0.15736259
660.664	0.15754043
660.859	0.15771235
661.054	0.15785505
661.249	0.15805776
661.444	0.15818311
661.639	0.15828261
661.834	0.15838053
662.029	0.15852479
662.224	0.15860593
662.418	0.15873312
662.613	0.15884058
662.808	0.15898039
663.003	0.1591621
663.198	0.15931756
663.392	0.15940529
663.587	0.15970101
663.782	0.1597849
663.977	0.159903
664.171	0.16005656
664.366	0.16017146
664.561	0.16031674
664.755	0.16051655
664.95	0.16053712
665.144	0.16071832
665.339	0.16088793
665.534	0.16101969
665.728	0.16117729
665.923	0.16129928
666.117	0.16137868
666.312	0.16150789
666.506	0.1616913
666.701	0.161801
666.895	0.16194934
667.09	0.16202282
667.284	0.16219233
667.479	0.16234472
667.673	0.16251209
667.867	0.16265396
668.062	0.16278106
668.256	0.16292675
668.45	0.16316748
668.645	0.16332391
668.839	0.16347081
669.033	0.16362505
669.228	0.16370515
669.422	0.16387697
669.616	0.16402487
669.81	0.16417304
670.004	0.16424241
670.199	0.1643826
670.393	0.16447149
670.587	0.16461103
670.781	0.16474368
670.975	0.16493891
671.169	0.16498166
671.363	0.16519142
671.558	0.16528598
671.752	0.16550399
671.946	0.16566936
672.14	0.16584196
672.334	0.16591165
672.528	0.16615396
672.722	0.16625561
672.916	0.16649326
673.11	0.16659884
673.304	0.1668179
673.497	0.16694649
673.691	0.16717141
673.885	0.16727634
674.079	0.16751509
674.273	0.16761298
674.467	0.16783201
674.661	0.16790839
674.854	0.16809326
675.048	0.16824905
675.242	0.16845797
675.436	0.16858338
675.629	0.16877205
675.823	0.16885207
676.017	0.16903644
676.211	0.16915747
676.404	0.16926654
676.598	0.1693638
676.792	0.16951167
676.985	0.1697065
677.179	0.16987551
677.372	0.16999221
677.566	0.17018724
677.76	0.17035928
677.953	0.17054017
678.147	0.17072316
678.34	0.17089724
678.534	0.17106527
678.727	0.17129975
678.921	0.17146048
679.114	0.17164876
679.307	0.17187531
679.501	0.17201105
679.694	0.17212283
679.888	0.17231432
680.081	0.17245629
680.274	0.17260566
680.468	0.17278971
680.661	0.17289031
680.854	0.17313799
681.048	0.17332845
681.241	0.17350668
681.434	0.17367958
681.627	0.17386639
681.821	0.17399378
682.014	0.17424729
682.207	0.17435463
682.4	0.17451007
682.593	0.17468302
682.786	0.17482323
682.98	0.17501766
683.173	0.17526156
683.366	0.17541789
683.559	0.17560055
683.752	0.17580275
683.945	0.17597084
684.138	0.17621881
684.331	0.1763379
684.524	0.17652474
684.717	0.17663911
684.91	0.17683932
685.103	0.1770053
685.296	0.17721795
685.489	0.17741137
685.682	0.17760016
685.874	0.17779336
686.067	0.17802683
686.26	0.17822055
686.453	0.17838709
686.646	0.17850487
686.839	0.17869371
687.031	0.17887443
687.224	0.17898694
687.417	0.17915671
687.61	0.17932286
687.802	0.17949935
687.995	0.17974935
688.188	0.17991919
688.38	0.18010652
688.573	0.18032974
688.766	0.1805157
688.958	0.18067097
689.151	0.18084699
689.343	0.18102918
689.536	0.18114652
689.729	0.18131173
689.921	0.18151984
690.114	0.18163737
690.306	0.18182874
690.499	0.1820725
690.691	0.18227619
690.884	0.18251267
691.076	0.18276896
691.268	0.18290626
691.461	0.18311623
691.653	0.18332487
691.846	0.1834996
692.038	0.18369542
692.23	0.18386407
692.423	0.18407227
692.615	0.18429606
692.807	0.18456089
692.999	0.18479727
693.192	0.1849638
693.384	0.18516403
693.576	0.18531089
693.768	0.1855011
693.961	0.18562283
694.153	0.18583108
694.345	0.18596396
694.537	0.18620169
694.729	0.18636899
694.921	0.18658586
695.113	0.18678608
695.305	0.18701047
695.498	0.18711569
695.69	0.18739782
695.882	0.18760395
696.074	0.18781684
696.266	0.18806917
696.458	0.18823314
696.65	0.18845456
696.842	0.18872312
697.033	0.18887794
697.225	0.18902737
697.417	0.18925329
697.609	0.1894277
697.801	0.18962638
697.993	0.18988187
698.185	0.19009447
698.376	0.19027611
698.568	0.19051855
698.76	0.1907192
698.952	0.19092596
699.144	0.19115462
699.335	0.19131767
699.527	0.19150842
699.719	0.19169678
699.91	0.19194261
700.102	0.19212281
700.294	0.19237809
700.485	0.1925925
700.677	0.19278605
700.869	0.19298408
701.06	0.19323149
701.252	0.193401
701.443	0.19360598
701.635	0.19382295
701.826	0.19407267
702.018	0.19431911
702.209	0.19455723
702.401	0.19473371
702.592	0.19500349
702.784	0.19518844
702.975	0.19536042
703.166	0.19550918
703.358	0.19568893
703.549	0.19588128
703.741	0.19614409
703.932	0.19631662
704.123	0.19657711
704.315	0.196806
704.506	0.19709144
704.697	0.19734303
704.888	0.19761292
705.08	0.19778818
705.271	0.19798158
705.462	0.19814689
705.653	0.19833337
705.844	0.19849814
706.035	0.19873007
706.227	0.19889148
706.418	0.19912534
706.609	0.19934511
706.8	0.19965252
706.991	0.19987828
707.182	0.20008415
707.373	0.2002287
707.564	0.2004389
707.755	0.20060022
707.946	0.20076463
708.137	0.20083371
708.328	0.20100271
708.519	0.20123074
708.71	0.20145678
708.901	0.20164387
709.092	0.20193558
709.283	0.202211
709.473	0.20249807
709.664	0.20276096
709.855	0.20294254
710.046	0.20319281
710.237	0.20340716
710.427	0.20358626
710.618	0.20378833
710.809	0.20402616
711	0.20426529
711.19	0.20443903
711.381	0.20462953
711.572	0.20486372
711.762	0.20508284
711.953	0.20524893
712.144	0.20541969
712.334	0.20558243
712.525	0.20587952
712.715	0.20612469
712.906	0.20636587
713.097	0.20653979
713.287	0.20683407
713.478	0.20706783
713.668	0.20727589
713.859	0.20745051
714.049	0.20759042
714.239	0.20783377
714.43	0.20812831
714.62	0.20831396
714.811	0.20856313
715.001	0.208776
715.191	0.20900057
715.382	0.20922035
715.572	0.2094115
715.762	0.20951697
715.953	0.20972525
716.143	0.20995127
716.333	0.21019434
716.523	0.21040187
716.714	0.21070138
716.904	0.21087291
717.094	0.21120357
717.284	0.21140445
717.474	0.21157297
717.664	0.21177137
717.855	0.21202587
718.045	0.21217002
718.235	0.21240596
718.425	0.21259627
718.615	0.21279901
718.805	0.21302405
718.995	0.21326366
719.185	0.21346848
719.375	0.21369439
719.565	0.21396731
719.755	0.2141566
719.945	0.21439513
720.135	0.21463968
720.325	0.21483771
720.515	0.21509238
720.704	0.21532585
720.894	0.21555631
721.084	0.21580911
721.274	0.21607881
721.464	0.21630867
721.654	0.21662323
721.843	0.21683969
722.033	0.21706471
722.223	0.21719976
722.413	0.21745288
722.602	0.21767067
722.792	0.21793986
722.982	0.21808039
723.171	0.2182778
723.361	0.2184897
723.55	0.21877653
723.74	0.21893687
723.93	0.21912955
724.119	0.21930746
724.309	0.21953241
724.498	0.21972957
724.688	0.21999162
724.877	0.22018153
725.067	0.22038444
725.256	0.22060007
725.446	0.22076291
725.635	0.22093085
725.825	0.22110849
726.014	0.22127577
726.203	0.22147617
726.393	0.22162529
726.582	0.22172968
726.771	0.22193023
726.961	0.22213565
727.15	0.2222735
727.339	0.22245175
727.529	0.22261112
727.718	0.22283387
727.907	0.22303989
728.096	0.22320647
728.286	0.22341434
728.475	0.22367398
728.664	0.2238619
728.853	0.22399923
729.042	0.22409805
729.231	0.22427663
729.42	0.22443083
729.609	0.22453812
729.799	0.22465353
729.988	0.22478927
730.177	0.22493247
730.366	0.22512574
730.555	0.22529094
730.744	0.22541793
730.933	0.22558537
731.122	0.22571525
731.31	0.22588173
731.499	0.22612016
731.688	0.22631101
731.877	0.22642477
732.066	0.22656188
732.255	0.22670733
732.444	0.22688799
732.632	0.22702646
732.821	0.22710062
733.01	0.22721715
733.199	0.22731842
733.388	0.22746652
733.576	0.2275918
733.765	0.22773103
733.954	0.2278699
734.142	0.22804597
734.331	0.22819484
734.52	0.22840995
734.708	0.22862824
734.897	0.22881656
735.086	0.22896709
735.274	0.22912337
735.463	0.22924393
735.651	0.22938974
735.84	0.22958959
736.028	0.22971461
736.217	0.22984596
736.405	0.22998647
736.594	0.23014132
736.782	0.23030055
736.971	0.23041823
737.159	0.2304845
737.347	0.23060529
737.536	0.23073555
737.724	0.2308433
737.912	0.23095977
738.101	0.2310397
738.289	0.23120195
738.477	0.23130073
738.666	0.23142344
738.854	0.23159825
739.042	0.23174854
739.23	0.23181143
739.418	0.23192059
739.607	0.2319869
739.795	0.23212182
739.983	0.23226831
740.171	0.23237309
740.359	0.23249826
740.547	0.23262923
740.735	0.23281903
740.923	0.23301717
741.112	0.23319245
741.3	0.23332162
741.488	0.23344344
741.676	0.23363635
741.864	0.23375058
742.052	0.23393296
742.239	0.23395959
742.427	0.2340796
742.615	0.23409716
742.803	0.23416143
742.991	0.23421368
743.179	0.23434898
743.367	0.23438364
743.555	0.23458223
743.742	0.23470976
743.93	0.23490583
744.118	0.23501167
744.306	0.23516336
744.494	0.23526606
744.681	0.23539012
744.869	0.23547926
745.057	0.23553124
745.244	0.23561775
745.432	0.23576949
745.62	0.23582711
745.807	0.23596222
745.995	0.23604701
746.182	0.23610337
746.37	0.23621187
746.558	0.23627594
746.745	0.23635206
746.933	0.23644342
747.12	0.23653454
747.308	0.23667742
747.495	0.23678959
747.683	0.23684714
747.87	0.2370183
748.057	0.23714065
748.245	0.23726015
748.432	0.23737241
748.62	0.23738124
748.807	0.23745194
748.994	0.23759386
749.182	0.23759965
749.369	0.23763926
749.556	0.23772429
749.743	0.23775265
749.931	0.23786702
750.118	0.23795966
750.305	0.2380191
750.492	0.23806576
750.68	0.23812118
750.867	0.23816902
751.054	0.2382614
751.241	0.23830896
751.428	0.23839664
751.615	0.23848155
751.802	0.2386331
751.989	0.23873084
752.176	0.2388432
752.363	0.23889453
752.55	0.23901507
752.737	0.23905353
752.924	0.23904584
753.111	0.23907797
753.298	0.23918352
753.485	0.23918198
753.672	0.23925696
753.859	0.23932725
754.046	0.23939975
754.233	0.23947543
754.42	0.23953451
754.606	0.23954346
754.793	0.23964575
754.98	0.23967509
755.167	0.23966041
755.353	0.239721
755.54	0.23984326
755.727	0.23987326
755.914	0.23991921
756.1	0.2399148
756.287	0.2399656
756.474	0.24002414
756.66	0.24008691
756.847	0.24011203
757.033	0.24007461
757.22	0.24010831
757.407	0.24018347
757.593	0.24026113
757.78	0.24027044
757.966	0.24032164
758.153	0.24033505
758.339	0.24041601
758.526	0.2403959
758.712	0.2403357
758.898	0.24032842
759.085	0.24036022
759.271	0.2403045
759.458	0.24028976
759.644	0.24036326
759.83	0.24043247
760.017	0.24056049
760.203	0.24058687
760.389	0.24062152
760.576	0.24068291
760.762	0.24071549
760.948	0.24067869
761.134	0.2406706
761.32	0.2406635
761.507	0.24067235
761.693	0.24078544
761.879	0.24079168
762.065	0.24081527
762.251	0.24092621
762.437	0.24102586
762.623	0.24101188
762.809	0.24101575
762.995	0.24091097
763.181	0.24092633
763.367	0.24093816
763.553	0.24087919
763.739	0.24088523
763.925	0.24087013
764.111	0.24089664
764.297	0.24090918
764.483	0.24084703
764.669	0.24076959
764.855	0.24075555
765.041	0.24067005
765.227	0.24063088
765.412	0.24061602
765.598	0.24059487
765.784	0.24058356
765.97	0.24064047
766.156	0.24067099
766.341	0.24067759
766.527	0.24062929
766.713	0.24054719
766.898	0.24048508
767.084	0.24047223
767.27	0.24040158
767.455	0.24027861
767.641	0.24026727
767.827	0.2403365
768.012	0.24033669
768.198	0.2403927
768.383	0.24037506
768.569	0.24039563
768.754	0.24040335
768.94	0.24031907
769.125	0.24022264
769.311	0.24018377
769.496	0.24009982
769.682	0.24008719
769.867	0.24008486
770.052	0.24007265
770.238	0.23999247
770.423	0.23999479
770.608	0.23993662
770.794	0.23984183
770.979	0.23971592
771.164	0.23957868
771.35	0.23951084
771.535	0.23951532
771.72	0.23939585
771.905	0.23937742
772.09	0.23935836
772.276	0.2393489
772.461	0.23923512
772.646	0.23919426
772.831	0.23904572
773.016	0.23899143
773.201	0.23890479
773.386	0.2388568
773.571	0.2387709
773.756	0.23871007
773.941	0.23857072
774.126	0.23862374
774.311	0.23857873
774.496	0.23851644
774.681	0.23841049
774.866	0.23832482
775.051	0.23826305
775.236	0.23821371
775.421	0.23799037
775.606	0.23784423
775.791	0.23778167
775.976	0.23773486
776.16	0.23769022
776.345	0.23762071
776.53	0.23759772
776.715	0.23763542
776.899	0.23756753
777.084	0.23739114
777.269	0.23723466
777.454	0.23708412
777.638	0.23701668
777.823	0.23681221
778.008	0.23663735
778.192	0.23662841
778.377	0.23650001
778.561	0.23643788
778.746	0.23632504
778.931	0.23624412
779.115	0.23625501
779.3	0.23616813
779.484	0.2359394
779.669	0.23584783
779.853	0.23568329
780.037	0.23558897
780.222	0.23536849
780.406	0.23516662
780.591	0.23505609
780.775	0.23498878
780.959	0.23491634
781.144	0.23481972
781.328	0.23467139
781.512	0.23460118
781.697	0.23444072
781.881	0.2342475
782.065	0.23412437
782.249	0.23393234
782.434	0.23379207
782.618	0.23371743
782.802	0.23361948
782.986	0.23355414
783.17	0.23350125
783.354	0.23335236
783.539	0.23323394
783.723	0.23307206
783.907	0.23287322
784.091	0.23267335
784.275	0.2325308
784.459	0.23234586
784.643	0.23218959
784.827	0.23204499
785.011	0.23193258
785.195	0.23191106
785.379	0.23184306
785.563	0.23170357
785.747	0.2315707
785.93	0.23151639
786.114	0.23139031
786.298	0.23123312
786.482	0.231006
786.666	0.23083104
786.85	0.23058569
787.033	0.23047097
787.217	0.23023909
787.401	0.23005444
787.585	0.22984318
787.768	0.2297007
787.952	0.22946354
788.136	0.22935335
788.319	0.22912315
788.503	0.22895792
788.687	0.22883153
788.87	0.22869909
789.054	0.22845745
789.237	0.22835256
789.421	0.22813688
789.605	0.22799144
789.788	0.22779143
789.972	0.22758748
790.155	0.22737096
790.338	0.22717695
790.522	0.2269143
790.705	0.22671257
790.889	0.2265047
791.072	0.22635204
791.256	0.22614562
791.439	0.22603515
791.622	0.22589563
791.806	0.22582563
791.989	0.22562975
792.172	0.22541948
792.355	0.22523299
792.539	0.22505071
792.722	0.2247988
792.905	0.2245533
793.088	0.2242812
793.271	0.22416432
793.455	0.22398556
793.638	0.22378678
793.821	0.22356927
794.004	0.22335708
794.187	0.22322361
794.37	0.22306739
794.553	0.22288911
794.736	0.22267828
794.919	0.2224245
795.102	0.22229412
795.285	0.22214093
795.468	0.22194592
795.651	0.2217151
795.834	0.22147817
796.017	0.22128127
796.2	0.22101167
796.383	0.22077553
796.566	0.22059377
796.749	0.22032434
796.931	0.22011676
797.114	0.21992652
797.297	0.21974511
797.48	0.2196066
797.663	0.2194034
797.845	0.21911896
798.028	0.21899427
798.211	0.21882661
798.393	0.21859444
798.576	0.21835953
798.759	0.21809635
798.941	0.21786253
799.124	0.21764049
799.307	0.21731023
799.489	0.21700785
799.672	0.21678042
799.854	0.21654594
800.037	0.21632782
800.219	0.21609591
800.402	0.21594561
800.584	0.21573994
800.767	0.21561999
800.949	0.21537206
801.132	0.21523402
801.314	0.21499629
801.496	0.21467135
801.679	0.21435128
801.861	0.21411853
802.043	0.21374035
802.226	0.21347235
802.408	0.21312655
802.59	0.21290803
802.772	0.21275492
802.955	0.21257386
803.137	0.21230045
803.319	0.21201817
803.501	0.2117038
803.684	0.21145562
803.866	0.2112037
804.048	0.21093209
804.23	0.21063597
804.412	0.21037078
804.594	0.21014543
804.776	0.21002996
804.958	0.20975852
805.14	0.20951825
805.322	0.20928098
805.504	0.20904149
805.686	0.20881443
805.868	0.20856567
806.05	0.20823105
806.232	0.20810823
806.414	0.20786445
806.596	0.20759868
806.778	0.20727214
806.96	0.20711304
807.141	0.20689317
807.323	0.20663052
807.505	0.20622905
807.687	0.20595509
807.869	0.20567163
808.05	0.20545667
808.232	0.20512575
808.414	0.20485262
808.595	0.20457757
808.777	0.20427064
808.959	0.20404124
809.14	0.20383216
809.322	0.20359216
809.504	0.20333803
809.685	0.20312074
809.867	0.20295378
810.048	0.20272587
810.23	0.20245377
810.411	0.20217506
810.593	0.20186472
810.774	0.20154663
810.956	0.2011968
811.137	0.20080369
811.319	0.20060555
811.5	0.20032195
811.681	0.19999856
811.863	0.19975424
812.044	0.19943724
812.225	0.19919639
812.407	0.19897828
812.588	0.19864119
812.769	0.19834753
812.951	0.19808236
813.132	0.19782847
813.313	0.19763081
813.494	0.19733988
813.675	0.19704157
813.857	0.19679941
814.038	0.19655084
814.219	0.19627711
814.4	0.19599166
814.581	0.19574028
814.762	0.19538535
814.943	0.19519501
815.124	0.19491999
815.305	0.19462172
815.486	0.19437386
815.667	0.19412547
815.848	0.19382512
816.029	0.19358619
816.21	0.1932707
816.391	0.19304121
816.572	0.19278406
816.753	0.1925042
816.934	0.19216816
817.115	0.19185765
817.295	0.19158525
817.476	0.19119411
817.657	0.19073933
817.838	0.19038254
818.019	0.19004879
818.199	0.18967979
818.38	0.18944392
818.561	0.18913837
818.741	0.188905
818.922	0.18864324
819.103	0.18836842
819.283	0.1880224
819.464	0.18779603
819.645	0.18738218
819.825	0.18705197
820.006	0.1867057
820.186	0.18640846
820.367	0.18609611
820.547	0.18578858
820.728	0.18542284
820.908	0.18512107
821.089	0.18480746
821.269	0.18448822
821.45	0.18422712
821.63	0.18385576
821.81	0.18356334
821.991	0.18330883
822.171	0.18310108
822.351	0.18283722
822.532	0.18255212
822.712	0.18217101
822.892	0.18189694
823.072	0.18159664
823.253	0.18129741
823.433	0.18083541
823.613	0.1805763
823.793	0.18022987
823.973	0.17997375
824.154	0.17960776
824.334	0.17932546
824.514	0.17895237
824.694	0.17875509
824.874	0.17834694
825.054	0.17808453
825.234	0.17766148
825.414	0.17736778
825.594	0.17707718
825.774	0.17673849
825.954	0.17641447
826.134	0.17607939
826.314	0.17573652
826.494	0.1755129
826.674	0.17520256
826.854	0.17476153
827.033	0.17439895
827.213	0.17407796
827.393	0.17380248
827.573	0.17350785
827.753	0.17315674
827.932	0.17287617
828.112	0.1726378
828.292	0.17242604
828.472	0.17207059
828.651	0.17177153
828.831	0.17144197
829.011	0.17118005
829.19	0.17083036
829.37	0.17042345
829.549	0.17006781
829.729	0.16971231
829.909	0.16936546
830.088	0.16906565
830.268	0.16864596
830.447	0.16831543
830.627	0.16805284
830.806	0.16776397
830.986	0.16747998
831.165	0.16717089
831.344	0.16683083
831.524	0.16658928
831.703	0.16629066
831.883	0.1659261
832.062	0.16551706
832.241	0.16504603
832.421	0.1647254
832.6	0.16431885
832.779	0.16399999
832.958	0.16365832
833.138	0.16332917
833.317	0.16309548
833.496	0.16286611
833.675	0.1624974
833.854	0.16224399
834.034	0.16188584
834.213	0.1615119
834.392	0.16122822
834.571	0.16081359
834.75	0.16045768
834.929	0.16009644
835.108	0.15964244
835.287	0.15934885
835.466	0.1590169
835.645	0.15872571
835.824	0.15843215
836.003	0.15814844
836.182	0.15788098
836.361	0.15770225
836.54	0.15732002
836.719	0.15700123
836.897	0.1565458
837.076	0.15622934
837.255	0.15584075
837.434	0.15553385
837.613	0.15514317
837.791	0.15482181
837.97	0.15456055
838.149	0.15430617
838.328	0.15389992
838.506	0.15357055
838.685	0.1532288
838.864	0.15291394
839.042	0.1526126
839.221	0.15227149
839.4	0.15196496
839.578	0.15163368
839.757	0.15128135
839.935	0.15083692
840.114	0.15054262
840.292	0.15021229
840.471	0.14993557
840.649	0.14959655
840.828	0.14934541
841.006	0.1491394
841.185	0.14881837
841.363	0.14846987
841.541	0.14817275
841.72	0.14786467
841.898	0.1475608
842.076	0.14718183
842.255	0.14680308
842.433	0.14650372
842.611	0.14610203
842.789	0.14569117
842.968	0.14526179
843.146	0.14486487
843.324	0.14461346
843.502	0.1442971
843.68	0.1440417
843.859	0.14379141
844.037	0.14348407
844.215	0.1431716
844.393	0.1428459
844.571	0.14247692
844.749	0.14219925
844.927	0.14183014
845.105	0.14141669
845.283	0.14100786
845.461	0.14061602
845.639	0.14039018
845.817	0.1400375
845.995	0.13972387
846.173	0.13938802
846.351	0.13915969
846.529	0.13891602
846.706	0.13864151
846.884	0.13820456
847.062	0.13780673
847.24	0.13739713
847.418	0.13698567
847.595	0.13664915
847.773	0.13635149
847.951	0.13603269
848.129	0.135741
848.306	0.13553651
848.484	0.13533134
848.662	0.13518725
848.839	0.13482428
849.017	0.13444614
849.194	0.13405993
849.372	0.1337483
849.549	0.13341988
849.727	0.13294109
849.905	0.13245379
850.082	0.13213193
850.26	0.13184306
850.437	0.13152194
850.614	0.13117
850.792	0.13081746
850.969	0.13059829
851.147	0.13042898
851.324	0.13012752
851.501	0.12983159
851.679	0.12952465
851.856	0.12924085
852.033	0.12890654
852.211	0.12848239
852.388	0.12807498
852.565	0.12774275
852.742	0.12743331
852.92	0.12712975
853.097	0.1268447
853.274	0.12661997
853.451	0.12640896
853.628	0.12619345
853.805	0.12584607
853.982	0.12553942
854.159	0.12523531
854.336	0.1248036
854.514	0.12433304
854.691	0.12394632
854.868	0.12354824
855.045	0.12319005
855.221	0.12279592
855.398	0.12243355
855.575	0.12217909
855.752	0.12198978
855.929	0.12176893
856.106	0.12145129
856.283	0.12126139
856.46	0.12105747
856.637	0.12081369
856.813	0.12052217
856.99	0.120104
857.167	0.11972363
857.344	0.11934147
857.52	0.11896877
857.697	0.11856752
857.874	0.11823513
858.05	0.11786927
858.227	0.11762641
858.404	0.11732776
858.58	0.11712553
858.757	0.11689874
858.933	0.11658545
859.11	0.11633963
859.287	0.11602711
859.463	0.11571671
859.64	0.11543625
859.816	0.11507664
859.993	0.11464876
860.169	0.11434209
860.345	0.11393137
860.522	0.11364648
860.698	0.11331113
860.875	0.11301197
861.051	0.11276924
861.227	0.11241493
861.404	0.11215865
861.58	0.11188863
861.756	0.11160342
861.932	0.11127538
862.109	0.11083971
862.285	0.11045756
862.461	0.11027287
862.637	0.10989358
862.813	0.10954419
862.99	0.109129
863.166	0.10880475
863.342	0.10852198
863.518	0.1082473
863.694	0.10804159
863.87	0.10774324
864.046	0.10758241
864.222	0.10745155
864.398	0.10724746
864.574	0.10695426
864.75	0.10665856
864.926	0.10622531
865.102	0.10582673
865.278	0.10527046
865.454	0.1048211
865.63	0.10446067
865.805	0.10424245
865.981	0.10399267
866.157	0.10368069
866.333	0.10349515
866.509	0.10344598
866.684	0.10324643
866.86	0.10312167
867.036	0.10284711
867.212	0.10244733
867.387	0.1021331
867.563	0.10191627
867.739	0.10151255
867.914	0.101185
868.09	0.10076955
868.265	0.10044155
868.441	0.1002443
868.617	0.10002317
868.792	0.09968471
868.968	0.09940259
869.143	0.09921653
869.319	0.09895519
869.494	0.09861622
869.67	0.09829555
869.845	0.09803167
870.02	0.09777702
870.196	0.09744227
870.371	0.09704378
870.546	0.09672327
870.722	0.0964377
870.897	0.09607428
871.072	0.09566942
871.248	0.09532706
871.423	0.09507837
871.598	0.09480927
871.773	0.09444655
871.949	0.09434302
872.124	0.09411414
872.299	0.09388871
872.474	0.09361498
872.649	0.09328753
872.824	0.09299139
872.999	0.09268027
873.174	0.09217707
873.349	0.0918376
873.524	0.09155854
873.699	0.09132462
873.874	0.09106858
874.049	0.09090934
874.224	0.09072101
874.399	0.09044894
874.574	0.09039508
874.749	0.09013857
874.924	0.08974895
875.099	0.08949107
875.274	0.0891687
875.449	0.08894194
875.623	0.08867997
875.798	0.08819335
875.973	0.08790819
876.148	0.08760701
876.322	0.08736761
876.497	0.08707601
876.672	0.08674557
876.846	0.08653589
877.021	0.08636823
877.196	0.08608227
877.37	0.08592824
877.545	0.08571386
877.72	0.0854099
877.894	0.08521833
878.069	0.08503567
878.243	0.08466509
878.418	0.08434317
878.592	0.08400765
878.767	0.08363073
878.941	0.08328009
879.116	0.08295852
879.29	0.08259378
879.464	0.08240329
879.639	0.08229337
879.813	0.08216082
879.987	0.08203685
880.162	0.08190164
880.336	0.08166462
880.51	0.08140592
880.685	0.08111482
880.859	0.08081491
881.033	0.08041113
881.207	0.08005656
881.381	0.07979541
881.556	0.07948963
881.73	0.0792267
881.904	0.07901753
882.078	0.07880984
882.252	0.07867648
882.426	0.07848323
882.6	0.07823761
882.774	0.07806245
882.948	0.077936
883.122	0.07764168
883.296	0.07730358
883.47	0.07699392
883.644	0.07670832
883.818	0.07638632
883.992	0.07604433
884.166	0.07566141
884.34	0.07544232
884.514	0.07531788
884.687	0.07512649
884.861	0.07486735
885.035	0.07470766
885.209	0.07454429
885.382	0.07451328
885.556	0.07433585
885.73	0.07410676
885.904	0.07394341
886.077	0.07370946
886.251	0.07342285
886.425	0.07318124
886.598	0.07287832
886.772	0.07260106
886.945	0.07214959
887.119	0.07176152
887.292	0.07152583
887.466	0.07122444
887.64	0.07100271
887.813	0.07068144
887.986	0.07049627
888.16	0.07042557
888.333	0.07020168
888.507	0.06996343
888.68	0.06983444
888.854	0.06965883
889.027	0.06958116
889.2	0.06928007
889.374	0.06897692
889.547	0.06878239
889.72	0.06859504
889.893	0.06832868
890.067	0.06789744
890.24	0.06749579
890.413	0.0673623
890.586	0.06712183
890.759	0.0669212
890.933	0.06675689
891.106	0.0666368
891.279	0.06658522
891.452	0.06634542
891.625	0.06608248
891.798	0.0658722
891.971	0.06566577
892.144	0.06533885
892.317	0.0650381
892.49	0.06475506
892.663	0.06462129
892.836	0.06445837
893.009	0.06423318
893.182	0.06396792
893.355	0.0637328
893.527	0.06351673
893.7	0.06337206
893.873	0.06320377
894.046	0.06284686
894.219	0.06277343
894.391	0.06262717
894.564	0.06255835
894.737	0.06233148
894.91	0.06204955
895.082	0.06171141
895.255	0.06149379
895.428	0.06116028
895.6	0.06093403
895.773	0.06061809
895.945	0.0604113
896.118	0.06010861
896.291	0.06000238
896.463	0.0598255
896.636	0.05968779
896.808	0.05948667
896.981	0.05937992
897.153	0.05926079
897.326	0.05914451
897.498	0.05890603
897.67	0.05872466
897.843	0.05857329
898.015	0.05840252
898.187	0.05805764
898.36	0.05775686
898.532	0.05755032
898.704	0.05724455
898.877	0.05702287
899.049	0.05671856
899.221	0.05641896
899.393	0.05630228
899.566	0.05612124
899.738	0.05607258
899.91	0.05597942
900.082	0.05585481
900.254	0.05566469
900.426	0.05550469
900.598	0.05531264
900.77	0.0549617
900.942	0.05460171
901.114	0.05441516
901.286	0.05411579
901.458	0.05398394
901.63	0.05367235
901.802	0.05341493
901.974	0.05337084
902.146	0.05318147
902.318	0.05296642
902.49	0.05278957
902.662	0.05268885
902.834	0.0526096
903.005	0.05244487
903.177	0.05231725
903.349	0.05221022
903.521	0.0520792
903.693	0.05191983
903.864	0.05156779
904.036	0.05137193
904.208	0.051181
904.379	0.05102055
904.551	0.05079786
904.723	0.05050032
904.894	0.05041405
905.066	0.05033914
905.237	0.05023423
905.409	0.05004696
905.58	0.04988118
905.752	0.04977214
905.923	0.04960505
906.095	0.04941178
906.266	0.04920977
906.438	0.0490617
906.609	0.04890002
906.78	0.04857405
906.952	0.04836554
907.123	0.04827858
907.295	0.04803811
907.466	0.04785291
907.637	0.04769035
907.808	0.0475804
907.98	0.04760839
908.151	0.0474587
908.322	0.04724125
908.493	0.04709376
908.665	0.0469415
908.836	0.04674377
909.007	0.04656812
909.178	0.04621052
909.349	0.04593692
909.52	0.04582096
909.691	0.04559416
909.862	0.04543651
910.033	0.04511233
910.204	0.04491454
910.375	0.04485247
910.546	0.04478843
910.717	0.0446554
910.888	0.04458803
911.059	0.0444063
911.23	0.04435626
911.401	0.04414268
911.572	0.04398411
911.742	0.04373281
911.913	0.04340333
912.084	0.04313419
912.255	0.04297423
912.426	0.04276462
912.596	0.04263081
912.767	0.04231359
912.938	0.04213717
913.108	0.04201788
913.279	0.04188176
913.45	0.04161298
913.62	0.04148711
913.791	0.0413866
913.962	0.04130316
914.132	0.04125656
914.303	0.04109048
914.473	0.04106684
914.644	0.0409127
914.814	0.04069923
914.985	0.04043891
915.155	0.04021642
915.326	0.03995219
915.496	0.03984269
915.666	0.03958177
915.837	0.03946722
916.007	0.0392638
916.177	0.03924022
916.348	0.03918426
916.518	0.03905149
916.688	0.03901247
916.858	0.03887457
917.029	0.03875014
917.199	0.03868851
917.369	0.03848039
917.539	0.03829386
917.709	0.03816771
917.88	0.03781889
918.05	0.03766061
918.22	0.0373163
918.39	0.03706439
918.56	0.03683309
918.73	0.03667377
918.9	0.03641372
919.07	0.03653114
919.24	0.03641582
919.41	0.03646354
919.58	0.03643783
919.75	0.03645669
919.92	0.03643192
920.09	0.03640981
920.26	0.03613763
920.429	0.03598319
920.599	0.03585387
920.769	0.03564239
920.939	0.03535296
921.109	0.03506861
921.278	0.03482691
921.448	0.03463292
921.618	0.03437666
921.787	0.03423768
921.957	0.034227
922.127	0.03407399
922.296	0.0341321
922.466	0.03411083
922.636	0.03398709
922.805	0.03398307
922.975	0.03382489
923.144	0.03372154
923.314	0.03367671
923.483	0.03337385
923.653	0.03326913
923.822	0.03313451
923.992	0.03304737
924.161	0.03295183
924.331	0.03265938
924.5	0.03261466
924.669	0.03244859
924.839	0.03235096
925.008	0.03218974
925.177	0.03206197
925.347	0.03203034
925.516	0.03212924
925.685	0.03215342
925.854	0.0322131
926.023	0.03221269
926.193	0.03233406
926.362	0.03222557
926.531	0.03200651
926.7	0.03176774
926.869	0.03142125
927.038	0.03133624
927.207	0.0310549
927.376	0.03074854
927.545	0.03061742
927.715	0.03050989
927.884	0.03035274
928.052	0.03037849
928.221	0.0301883
928.39	0.03006426
928.559	0.03004229
928.728	0.0299554
928.897	0.02991553
929.066	0.02985062
929.235	0.02970397
929.404	0.02961665
929.572	0.02959705
929.741	0.02957534
929.91	0.02948634
930.079	0.02935377
930.247	0.02932187
930.416	0.02915051
930.585	0.02900681
930.753	0.02892337
930.922	0.02868424
931.091	0.02855338
931.259	0.02832904
931.428	0.02803044
931.596	0.02792127
931.765	0.02801184
931.934	0.02792785
932.102	0.02777297
932.27	0.02758146
932.439	0.02770171
932.607	0.02764602
932.776	0.0275042
932.944	0.02726367
933.113	0.02693357
933.281	0.02670991
933.449	0.0266129
933.618	0.02629279
933.786	0.02627315
933.954	0.02624915
934.123	0.02610364
934.291	0.02618224
934.459	0.02624349
934.627	0.02618879
934.795	0.02608822
934.964	0.02597777
935.132	0.02595237
935.3	0.02602159
935.468	0.02600277
935.636	0.02618224
935.804	0.02619841
935.972	0.02636908
936.14	0.02671215
936.308	0.0267354
936.476	0.02658356
936.644	0.02657936
936.812	0.02642759
936.98	0.02645813
937.148	0.02655556
937.316	0.02650372
937.484	0.02617879
937.652	0.02609882
937.82	0.02629745
937.987	0.02630863
938.155	0.02640979
938.323	0.02604278
938.491	0.02568891
938.658	0.02599045
938.826	0.02621294
938.994	0.0262333
939.162	0.02655298
939.329	0.02619016
939.497	0.02661474
939.665	0.02693076
939.832	0.02703603
940	0.02744417
940.167	0.02726539
940.335	0.02712842
940.502	0.0275324
940.67	0.02770982
940.837	0.02823523
941.005	0.02831392
941.172	0.02733233
941.34	0.02753818
941.507	0.02759005
941.674	0.02795307
941.842	0.02828275
942.009	0.02790683
942.177	0.0274
942.344	0.02873358
942.511	0.02888283
942.678	0.02913086
942.846	0.02863811
943.013	0.02872933
943.18	0.02817581
943.347	0.02909524
943.514	0.02836416
943.682	0.02812518
943.849	0.02689897
944.016	0.02736974
944.183	0.0268846
944.35	0.02700931
944.517	0.02782283
944.684	0.02744862
944.851	0.02691408
945.018	0.027693
945.185	0.02782269
945.352	0.02655582
945.519	0.02640355
945.686	0.0256388
945.853	0.02606205
946.02	0.02668713
946.187	0.02583854
946.353	0.02582987
946.52	0.02715385
946.687	0.0263411
946.854	0.02664545
947.021	0.02640078
947.187	0.02624989
947.354	0.02689822
947.521	0.02660782
947.687	0.02625534
947.854	0.0275699
948.021	0.0265118
948.187	0.02653579
948.354	0.02577233
948.52	0.02536356
948.687	0.02445545
948.854	0.02402587
949.02	0.02341726
949.187	0.02280811
949.353	0.02339989
949.52	0.02286572
949.686	0.02245469
949.852	0.02272245
950.019	0.02329611
950.185	0.02324719
950.352	0.02370648
950.518	0.02262431
950.684	0.02322848
950.851	0.02363633
951.017	0.02372264
951.183	0.02286054
951.349	0.02199187
951.516	0.02195952
951.682	0.02184846
951.848	0.02131418
952.014	0.02073585
952.18	0.02051909
952.346	0.02045848
952.512	0.02046822
952.679	0.01958918
952.845	0.01930314
953.011	0.01956673
953.177	0.01971286
953.343	0.01955441
953.509	0.01964373
953.675	0.01921698
953.841	0.019849
954.007	0.01951647
954.172	0.01958067
954.338	0.01900078
954.504	0.01857992
954.67	0.01846473
954.836	0.01844205
955.002	0.01791288
955.167	0.01814734
955.333	0.01746943
955.499	0.01748207
955.665	0.01728956
955.83	0.01688385
955.996	0.01692121
956.162	0.01735487
956.327	0.01730169
956.493	0.01738015
956.659	0.01756949
956.824	0.01825116
956.99	0.01784507
957.155	0.01787386
957.321	0.01767607
957.486	0.01723407
957.652	0.01713531
957.817	0.01696343
957.983	0.0158863
958.148	0.0158306
958.314	0.01597919
958.479	0.01541703
958.644	0.01593494
958.81	0.01567097
958.975	0.01528136
959.14	0.01549563
959.306	0.01579942
959.471	0.01527611
959.636	0.0151525
959.801	0.01455595
959.967	0.01479604
960.132	0.01517376
960.297	0.01488643
960.462	0.01513552
960.627	0.01513041
960.792	0.01537208
960.957	0.01549129
961.123	0.01545146
961.288	0.0153155
961.453	0.0152389
961.618	0.0148505
961.783	0.01469421
961.948	0.01440145
962.113	0.01406553
962.277	0.01393714
962.442	0.01343343
962.607	0.01368635
962.772	0.013495
962.937	0.0133814
963.102	0.01327503
963.267	0.01363315
963.431	0.01350893
963.596	0.01378141
963.761	0.01369734
963.926	0.0137614
964.09	0.014075
964.255	0.01444821
964.42	0.01375227
964.584	0.01356614
964.749	0.01321862
964.914	0.01335173
965.078	0.01328587
965.243	0.01303485
965.407	0.01240367
965.572	0.01288395
965.736	0.01298577
965.901	0.01294536
966.065	0.01275531
966.23	0.01257377
966.394	0.01274321
966.559	0.01314365
966.723	0.01298317
966.887	0.01272814
967.052	0.01237335
967.216	0.01239991
967.38	0.01255335
967.545	0.01236829
967.709	0.01250603
967.873	0.01276866
968.037	0.01269376
968.202	0.01306707
968.366	0.01305097
968.53	0.01315877
968.694	0.01269361
968.858	0.01207022
969.022	0.01190601
969.187	0.01179669
969.351	0.01155066
969.515	0.01129882
969.679	0.01070674
969.843	0.01071047
970.007	0.01123064
970.171	0.01085874
970.335	0.01073534
970.499	0.01111707
970.662	0.0110667
970.826	0.01087244
970.99	0.01123005
971.154	0.01113105
971.318	0.01132819
971.482	0.01169764
971.645	0.01138136
971.809	0.0115747
971.973	0.01162411
972.137	0.01110233
972.3	0.01099801
972.464	0.01097484
972.628	0.01086211
972.791	0.01083509
972.955	0.01057953
973.119	0.01065432
973.282	0.01126998
973.446	0.0110998
973.609	0.01092736
973.773	0.010686
973.936	0.0107242
974.1	0.0108691
974.263	0.01094726
974.427	0.01066607
974.59	0.01081342
974.754	0.01053231
974.917	0.01029599
975.08	0.01084655
975.244	0.01047178
975.407	0.01062261
975.57	0.01064101
975.734	0.01015284
975.897	0.01052159
976.06	0.01069205
976.223	0.01027616
976.387	0.01060788
976.55	0.01017976
976.713	0.01008455
976.876	0.01006924
977.039	0.00986929
977.202	0.0102399
977.365	0.01013331
977.528	0.0096384
977.692	0.00988635
977.855	0.01010214
978.018	0.01039589
978.181	0.01066903
978.344	0.01022781
978.506	0.00974218
978.669	0.00992496
978.832	0.00997429
978.995	0.00955606
979.158	0.00966325
979.321	0.00962411
979.484	0.00985912
979.646	0.0100138
979.809	0.00980582
979.972	0.00941064
980.135	0.00971684
980.297	0.00952817
980.46	0.00919448
980.623	0.00858246
980.786	0.00911351
980.948	0.00947042
981.111	0.0099693
981.273	0.00989887
981.436	0.01002077
981.599	0.01023186
981.761	0.01074505
981.924	0.010435
982.086	0.01030315
982.249	0.00995622
982.411	0.00984386
982.573	0.00962254
982.736	0.00941265
982.898	0.00950049
983.061	0.00960966
983.223	0.0094032
983.385	0.00961246
983.548	0.00932459
983.71	0.00910169
983.872	0.00890219
984.034	0.00843764
984.197	0.00768831
984.359	0.00735576
984.521	0.00732753
984.683	0.00764562
984.845	0.00798821
985.008	0.00805475
985.17	0.00854325
985.332	0.0090438
985.494	0.00932576
985.656	0.00958807
985.818	0.00965269
985.98	0.00927926
986.142	0.01017656
986.304	0.01014505
986.466	0.01026181
986.628	0.01061883
986.79	0.01032747
986.952	0.01004054
987.113	0.01016769
987.275	0.00940689
987.437	0.0092918
987.599	0.00903091
987.761	0.00904863
987.922	0.00875584
988.084	0.00889963
988.246	0.00883212
988.408	0.0088869
988.569	0.00849407
988.731	0.0087862
988.893	0.0083444
989.054	0.00840514
989.216	0.00886172
989.377	0.00842687
989.539	0.00861511
989.701	0.00919662
989.862	0.0094465
990.024	0.01002721
990.185	0.01017326
990.347	0.00991273
990.508	0.01021166
990.669	0.01009588
990.831	0.00930894
990.992	0.00866073
991.154	0.00838575
991.315	0.00865098
991.476	0.00858436
991.638	0.00908143
991.799	0.00883989
991.96	0.00966792
992.121	0.00994554
992.283	0.00969006
992.444	0.0096439
992.605	0.00898566
992.766	0.00869006
992.927	0.00870287
993.088	0.00857991
993.249	0.00803036
993.41	0.00837503
993.572	0.00783157
993.733	0.0081954
993.894	0.00837743
994.055	0.00813365
994.216	0.00837761
994.376	0.00850683
994.537	0.00880763
994.698	0.00870045
994.859	0.00848416
995.02	0.00851321
995.181	0.00910497
995.342	0.008893
995.503	0.00921351
995.663	0.00919244
995.824	0.00929673
995.985	0.0096824
996.146	0.00867834
996.306	0.00848677
996.467	0.00759903
996.628	0.00764824
996.788	0.00702051
996.949	0.00689633
997.11	0.00726495
997.27	0.00799801
997.431	0.00753048
997.591	0.00795301
997.752	0.0071194
997.912	0.00672064
998.073	0.00622657
998.233	0.00558529
998.394	0.00577754
998.554	0.0062801
998.714	0.00695221
998.875	0.00732164
999.035	0.00723557
999.196	0.00895806
999.356	0.0096471
999.516	0.00902031
999.676	0.00945148
999.837	0.00935666
999.997	0.01016442
1000.157	0.01080162
1000.317	0.00921389
1000.477	0.00837776
1000.638	0.00897365
1000.798	0.0083191
1000.958	0.00778228
1001.118	0.00758826
1001.278	0.00724794
1001.438	0.00791728
1001.598	0.00855287
1001.758	0.00992164
1001.918	0.01041103
1002.078	0.01083687
1002.238	0.01033283
1002.398	0.01097816
1002.558	0.01167405
1002.718	0.01066791
1002.878	0.00918462
1003.037	0.00765177
1003.197	0.00787988
1003.357	0.00805743
1003.517	0.00871481
1003.677	0.00677366
1003.836	0.00777034
1003.996	0.00782291
1004.156	0.00912914
1004.315	0.00805809
1004.475	0.00760572
1004.635	0.00712152
1004.794	0.00792324
1004.954	0.00749577
1005.114	0.00713282
1005.273	0.00678932
1005.433	0.00670958
1005.592	0.00752646
1005.752	0.00643538
1005.911	0.007079
1006.071	0.00687545
1006.23	0.00720971
1006.389	0.00834329
1006.549	0.00849835
1006.708	0.00846806
1006.868	0.00900881
1007.027	0.00944984
1007.186	0.00973398
1007.345	0.01001309
1007.505	0.01016498
1007.664	0.01113287
1007.823	0.01104575
1007.982	0.01113259
1008.142	0.01124526
1008.301	0.0109932
1008.46	0.01075982
1008.619	0.00958812
1008.778	0.00815205
1008.937	0.00757661
1009.096	0.0067383
1009.255	0.0067734
1009.414	0.00658156
1009.573	0.0064732
1009.732	0.00702189
1009.891	0.00740861
1010.05	0.00898305
1010.209	0.01001631
1010.368	0.00928412
1010.527	0.0095208
1010.686	0.00913268
1010.845	0.00749359
1011.003	0.0082391
1011.162	0.00684218
1011.321	0.00498392
1011.48	0.00601253
1011.638	0.00749851
1011.797	0.00801772
1011.956	0.01038022
1012.115	0.01122335
1012.273	0.01203017
1012.432	0.01604498
1012.59	0.01538132
1012.749	0.01367401
1012.908	0.01356336
1013.066	0.0126583
1013.225	0.0116659
1013.383	0.01176795
1013.542	0.00849594
1013.7	0.00923199
1013.859	0.01086591
1014.017	0.0112624
1014.175	0.01118952
1014.334	0.01177394
1014.492	0.01139072
1014.65	0.0135177
1014.809	0.01137748
1014.967	0.01069187
1015.125	0.01026058
1015.284	0.00980262
1015.442	0.01159267
1015.6	0.01418199
1015.758	0.01524541
1015.916	0.01714203
1016.075	0.01793724
1016.233	0.01752413
1016.391	0.01863236
1016.549	0.01761512
1016.707	0.01718116
1016.865	0.01489828
1017.023	0.01479274
1017.181	0.01376501
1017.339	0.01334334
1017.497	0.01368713
1017.655	0.01393531
1017.813	0.01160826
1017.971	0.01243219
1018.129	0.01259388
1018.286	0.01237406
1018.444	0.01456909
1018.602	0.01374153
1018.76	0.01198526
1018.918	0.01198466
1019.075	0.0123355
1019.233	0.01371364
1019.391	0.01609253
1019.549	0.01867803
1019.706	0.02016698
1019.864	0.02046869
1020.022	0.02275216
1020.179	0.02145729
1020.337	0.02119214
1020.494	0.01815551
1020.652	0.01730573
1020.809	0.01813697
1020.967	0.01835166
1021.124	0.01895391
1021.282	0.01996689
1021.439	0.02020597
1021.597	0.02148976
1021.754	0.02130354
1021.911	0.01760324
1022.069	0.01673129
1022.226	0.01516305
1022.384	0.01885547
1022.541	0.01456193
1022.698	0.01425265
1022.855	0.01206239
1023.013	0.01510892
1023.17	0.01722646
1023.327	0.01585811
1023.484	0.01285834
1023.641	0.01912411
1023.798	0.02067766
1023.956	0.02229177
1024.113	0.02045055
1024.27	0.01996422
1024.427	0.02110796
1024.584	0.02195574
1024.741	0.017172
1024.898	0.0150274
1025.055	0.01444609
1025.212	0.01284763
1025.369	0.01552728
1025.525	0.01302639
1025.682	0.0114039
1025.839	0.01494317
1025.996	0.01671182
1026.153	0.01930035
1026.31	0.0188893
1026.466	0.01747748
1026.623	0.02485332
1026.78	0.02743171
1026.937	0.02402371
1027.093	0.02600136
1027.25	0.02672856
1027.407	0.02397956
1027.563	0.01877746
1027.72	0.01517376
1027.876	0.0155389
1028.033	0.01716075
1028.19	0.01303453
1028.346	0.00881022
1028.503	0.01421154
1028.659	0.02068035
1028.816	0.02093307
1028.972	0.01591148
1029.128	0.01784819
1029.285	0.02261741
1029.441	0.02298268
1029.598	0.02550955
1029.754	0.02163896
1029.91	0.02408689
1030.067	0.02481356
1030.223	0.02009014
1030.379	0.02160995
1030.535	0.0222477
1030.691	0.01690148
1030.848	0.02059117
1031.004	0.01891618
1031.16	0.01873503
1031.316	0.02009099
1031.472	0.0149793
1031.628	0.01932727
1031.784	0.02754077
1031.94	0.02969684
1032.096	0.03100449
1032.252	0.03643451
1032.408	0.04392244
1032.564	0.04718526
1032.72	0.04784932
1032.876	0.04499224
1033.032	0.04269759
1033.188	0.04238197
1033.344	0.04556097
1033.5	0.04387224
1033.655	0.0443454
1033.811	0.04486355
1033.967	0.04715175
