Data from 0_1_mm_pl_90pc_Absorbance__0__18-14-49-712.txt Node

Date: Wed Mar 01 18:14:49 CET 2023
User: Ange
Spectrometer: FLMT08341
Trigger mode: 0
Integration Time (sec): 1.000000E-2
Scans to average: 400
Electric dark correction enabled: true
Nonlinearity correction enabled: false
Boxcar width: 3
XAxis mode: Wavelengths
Number of Pixels in Spectrum: 3648
>>>>>Begin Spectral Data<<<<<
345.271	0.01414504
345.487	0.01319572
345.704	0.0165642
345.921	0.01531718
346.137	0.0128542
346.354	0.01827139
346.571	0.04782148
346.787	0.22303339
347.004	-0.15615818
347.22	-0.02422073
347.437	-0.13524896
347.653	-0.12409363
347.87	0.16329403
348.086	-1.06597045
348.303	-0
348.519	0.03589969
348.736	0.04524953
348.952	0.03723985
349.169	0.0431129
349.385	0.04491554
349.601	0.04565773
349.818	0.04359222
350.034	0.04290509
350.251	0.0415834
350.467	0.04334144
350.683	0.03808475
350.9	0.03631796
351.116	0.03598209
351.332	0.03756344
351.549	0.03724909
351.765	0.03954915
351.981	0.03975546
352.197	0.04224127
352.414	0.04349438
352.63	0.04402488
352.846	0.04485005
353.062	0.04222319
353.278	0.04089176
353.495	0.0403867
353.711	0.0411864
353.927	0.03993177
354.143	0.04032727
354.359	0.03765681
354.575	0.04054072
354.792	0.04082485
355.008	0.03940198
355.224	0.03862279
355.44	0.03877959
355.656	0.03738118
355.872	0.03652418
356.088	0.03562875
356.304	0.03391209
356.52	0.03411188
356.736	0.03342735
356.952	0.03396314
357.168	0.03443659
357.384	0.03521204
357.6	0.03295846
357.816	0.03358841
358.032	0.03454923
358.248	0.03540371
358.464	0.03487521
358.679	0.03430972
358.895	0.03389903
359.111	0.03581536
359.327	0.03468696
359.543	0.03369799
359.759	0.03476059
359.974	0.03588112
360.19	0.03577176
360.406	0.03567727
360.622	0.03459699
360.838	0.03428225
361.053	0.03462897
361.269	0.03271009
361.485	0.03127668
361.701	0.03063082
361.916	0.02913447
362.132	0.02734574
362.348	0.0271868
362.563	0.02623054
362.779	0.02552386
362.995	0.02551926
363.21	0.02545381
363.426	0.02722753
363.641	0.02804274
363.857	0.02793316
364.073	0.02784417
364.288	0.02786815
364.504	0.02820243
364.719	0.02785066
364.935	0.02626796
365.15	0.02680256
365.366	0.02710221
365.581	0.02686561
365.797	0.02730135
366.012	0.02622679
366.228	0.02623873
366.443	0.02790561
366.658	0.02694079
366.874	0.02596702
367.089	0.02614748
367.305	0.02578334
367.52	0.02541572
367.735	0.02545996
367.951	0.0243508
368.166	0.02480948
368.381	0.02651251
368.597	0.02671995
368.812	0.02755809
369.027	0.02802558
369.243	0.02836303
369.458	0.02884442
369.673	0.02829911
369.888	0.02696284
370.104	0.02691693
370.319	0.02694594
370.534	0.02704348
370.749	0.02661265
370.964	0.02575058
371.179	0.02640887
371.395	0.02737798
371.61	0.02778091
371.825	0.02669712
372.04	0.02733133
372.255	0.02686291
372.47	0.0271555
372.685	0.02689004
372.9	0.02592308
373.115	0.02548691
373.33	0.02603766
373.545	0.02457109
373.76	0.02527372
373.975	0.02446233
374.19	0.02465214
374.405	0.02444469
374.62	0.02402554
374.835	0.02366001
375.05	0.02425141
375.265	0.02340544
375.48	0.02411772
375.695	0.02366988
375.91	0.02350169
376.125	0.02393662
376.339	0.0235541
376.554	0.02377452
376.769	0.02409861
376.984	0.02450177
377.199	0.02511817
377.414	0.02551501
377.628	0.0251172
377.843	0.02526892
378.058	0.02457234
378.273	0.02460747
378.487	0.02426993
378.702	0.02409798
378.917	0.02396764
379.131	0.0243602
379.346	0.02437052
379.561	0.02470448
379.775	0.02448601
379.99	0.02412387
380.205	0.02380015
380.419	0.02307944
380.634	0.02217614
380.848	0.02115826
381.063	0.02055216
381.278	0.02094323
381.492	0.02076945
381.707	0.02023295
381.921	0.02109876
382.136	0.02186241
382.35	0.02255909
382.565	0.02314887
382.779	0.02287006
382.994	0.02308559
383.208	0.02309363
383.422	0.02255168
383.637	0.0220109
383.851	0.0223642
384.066	0.02233656
384.28	0.02251643
384.494	0.02237571
384.709	0.02232245
384.923	0.02301007
385.137	0.02326734
385.352	0.02313555
385.566	0.02310041
385.78	0.02267879
385.995	0.02271489
386.209	0.02310594
386.423	0.02269449
386.637	0.02220607
386.852	0.02242536
387.066	0.02215791
387.28	0.02263777
387.494	0.02301757
387.708	0.02273335
387.923	0.02272807
388.137	0.02314562
388.351	0.02330619
388.565	0.02331107
388.779	0.02334066
388.993	0.02319271
389.207	0.02312806
389.421	0.02261906
389.635	0.02230363
389.85	0.02199089
390.064	0.02202534
390.278	0.02168832
390.492	0.02119292
390.706	0.02118406
390.92	0.02160534
391.134	0.02130161
391.348	0.02159582
391.561	0.02174452
391.775	0.02130109
391.989	0.02149533
392.203	0.0215163
392.417	0.02135027
392.631	0.02177031
392.845	0.02154022
393.059	0.02122422
393.273	0.02170489
393.486	0.02153683
393.7	0.02198642
393.914	0.0217411
394.128	0.02148181
394.342	0.02112281
394.555	0.02102929
394.769	0.02059402
394.983	0.02087569
395.197	0.02066014
395.41	0.02115798
395.624	0.02125456
395.838	0.02171754
396.051	0.02197403
396.265	0.02187313
396.479	0.02168104
396.692	0.02154856
396.906	0.02150418
397.12	0.02155543
397.333	0.02097743
397.547	0.02099904
397.76	0.02120441
397.974	0.02115165
398.187	0.02144066
398.401	0.02138205
398.614	0.02145035
398.828	0.02148971
399.041	0.02175609
399.255	0.0215989
399.468	0.02155055
399.682	0.02125048
399.895	0.02124164
400.109	0.02132983
400.322	0.021524
400.536	0.02104691
400.749	0.02122229
400.962	0.02166063
401.176	0.02172417
401.389	0.02178499
401.602	0.02135408
401.816	0.02135874
402.029	0.02115466
402.242	0.02117839
402.456	0.02087036
402.669	0.02040755
402.882	0.02023846
403.095	0.02018461
403.309	0.01997936
403.522	0.01991184
403.735	0.01997311
403.948	0.01985588
404.161	0.0200866
404.375	0.01989104
404.588	0.02000423
404.801	0.02016958
405.014	0.02048074
405.227	0.02019815
405.44	0.02032293
405.653	0.02043211
405.866	0.02084679
406.079	0.0208515
406.293	0.02083417
406.506	0.02074553
406.719	0.02098927
406.932	0.020934
407.145	0.02092276
407.358	0.02047542
407.571	0.02055553
407.784	0.02041807
407.996	0.02082877
408.209	0.02064117
408.422	0.02058614
408.635	0.0206938
408.848	0.02086321
409.061	0.02063123
409.274	0.02072328
409.487	0.02047267
409.7	0.02074639
409.912	0.02074464
410.125	0.02043354
410.338	0.02039995
410.551	0.02036768
410.764	0.02028393
410.976	0.01998092
411.189	0.01986958
411.402	0.01980986
411.615	0.01985504
411.827	0.0197805
412.04	0.01987667
412.253	0.0198499
412.465	0.01981167
412.678	0.01951953
412.891	0.01943821
413.103	0.01936798
413.316	0.01934677
413.529	0.01928226
413.741	0.01944006
413.954	0.01957422
414.166	0.01966831
414.379	0.01973811
414.591	0.0197088
414.804	0.01954449
415.016	0.01938859
415.229	0.01909863
415.441	0.01907462
415.654	0.01893933
415.866	0.01888535
416.079	0.01882648
416.291	0.01886167
416.504	0.01909671
416.716	0.01909713
416.928	0.01884791
417.141	0.01902353
417.353	0.0187432
417.566	0.01877136
417.778	0.01879398
417.99	0.01876137
418.203	0.01877892
418.415	0.0187299
418.627	0.018254
418.839	0.0184892
419.052	0.01847752
419.264	0.01841809
419.476	0.0183529
419.688	0.01839442
419.901	0.01846109
420.113	0.01865783
420.325	0.0184875
420.537	0.01821809
420.749	0.01789585
420.961	0.01788103
421.174	0.01767068
421.386	0.01757507
421.598	0.01759866
421.81	0.0174198
422.022	0.01729881
422.234	0.01733675
422.446	0.01726633
422.658	0.01712363
422.87	0.01726117
423.082	0.01703397
423.294	0.01702449
423.506	0.0171878
423.718	0.01716701
423.93	0.01696147
424.142	0.01687666
424.354	0.01663168
424.566	0.01668093
424.778	0.01654002
424.99	0.01643767
425.202	0.01634199
425.414	0.01628285
425.625	0.01644059
425.837	0.01647653
426.049	0.0164927
426.261	0.01662907
426.473	0.01670714
426.684	0.01656455
426.896	0.01639799
427.108	0.01618191
427.32	0.01597045
427.531	0.01571011
427.743	0.01562519
427.955	0.01548663
428.167	0.01574062
428.378	0.01581493
428.59	0.0159222
428.802	0.01600535
429.013	0.01610053
429.225	0.01605927
429.436	0.0158968
429.648	0.01540392
429.86	0.01537021
430.071	0.01542092
430.283	0.01534997
430.494	0.01529572
430.706	0.01522015
430.917	0.01521698
431.129	0.01543676
431.34	0.0152846
431.552	0.01496939
431.763	0.01486385
431.975	0.01458445
432.186	0.01427644
432.398	0.01418455
432.609	0.01402595
432.821	0.01411448
433.032	0.01408309
433.243	0.01410774
433.455	0.01431018
433.666	0.01450501
433.877	0.01459367
434.089	0.01460703
434.3	0.01464487
434.511	0.0147374
434.723	0.01448713
434.934	0.01442936
435.145	0.01426978
435.356	0.01416546
435.568	0.01434659
435.779	0.01409323
435.99	0.01391967
436.201	0.01405371
436.412	0.01396755
436.624	0.01381327
436.835	0.01369548
437.046	0.01353542
437.257	0.01331276
437.468	0.0132006
437.679	0.01276267
437.89	0.01248619
438.101	0.01248969
438.312	0.01224749
438.523	0.01206369
438.734	0.01212566
438.945	0.01195612
439.156	0.01208726
439.367	0.01221666
439.578	0.01220992
439.789	0.01232436
440	0.01217722
440.211	0.01220453
440.422	0.01213582
440.633	0.01217922
440.844	0.01184696
441.055	0.01175031
441.266	0.01161997
441.477	0.01162692
441.687	0.01133131
441.898	0.01130242
442.109	0.01120743
442.32	0.0112362
442.531	0.01111747
442.741	0.01106657
442.952	0.0108782
443.163	0.01090595
443.374	0.01089338
443.584	0.01085735
443.795	0.0107172
444.006	0.01064329
444.216	0.01057906
444.427	0.0106057
444.638	0.0106963
444.848	0.01063104
445.059	0.01067251
445.27	0.01064496
445.48	0.01069829
445.691	0.01069047
445.901	0.01062076
446.112	0.01037599
446.323	0.01027447
446.533	0.00998364
446.744	0.0100806
446.954	0.00994843
447.165	0.00984215
447.375	0.00966722
447.586	0.00959124
447.796	0.0094889
448.006	0.00936551
448.217	0.00934795
448.427	0.00933744
448.638	0.00929111
448.848	0.00928828
449.058	0.00931701
449.269	0.00934677
449.479	0.00942727
449.689	0.00915948
449.9	0.00905267
450.11	0.00898519
450.32	0.00894994
450.531	0.00886719
450.741	0.0088094
450.951	0.00878991
451.161	0.00880235
451.372	0.00871246
451.582	0.00861109
451.792	0.00869709
452.002	0.00869259
452.212	0.00865541
452.422	0.00865509
452.633	0.00868156
452.843	0.00869716
453.053	0.00874114
453.263	0.00861181
453.473	0.00840463
453.683	0.00833818
453.893	0.00810896
454.103	0.00796874
454.313	0.00787716
454.523	0.00778019
454.733	0.00763784
454.943	0.00762914
455.153	0.00754291
455.363	0.00754082
455.573	0.00749383
455.783	0.00745366
455.993	0.007413
456.203	0.00741799
456.413	0.00739078
456.623	0.00738027
456.833	0.00732302
457.042	0.00721826
457.252	0.00722168
457.462	0.0070806
457.672	0.00697605
457.882	0.00696549
458.091	0.00683339
458.301	0.00678527
458.511	0.00673291
458.721	0.00663927
458.931	0.00657597
459.14	0.00659269
459.35	0.00668271
459.56	0.0066726
459.769	0.00664719
459.979	0.00661543
460.189	0.00656829
460.398	0.00656044
460.608	0.00652209
460.817	0.00639177
461.027	0.0064514
461.237	0.00646428
461.446	0.00645589
461.656	0.00632085
461.865	0.00624631
462.075	0.00625204
462.284	0.00618386
462.494	0.00606408
462.703	0.00599638
462.913	0.00600301
463.122	0.00613871
463.332	0.0061257
463.541	0.00604443
463.751	0.00593262
463.96	0.00587973
464.169	0.00589112
464.379	0.00585212
464.588	0.005721
464.797	0.00573063
465.007	0.00571252
465.216	0.00573438
465.425	0.00574777
465.635	0.00553765
465.844	0.005417
466.053	0.00537587
466.263	0.00539509
466.472	0.00532937
466.681	0.00525645
466.89	0.00523406
467.099	0.00532711
467.309	0.00540976
467.518	0.00537371
467.727	0.00530669
467.936	0.00531551
468.145	0.00528671
468.354	0.00517796
468.563	0.00516597
468.772	0.00513286
468.982	0.00512137
469.191	0.00503473
469.4	0.00495565
469.609	0.00501792
469.818	0.00502589
470.027	0.00504592
470.236	0.00498389
470.445	0.0050216
470.654	0.00500165
470.863	0.00498702
471.072	0.00497372
471.28	0.00502367
471.489	0.00493707
471.698	0.00494205
471.907	0.00489577
472.116	0.00494789
472.325	0.0048833
472.534	0.00479777
472.743	0.00475208
472.951	0.00479192
473.16	0.00482751
473.369	0.00484334
473.578	0.00486565
473.786	0.00495309
473.995	0.00497844
474.204	0.00498669
474.413	0.005014
474.621	0.00502739
474.83	0.00494906
475.039	0.00487773
475.247	0.00483815
475.456	0.00481295
475.665	0.00476838
475.873	0.00472404
476.082	0.0047698
476.291	0.00481435
476.499	0.00490827
476.708	0.00487969
476.916	0.00489165
477.125	0.00482254
477.333	0.00476851
477.542	0.00472785
477.75	0.00473855
477.959	0.00464016
478.167	0.00464933
478.376	0.00472701
478.584	0.00481254
478.793	0.00478575
479.001	0.00479055
479.209	0.00482276
479.418	0.00481482
479.626	0.00488014
479.834	0.00486546
480.043	0.00485709
480.251	0.0049529
480.459	0.00494924
480.668	0.0049018
480.876	0.00496062
481.084	0.00492362
481.293	0.00487745
481.501	0.00492381
481.709	0.00490442
481.917	0.00490219
482.125	0.0048747
482.334	0.00489626
482.542	0.00492393
482.75	0.00493729
482.958	0.00490155
483.166	0.00490185
483.374	0.004882
483.583	0.00487434
483.791	0.00482967
483.999	0.00480997
484.207	0.0048246
484.415	0.00487546
484.623	0.00487615
484.831	0.0048723
485.039	0.00493954
485.247	0.00498486
485.455	0.00504337
485.663	0.00508154
485.871	0.00508357
486.079	0.00516621
486.287	0.00522292
486.495	0.00522289
486.702	0.00524057
486.91	0.00523174
487.118	0.00521251
487.326	0.00516447
487.534	0.00512059
487.742	0.00510406
487.95	0.00513204
488.157	0.00511067
488.365	0.00511409
488.573	0.00511957
488.781	0.00517569
488.988	0.00514475
489.196	0.00520585
489.404	0.00518634
489.612	0.00526222
489.819	0.00533455
490.027	0.00539064
490.235	0.00542961
490.442	0.00546188
490.65	0.00544759
490.857	0.00553107
491.065	0.00550972
491.273	0.00549453
491.48	0.00552293
491.688	0.00555391
491.895	0.00562279
492.103	0.00565563
492.31	0.0056161
492.518	0.00565533
492.725	0.00566149
492.933	0.00567757
493.14	0.00568991
493.348	0.00576892
493.555	0.00583898
493.763	0.00593547
493.97	0.00599638
494.177	0.00605754
494.385	0.00605857
494.592	0.00607886
494.8	0.00604422
495.007	0.00599701
495.214	0.00604884
495.422	0.00609398
495.629	0.0061245
495.836	0.00616203
496.043	0.00623412
496.251	0.00628026
496.458	0.00637122
496.665	0.00640385
496.872	0.00638642
497.08	0.0064145
497.287	0.00651511
497.494	0.00649154
497.701	0.00654534
497.908	0.00654111
498.115	0.00653027
498.322	0.00659303
498.53	0.00662002
498.737	0.00671645
498.944	0.00683632
499.151	0.00689633
499.358	0.00697529
499.565	0.00704285
499.772	0.00708557
499.979	0.00715359
500.186	0.00705872
500.393	0.00710351
500.6	0.00710962
500.807	0.0071617
501.014	0.00720251
501.221	0.00725928
501.427	0.00732486
501.634	0.0074159
501.841	0.00742406
502.048	0.00750893
502.255	0.00755731
502.462	0.00757608
502.669	0.00760826
502.875	0.00765856
503.082	0.00770168
503.289	0.00773871
503.496	0.00773166
503.702	0.00773946
503.909	0.00776753
504.116	0.00780727
504.323	0.00779633
504.529	0.00786509
504.736	0.00791743
504.943	0.00795076
505.149	0.00801227
505.356	0.00811378
505.563	0.00820026
505.769	0.00832297
505.976	0.00831568
506.182	0.00835975
506.389	0.00846164
506.595	0.00852486
506.802	0.00854623
507.008	0.00857043
507.215	0.00856741
507.421	0.00867316
507.628	0.00875958
507.834	0.00878499
508.041	0.00878718
508.247	0.00885793
508.454	0.00887873
508.66	0.00898002
508.866	0.00901611
509.073	0.00904408
509.279	0.00908145
509.486	0.00916336
509.692	0.00923269
509.898	0.00934721
510.105	0.0093968
510.311	0.00948797
510.517	0.00959878
510.723	0.00972008
510.93	0.00979426
511.136	0.00985381
511.342	0.00990825
511.548	0.00996384
511.754	0.01001666
511.961	0.01002484
512.167	0.01005732
512.373	0.01009813
512.579	0.01020867
512.785	0.01024793
512.991	0.0102922
513.197	0.01039366
513.404	0.01046066
513.61	0.01057704
513.816	0.01068833
514.022	0.01068706
514.228	0.01077423
514.434	0.01081862
514.64	0.01085847
514.846	0.01097569
515.052	0.01104104
515.258	0.01109589
515.464	0.0111988
515.669	0.01126607
515.875	0.01136512
516.081	0.01139371
516.287	0.01146743
516.493	0.0115231
516.699	0.01161404
516.905	0.01169583
517.111	0.0117502
517.316	0.01183048
517.522	0.01196317
517.728	0.01198616
517.934	0.01203408
518.139	0.01207618
518.345	0.01209249
518.551	0.01218862
518.757	0.01227082
518.962	0.01232157
519.168	0.01241629
519.374	0.01251177
519.579	0.01259746
519.785	0.01269874
519.991	0.01283084
520.196	0.01294133
520.402	0.01300008
520.607	0.01312735
520.813	0.01322774
521.018	0.01331219
521.224	0.01342345
521.429	0.01349748
521.635	0.01358744
521.84	0.01368253
522.046	0.01375804
522.251	0.01387192
522.457	0.01396815
522.662	0.01408884
522.868	0.01417995
523.073	0.0142555
523.279	0.0143368
523.484	0.01443012
523.689	0.01449467
523.895	0.01462746
524.1	0.01474023
524.305	0.01486473
524.511	0.01495067
524.716	0.0151056
524.921	0.01521543
525.126	0.01532049
525.332	0.01537186
525.537	0.01543197
525.742	0.01553164
525.947	0.01559651
526.153	0.01566129
526.358	0.01574196
526.563	0.01581941
526.768	0.01596554
526.973	0.0160943
527.178	0.0161916
527.383	0.01635304
527.588	0.01646867
527.794	0.01660636
527.999	0.01675914
528.204	0.01687163
528.409	0.01697583
528.614	0.01703274
528.819	0.01711064
529.024	0.0172165
529.229	0.01728711
529.434	0.01735631
529.639	0.01747732
529.843	0.01758947
530.048	0.01770167
530.253	0.01784864
530.458	0.01799006
530.663	0.01811356
530.868	0.01828596
531.073	0.01840781
531.278	0.01852728
531.482	0.01872781
531.687	0.01884656
531.892	0.0189462
532.097	0.01910478
532.302	0.01915807
532.506	0.01927072
532.711	0.01938596
532.916	0.01949522
533.12	0.01963585
533.325	0.01975192
533.53	0.01985523
533.734	0.02004745
533.939	0.02020731
534.144	0.0203448
534.348	0.02043711
534.553	0.02055727
534.757	0.02070438
534.962	0.02079936
535.167	0.02092721
535.371	0.02102015
535.576	0.0211736
535.78	0.02133361
535.985	0.02146279
536.189	0.02161974
536.394	0.0218215
536.598	0.02195962
536.803	0.02206157
537.007	0.02217627
537.211	0.02228502
537.416	0.02240365
537.62	0.02254024
537.825	0.02263466
538.029	0.02270802
538.233	0.02289619
538.438	0.02307385
538.642	0.02325823
538.846	0.02343778
539.05	0.02357761
539.255	0.0237577
539.459	0.02398139
539.663	0.02410402
539.867	0.02421107
540.072	0.02430395
540.276	0.02449657
540.48	0.02467724
540.684	0.02482677
540.888	0.02500093
541.092	0.02516925
541.297	0.02538359
541.501	0.02557244
541.705	0.02569275
541.909	0.02586779
542.113	0.02603841
542.317	0.02617462
542.521	0.02634845
542.725	0.02648226
542.929	0.02663691
543.133	0.02674804
543.337	0.02689366
543.541	0.0270611
543.745	0.02728284
543.949	0.02744668
544.153	0.02760993
544.357	0.02780112
544.56	0.02802871
544.764	0.02823874
544.968	0.02839736
545.172	0.028527
545.376	0.02871834
545.58	0.02888538
545.783	0.02909289
545.987	0.02927516
546.191	0.02939801
546.395	0.02961574
546.598	0.02978966
546.802	0.02996539
547.006	0.03015815
547.21	0.03029575
547.413	0.03049122
547.617	0.03071138
547.821	0.030876
548.024	0.03107952
548.228	0.03123637
548.431	0.03138091
548.635	0.03155366
548.839	0.03172147
549.042	0.03189808
549.246	0.03205618
549.449	0.03222151
549.653	0.03250222
549.856	0.03272373
550.06	0.03299094
550.263	0.03321583
550.467	0.03341849
550.67	0.03362409
550.874	0.03381693
551.077	0.03396329
551.28	0.03415279
551.484	0.0342616
551.687	0.03445634
551.891	0.03462983
552.094	0.03481367
552.297	0.03502363
552.501	0.03524183
552.704	0.0355314
552.907	0.03575846
553.11	0.03598628
553.314	0.03620199
553.517	0.03644038
553.72	0.03669527
553.923	0.03693644
554.127	0.03710922
554.33	0.03736
554.533	0.03753122
554.736	0.03775793
554.939	0.03797486
555.142	0.03817968
555.345	0.03833613
555.549	0.03856206
555.752	0.0387561
555.955	0.03896753
556.158	0.03916629
556.361	0.03941994
556.564	0.03960735
556.767	0.03983499
556.97	0.04002291
557.173	0.04026427
557.376	0.04053806
557.579	0.04080489
557.782	0.04100766
557.984	0.04127525
558.187	0.04155531
558.39	0.04179815
558.593	0.04206549
558.796	0.04226442
558.999	0.04244836
559.202	0.04266243
559.404	0.04290466
559.607	0.04311596
559.81	0.04337965
560.013	0.04358272
560.216	0.04385001
560.418	0.04413172
560.621	0.04443634
560.824	0.0446654
561.026	0.04493106
561.229	0.04514825
561.432	0.04539893
561.634	0.04562901
561.837	0.04592535
562.04	0.04615412
562.242	0.04642848
562.445	0.04665712
562.647	0.0469377
562.85	0.04718385
563.053	0.04747462
563.255	0.04765648
563.458	0.04787706
563.66	0.04808485
563.863	0.04839153
564.065	0.04862522
564.268	0.04889132
564.47	0.04911691
564.672	0.04941323
564.875	0.04973323
565.077	0.04996205
565.28	0.05018411
565.482	0.05046405
565.684	0.05071722
565.887	0.0509643
566.089	0.05120474
566.291	0.05141636
566.494	0.05172587
566.696	0.0519883
566.898	0.05224797
567.1	0.05251982
567.303	0.05284755
567.505	0.05309644
567.707	0.05338334
567.909	0.0536081
568.111	0.05386825
568.314	0.05414404
568.516	0.05442698
568.718	0.05470188
568.92	0.0550154
569.122	0.0552279
569.324	0.05553742
569.526	0.05579334
569.728	0.0560885
569.93	0.05635784
570.132	0.05660951
570.334	0.05688638
570.536	0.05722792
570.738	0.05750854
570.94	0.05782221
571.142	0.05811718
571.344	0.0583701
571.546	0.05862744
571.748	0.05894627
571.95	0.05921869
572.152	0.05948898
572.354	0.05975049
572.555	0.06004809
572.757	0.06037645
572.959	0.06069196
573.161	0.06092616
573.363	0.06119413
573.564	0.06152186
573.766	0.06179902
573.968	0.06204446
574.17	0.06232073
574.371	0.062585
574.573	0.06287716
574.775	0.06317226
574.976	0.06342863
575.178	0.06373867
575.38	0.06400924
575.581	0.06430693
575.783	0.06460529
575.985	0.06491751
576.186	0.06517525
576.388	0.0655083
576.589	0.06582215
576.791	0.06615902
576.992	0.06644622
577.194	0.06672357
577.395	0.0670258
577.597	0.06739301
577.798	0.06766828
578	0.06794404
578.201	0.06823602
578.402	0.06849938
578.604	0.06878188
578.805	0.06904768
579.007	0.06936418
579.208	0.06967398
579.409	0.06995316
579.611	0.07024492
579.812	0.07057922
580.013	0.07093824
580.215	0.07126922
580.416	0.07154797
580.617	0.0718511
580.818	0.07218915
581.019	0.07247609
581.221	0.07277755
581.422	0.07305516
581.623	0.07336714
581.824	0.07365296
582.025	0.07397408
582.226	0.07423316
582.428	0.07459388
582.629	0.07492559
582.83	0.0752953
583.031	0.07561393
583.232	0.07592462
583.433	0.07623381
583.634	0.07659774
583.835	0.07689287
584.036	0.07720263
584.237	0.07746611
584.438	0.07774809
584.639	0.07807323
584.84	0.07839267
585.041	0.07869819
585.242	0.07900118
585.442	0.07930321
585.643	0.07963639
585.844	0.07996084
586.045	0.08028692
586.246	0.08056144
586.447	0.08085274
586.647	0.08113461
586.848	0.08147466
587.049	0.08177185
587.25	0.08207891
587.45	0.08235835
587.651	0.08269151
587.852	0.08305517
588.053	0.08347205
588.253	0.08376321
588.454	0.08407401
588.655	0.08438632
588.855	0.08474394
589.056	0.08507756
589.256	0.08539147
589.457	0.08566541
589.658	0.08598544
589.858	0.08630619
590.059	0.08666115
590.259	0.08696748
590.46	0.08727853
590.66	0.08760626
590.861	0.08791181
591.061	0.08820135
591.262	0.08850353
591.462	0.0888099
591.662	0.08907744
591.863	0.0893917
592.063	0.08964457
592.264	0.08996986
592.464	0.0902555
592.664	0.0906065
592.865	0.09094426
593.065	0.0912647
593.265	0.09159065
593.465	0.0919386
593.666	0.09223022
593.866	0.09258969
594.066	0.09290921
594.266	0.09313152
594.467	0.09347985
594.667	0.09373293
594.867	0.09404504
595.067	0.09434775
595.267	0.09463959
595.467	0.0949431
595.668	0.09532456
595.868	0.09566978
596.068	0.09603382
596.268	0.09631634
596.468	0.09664774
596.668	0.09697873
596.868	0.09728807
597.068	0.09756588
597.268	0.09786998
597.468	0.0981764
597.668	0.09855276
597.868	0.09882945
598.068	0.09918421
598.268	0.09947701
598.467	0.09984353
598.667	0.10012265
598.867	0.10043699
599.067	0.10071954
599.267	0.10101962
599.467	0.10129402
599.667	0.10160403
599.866	0.10187279
600.066	0.1021707
600.266	0.10242879
600.466	0.10273074
600.665	0.10300627
600.865	0.10333358
601.065	0.10364388
601.264	0.10388791
601.464	0.10417714
601.664	0.10455424
601.863	0.10484153
602.063	0.10518273
602.263	0.10539957
602.462	0.10565284
602.662	0.10597948
602.861	0.106287
603.061	0.10652609
603.26	0.1068162
603.46	0.10706068
603.659	0.10739667
603.859	0.10768024
604.058	0.1079442
604.258	0.10824609
604.457	0.10855939
604.657	0.10879828
604.856	0.10907502
605.056	0.10936448
605.255	0.10969527
605.454	0.11006008
605.654	0.11029133
605.853	0.11055609
606.052	0.1108908
606.252	0.11122321
606.451	0.11151108
606.65	0.11179499
606.849	0.11199839
607.049	0.1123212
607.248	0.11258377
607.447	0.11284778
607.646	0.11313028
607.845	0.11339788
608.045	0.11362197
608.244	0.11397501
608.443	0.11425797
608.642	0.11459673
608.841	0.11485054
609.04	0.11507508
609.239	0.11535559
609.438	0.11560926
609.637	0.11589219
609.836	0.11614749
610.035	0.11637131
610.234	0.11667093
610.433	0.11699416
610.632	0.11726687
610.831	0.11762534
611.03	0.11782589
611.229	0.11815619
611.428	0.11842415
611.627	0.11869685
611.826	0.1189987
612.025	0.11934462
612.224	0.11954202
612.422	0.11983776
612.621	0.1200758
612.82	0.12037913
613.019	0.12069603
613.218	0.12103528
613.416	0.12123168
613.615	0.1216127
613.814	0.12193278
614.012	0.12223941
614.211	0.12246266
614.41	0.12274969
614.608	0.12293988
614.807	0.12320063
615.006	0.12345808
615.204	0.12367042
615.403	0.12394325
615.602	0.12425172
615.8	0.12453311
615.999	0.12472382
616.197	0.12501464
616.396	0.12531074
616.594	0.12553374
616.793	0.12576046
616.991	0.12599074
617.19	0.12610995
617.388	0.12647641
617.586	0.12669478
617.785	0.12685606
617.983	0.12718926
618.182	0.12740711
618.38	0.12762926
618.578	0.12797088
618.777	0.12822017
618.975	0.12849309
619.173	0.12877523
619.372	0.12899774
619.57	0.12923864
619.768	0.12951651
619.966	0.12976389
620.165	0.12993368
620.363	0.13017869
620.561	0.13036656
620.759	0.13060113
620.957	0.13087645
621.155	0.13113189
621.354	0.13129623
621.552	0.13160787
621.75	0.13188226
621.948	0.13221015
622.146	0.13247026
622.344	0.13272883
622.542	0.13296613
622.74	0.1332656
622.938	0.13344019
623.136	0.13367192
623.334	0.13389414
623.532	0.13405465
623.73	0.13427365
623.928	0.1345395
624.126	0.13477927
624.324	0.13507196
624.522	0.13523255
624.719	0.13546581
624.917	0.13572851
625.115	0.13592552
625.313	0.13615505
625.511	0.13639307
625.708	0.13651803
625.906	0.13682088
626.104	0.13700536
626.302	0.13730222
626.499	0.13756722
626.697	0.13779584
626.895	0.1379722
627.093	0.13822058
627.29	0.13842297
627.488	0.13865756
627.686	0.13885758
627.883	0.13903894
628.081	0.13919184
628.278	0.1395579
628.476	0.13978957
628.673	0.14004878
628.871	0.14030033
629.068	0.14054666
629.266	0.14080415
629.463	0.14099254
629.661	0.14112539
629.858	0.14132244
630.056	0.14146867
630.253	0.14163733
630.451	0.14179158
630.648	0.14196778
630.845	0.14220709
631.043	0.14238294
631.24	0.14263444
631.438	0.1428785
631.635	0.14311211
631.832	0.14326287
632.029	0.14350235
632.227	0.14376359
632.424	0.14399846
632.621	0.14418458
632.818	0.14437127
633.016	0.14453369
633.213	0.14474425
633.41	0.14498811
633.607	0.14512563
633.804	0.14530437
634.001	0.14552042
634.199	0.14575581
634.396	0.14595542
634.593	0.14616341
634.79	0.14633399
634.987	0.14660442
635.184	0.14684704
635.381	0.14710677
635.578	0.14735155
635.775	0.14760436
635.972	0.14782965
636.169	0.14801525
636.366	0.14816804
636.563	0.14831026
636.76	0.14839501
636.957	0.14853845
637.153	0.14868659
637.35	0.14889883
637.547	0.14906959
637.744	0.14926969
637.941	0.14950491
638.138	0.14977833
638.334	0.1499636
638.531	0.15023224
638.728	0.15042323
638.925	0.15070259
639.121	0.1508924
639.318	0.15107617
639.515	0.15123358
639.711	0.15143828
639.908	0.15153059
640.105	0.15170155
640.301	0.15182985
640.498	0.15201855
640.695	0.15220949
640.891	0.15239702
641.088	0.15253146
641.284	0.15276581
641.481	0.15294358
641.677	0.15310005
641.874	0.15328002
642.07	0.15348593
642.267	0.15364977
642.463	0.15385393
642.66	0.15405934
642.856	0.15423854
643.053	0.15441991
643.249	0.15463361
643.445	0.15477001
643.642	0.15496557
643.838	0.15518205
644.034	0.15535792
644.231	0.15557317
644.427	0.15574958
644.623	0.15589624
644.82	0.15612693
645.016	0.15631189
645.212	0.15643028
645.408	0.15657032
645.604	0.15682967
645.801	0.1570383
645.997	0.15723257
646.193	0.15733657
646.389	0.15754339
646.585	0.15774755
646.781	0.15798819
646.977	0.15808422
647.173	0.15821585
647.37	0.15834592
647.566	0.15851652
647.762	0.15863675
647.958	0.15881769
648.154	0.15892143
648.35	0.15908423
648.546	0.15928479
648.742	0.15954973
648.937	0.15970334
649.133	0.15992674
649.329	0.16014676
649.525	0.16034194
649.721	0.16058477
649.917	0.16081111
650.113	0.16089204
650.309	0.16116616
650.504	0.16130096
650.7	0.16141281
650.896	0.16163708
651.092	0.16176105
651.287	0.16187414
651.483	0.1621106
651.679	0.16220073
651.875	0.16244848
652.07	0.16264273
652.266	0.16273167
652.462	0.16286553
652.657	0.16304483
652.853	0.1631736
653.048	0.16338051
653.244	0.16343922
653.44	0.16357696
653.635	0.16373055
653.831	0.16396722
654.026	0.16421521
654.222	0.16438506
654.417	0.16459564
654.613	0.16478919
654.808	0.16496378
655.004	0.16521549
655.199	0.16532508
655.394	0.16546807
655.59	0.16573514
655.785	0.16587578
655.98	0.16610264
656.176	0.16627362
656.371	0.16649808
656.566	0.16672242
656.762	0.16684069
656.957	0.16698629
657.152	0.16714979
657.348	0.16735687
657.543	0.16756919
657.738	0.16772887
657.933	0.1678589
658.128	0.16804027
658.324	0.1681448
658.519	0.16831623
658.714	0.16847233
658.909	0.1686304
659.104	0.16878838
659.299	0.16895214
659.494	0.16909839
659.689	0.16930187
659.884	0.16945862
660.079	0.1695773
660.274	0.16976089
660.469	0.1699287
660.664	0.17015792
660.859	0.1704238
661.054	0.17062793
661.249	0.17088508
661.444	0.17107432
661.639	0.17123608
661.834	0.17138033
662.029	0.17159297
662.224	0.17169174
662.418	0.17187968
662.613	0.17200895
662.808	0.17218239
663.003	0.17235527
663.198	0.17252685
663.392	0.17266007
663.587	0.17295103
663.782	0.17306335
663.977	0.17325781
664.171	0.17344315
664.366	0.17369014
664.561	0.17392362
664.755	0.1741369
664.95	0.1742228
665.144	0.17445533
665.339	0.17464645
665.534	0.17486242
665.728	0.17505203
665.923	0.17521394
666.117	0.17537274
666.312	0.1755586
666.506	0.17575821
666.701	0.17590994
666.895	0.17603583
667.09	0.17614706
667.284	0.17636515
667.479	0.17653469
667.673	0.17673737
667.867	0.17695412
668.062	0.17714666
668.256	0.17741011
668.45	0.1776612
668.645	0.17781467
668.839	0.17803682
669.033	0.17826547
669.228	0.17843258
669.422	0.17865581
669.616	0.17881018
669.81	0.17903503
670.004	0.17920181
670.199	0.17937427
670.393	0.17951996
670.587	0.17967003
670.781	0.17982272
670.975	0.18004221
671.169	0.18013549
671.363	0.18030174
671.558	0.18046245
671.752	0.18066979
671.946	0.18089909
672.14	0.18113644
672.334	0.18125439
672.528	0.18154348
672.722	0.18174299
672.916	0.18198492
673.11	0.18217362
673.304	0.18242751
673.497	0.18254704
673.691	0.18286123
673.885	0.1830479
674.079	0.18333521
674.273	0.18353363
674.467	0.18376302
674.661	0.18391996
674.854	0.1841918
675.048	0.18439134
675.242	0.18459782
675.436	0.18480638
675.629	0.18498347
675.823	0.18513038
676.017	0.18533262
676.211	0.18549942
676.404	0.18564731
676.598	0.18578121
676.792	0.18599371
676.985	0.18624919
677.179	0.18646908
677.372	0.1866399
677.566	0.18692871
677.76	0.18717209
677.953	0.18741733
678.147	0.18759111
678.34	0.18783815
678.534	0.18807867
678.727	0.18836657
678.921	0.18859352
679.114	0.18883174
679.307	0.18907729
679.501	0.18931681
679.694	0.18951375
679.888	0.18973211
680.081	0.1899172
680.274	0.19004358
680.468	0.19027313
680.661	0.19043634
680.854	0.19073962
681.048	0.19096547
681.241	0.19120465
681.434	0.19137097
681.627	0.19164557
681.821	0.19182608
682.014	0.19215699
682.207	0.19227607
682.4	0.19243508
682.593	0.19265029
682.786	0.19288701
682.98	0.1930838
683.173	0.19334661
683.366	0.19352473
683.559	0.19376444
683.752	0.19408147
683.945	0.19433908
684.138	0.19462256
684.331	0.1948159
684.524	0.19507952
684.717	0.19527188
684.91	0.19553356
685.103	0.19573854
685.296	0.19596704
685.489	0.19619072
685.682	0.19646415
685.874	0.19668943
686.067	0.19693956
686.26	0.19714531
686.453	0.19733169
686.646	0.19752072
686.839	0.19777654
687.031	0.19802281
687.224	0.19817313
687.417	0.19842788
687.61	0.19863752
687.802	0.19886772
687.995	0.1991099
688.188	0.19929172
688.38	0.19951082
688.573	0.19978347
688.766	0.19998577
688.958	0.2002433
689.151	0.2004671
689.343	0.20072937
689.536	0.20098371
689.729	0.20121646
689.921	0.20145149
690.114	0.20163123
690.306	0.2018353
690.499	0.20209572
690.691	0.20236842
690.884	0.20258937
691.076	0.20286037
691.268	0.2030904
691.461	0.20330944
691.653	0.20357077
691.846	0.2038193
692.038	0.20400799
692.23	0.20424043
692.423	0.20443967
692.615	0.20468203
692.807	0.20501529
692.999	0.20528547
693.192	0.20548984
693.384	0.20576286
693.576	0.20598989
693.768	0.2062979
693.961	0.20652275
694.153	0.20675812
694.345	0.20694294
694.537	0.20721787
694.729	0.20744432
694.921	0.20767921
695.113	0.20791747
695.305	0.2081457
695.498	0.20828295
695.69	0.20859156
695.882	0.20885419
696.074	0.20914441
696.266	0.20940657
696.458	0.20959653
696.65	0.20987191
696.842	0.21023469
697.033	0.21043439
697.225	0.21065951
697.417	0.21091929
697.609	0.21123396
697.801	0.21150116
697.993	0.21183392
698.185	0.21206873
698.376	0.21233011
698.568	0.21259128
698.76	0.21285801
698.952	0.21310887
699.144	0.21339919
699.335	0.21355309
699.527	0.21383513
699.719	0.21406441
699.91	0.21435095
700.102	0.21452483
700.294	0.21476215
700.485	0.21502352
700.677	0.21529869
700.869	0.21554917
701.06	0.21588332
701.252	0.21611756
701.443	0.21638343
701.635	0.21665827
701.826	0.21693072
702.018	0.21720101
702.209	0.2174702
702.401	0.21766775
702.592	0.21799121
702.784	0.21824183
702.975	0.21852728
703.166	0.21872714
703.358	0.21898659
703.549	0.21925509
703.741	0.21957454
703.932	0.21973826
704.123	0.22003755
704.315	0.2202549
704.506	0.22058174
704.697	0.22086986
704.888	0.22115443
705.08	0.22143787
705.271	0.22173355
705.462	0.22195314
705.653	0.22220237
705.844	0.22242322
706.035	0.22268377
706.227	0.22293174
706.418	0.22314461
706.609	0.22342248
706.8	0.22375646
706.991	0.22403875
707.182	0.22432083
707.373	0.22456328
707.564	0.22479416
707.755	0.22500586
707.946	0.22530489
708.137	0.22548918
708.328	0.22574874
708.519	0.22602321
708.71	0.22633398
708.901	0.22656344
709.092	0.22686761
709.283	0.2270873
709.473	0.22736586
709.664	0.22766838
709.855	0.22789051
710.046	0.22810617
710.237	0.22838747
710.427	0.22863611
710.618	0.22891809
710.809	0.22918253
711	0.22944246
711.19	0.229671
711.381	0.22997582
711.572	0.23020571
711.762	0.2305021
711.953	0.23072007
712.144	0.23096811
712.334	0.23116233
712.525	0.2314879
712.715	0.23171044
712.906	0.23205821
713.097	0.2322739
713.287	0.23252863
713.478	0.2328021
713.668	0.23309125
713.859	0.23331157
714.049	0.23352064
714.239	0.23375957
714.43	0.23406773
714.62	0.23433179
714.811	0.23462524
715.001	0.23485923
715.191	0.23511069
715.382	0.23535163
715.572	0.23561351
715.762	0.2357959
715.953	0.23604548
716.143	0.23632829
716.333	0.23659118
716.523	0.23688771
716.714	0.23723562
716.904	0.23745618
717.094	0.23777152
717.284	0.23799438
717.474	0.23815757
717.664	0.23843188
717.855	0.23861376
718.045	0.23881228
718.235	0.23907356
718.425	0.23932345
718.615	0.23959258
718.805	0.23990793
718.995	0.2401562
719.185	0.24049176
719.375	0.24078631
719.565	0.24109155
719.755	0.24140704
719.945	0.24174806
720.135	0.24204237
720.325	0.24231634
720.515	0.24259509
720.704	0.24289459
720.894	0.24313201
721.084	0.24338179
721.274	0.24364814
721.464	0.24394245
721.654	0.24424686
721.843	0.24448038
722.033	0.24471119
722.223	0.24495957
722.413	0.2452591
722.602	0.24548455
722.792	0.24571656
722.982	0.2459323
723.171	0.2462038
723.361	0.24645547
723.55	0.24674504
723.74	0.24696456
723.93	0.24724109
724.119	0.24747855
724.309	0.24771253
724.498	0.24799191
724.688	0.24829396
724.877	0.24851866
725.067	0.24874434
725.256	0.24897504
725.446	0.2491999
725.635	0.24937767
725.825	0.2495215
726.014	0.24969609
726.203	0.24987824
726.393	0.25003216
726.582	0.25021701
726.771	0.25042197
726.961	0.25070705
727.15	0.25091908
727.339	0.25111442
727.529	0.25141462
727.718	0.25162634
727.907	0.25182494
728.096	0.25203892
728.286	0.25223903
728.475	0.25250822
728.664	0.25274063
728.853	0.25285219
729.042	0.25299015
729.231	0.25322795
729.42	0.25342344
729.609	0.25363547
729.799	0.25378892
729.988	0.25397017
730.177	0.25419627
730.366	0.25446915
730.555	0.25462309
730.744	0.25478318
730.933	0.25496197
731.122	0.25514755
731.31	0.25533093
731.499	0.25553238
731.688	0.25572969
731.877	0.25591394
732.066	0.25614215
732.255	0.25629549
732.444	0.25651485
732.632	0.25670083
732.821	0.2568523
733.01	0.25701927
733.199	0.25717674
733.388	0.25729623
733.576	0.25750483
733.765	0.25763945
733.954	0.25781942
734.142	0.25797228
734.331	0.25815584
734.52	0.258376
734.708	0.25860174
734.897	0.25880481
735.086	0.25896815
735.274	0.259058
735.463	0.25929096
735.651	0.25946006
735.84	0.25963605
736.028	0.25979459
736.217	0.25991792
736.405	0.26008484
736.594	0.26029982
736.782	0.26045115
736.971	0.26056088
737.159	0.26071903
737.347	0.2608707
737.536	0.26098212
737.724	0.26115686
737.912	0.26133476
738.101	0.26142579
738.289	0.26161517
738.477	0.26170274
738.666	0.26190656
738.854	0.26213236
739.042	0.26228778
739.23	0.26243368
739.418	0.26267297
739.607	0.26284743
739.795	0.26305565
739.983	0.26317021
740.171	0.26335637
740.359	0.26352045
740.547	0.26365068
740.735	0.2637884
740.923	0.26402626
741.112	0.26419044
741.3	0.26437096
741.488	0.26447862
741.676	0.26469568
741.864	0.26481283
742.052	0.26499735
742.239	0.26504248
742.427	0.26516153
742.615	0.26523214
742.803	0.265306
742.991	0.26530213
743.179	0.26549658
743.367	0.26558591
743.555	0.26577422
743.742	0.26590733
743.93	0.26610531
744.118	0.26625216
744.306	0.2664836
744.494	0.26656324
744.681	0.26665123
744.869	0.26675052
745.057	0.26687888
745.244	0.26700367
745.432	0.26721073
745.62	0.26730214
745.807	0.26746693
745.995	0.26762277
746.182	0.26766174
746.37	0.26775173
746.558	0.26779904
746.745	0.26783354
746.933	0.26796001
747.12	0.26808037
747.308	0.26826877
747.495	0.26844169
747.683	0.26854649
747.87	0.26872959
748.057	0.26886959
748.245	0.26901693
748.432	0.26914636
748.62	0.26915907
748.807	0.26919838
748.994	0.26934282
749.182	0.26938531
749.369	0.26947863
749.556	0.26953769
749.743	0.2696344
749.931	0.26973266
750.118	0.26987849
750.305	0.26996968
750.492	0.27010363
750.68	0.27022554
750.867	0.27028799
751.054	0.27036903
751.241	0.27046558
751.428	0.2706144
751.615	0.27071266
751.802	0.27080752
751.989	0.27087021
752.176	0.27102229
752.363	0.27111244
752.55	0.2711942
752.737	0.27122417
752.924	0.27126411
753.111	0.27137751
753.298	0.27146597
753.485	0.27152153
753.672	0.27154748
753.859	0.27169291
754.046	0.27181515
754.233	0.27185968
754.42	0.27191132
754.606	0.27193697
754.793	0.27197823
754.98	0.27205156
755.167	0.27201272
755.353	0.27206699
755.54	0.27223722
755.727	0.27229787
755.914	0.2723898
756.1	0.27242199
756.287	0.27246608
756.474	0.27254112
756.66	0.27259717
756.847	0.27257675
757.033	0.2725139
757.22	0.27254962
757.407	0.2726615
757.593	0.27277571
757.78	0.27284112
757.966	0.27285668
758.153	0.27294049
758.339	0.27301695
758.526	0.27299456
758.712	0.27294384
758.898	0.27297494
759.085	0.27296667
759.271	0.27299953
759.458	0.27299697
759.644	0.27307648
759.83	0.27321356
760.017	0.27334329
760.203	0.27332787
760.389	0.27335506
760.576	0.27333673
760.762	0.27335612
760.948	0.27331817
761.134	0.27326512
761.32	0.27320383
761.507	0.27316768
761.693	0.27324808
761.879	0.27328528
762.065	0.27331601
762.251	0.27344503
762.437	0.27353578
762.623	0.27354231
762.809	0.27360208
762.995	0.27359082
763.181	0.2736029
763.367	0.27356699
763.553	0.27348966
763.739	0.27346092
763.925	0.27350159
764.111	0.27351293
764.297	0.27347602
764.483	0.27342499
764.669	0.27338938
764.855	0.2733674
765.041	0.27331094
765.227	0.27323448
765.412	0.27322492
765.598	0.27317964
765.784	0.27317324
765.97	0.27322078
766.156	0.27317218
766.341	0.2732251
766.527	0.27320578
766.713	0.27313704
766.898	0.27314492
767.084	0.27315126
767.27	0.27305984
767.455	0.27306136
767.641	0.27304186
767.827	0.27307621
768.012	0.27310168
768.198	0.27308774
768.383	0.27306663
768.569	0.27308611
768.754	0.27303391
768.94	0.27291199
769.125	0.27284133
769.311	0.27271579
769.496	0.2726719
769.682	0.27261345
769.867	0.27260295
770.052	0.27262711
770.238	0.27253112
770.423	0.27250006
770.608	0.27246803
770.794	0.27232072
770.979	0.27223723
771.164	0.2721092
771.35	0.27200864
771.535	0.27202544
771.72	0.27191845
771.905	0.27191932
772.09	0.27190751
772.276	0.27183181
772.461	0.27179761
772.646	0.27171277
772.831	0.27163598
773.016	0.27156554
773.201	0.27148766
773.386	0.27150278
773.571	0.27142831
773.756	0.27126434
773.941	0.27114407
774.126	0.27111306
774.311	0.27104833
774.496	0.27094716
774.681	0.27073562
774.866	0.27065431
775.051	0.2705796
775.236	0.27053737
775.421	0.27032092
775.606	0.27018992
775.791	0.27006369
775.976	0.27003986
776.16	0.26999194
776.345	0.26993318
776.53	0.26989595
776.715	0.26986954
776.899	0.26976425
777.084	0.26962631
777.269	0.26948365
777.454	0.26930809
777.638	0.26922131
777.823	0.26898273
778.008	0.26880586
778.192	0.26874955
778.377	0.26861197
778.561	0.26853873
778.746	0.26848052
778.931	0.26836421
779.115	0.26836883
779.3	0.26828756
779.484	0.26810128
779.669	0.26803583
779.853	0.26785166
780.037	0.26771393
780.222	0.26751726
780.406	0.26730931
780.591	0.2671918
780.775	0.26712229
780.959	0.26700313
781.144	0.26685845
781.328	0.26669968
781.512	0.26659963
781.697	0.26645624
781.881	0.26629482
782.065	0.26606925
782.249	0.26584059
782.434	0.26571547
782.618	0.26558474
782.802	0.26547442
782.986	0.26535924
783.17	0.26524434
783.354	0.26513195
783.539	0.26497986
783.723	0.26482857
783.907	0.26463979
784.091	0.2644485
784.275	0.26428455
784.459	0.26408921
784.643	0.26392683
784.827	0.26379624
785.011	0.26363511
785.195	0.26352975
785.379	0.26338868
785.563	0.26327991
785.747	0.26312819
785.93	0.26309003
786.114	0.26294859
786.298	0.26276759
786.482	0.26253483
786.666	0.26235871
786.85	0.26213797
787.033	0.26196572
787.217	0.26174317
787.401	0.26154476
787.585	0.26137012
787.768	0.26124963
787.952	0.26105704
788.136	0.26082495
788.319	0.26064716
788.503	0.26032241
788.687	0.26011723
788.87	0.25991011
789.054	0.25967042
789.237	0.25945862
789.421	0.25923234
789.605	0.25901782
789.788	0.25883961
789.972	0.25863321
790.155	0.25840482
790.338	0.25815873
790.522	0.25793043
790.705	0.25771638
790.889	0.25750759
791.072	0.25735631
791.256	0.25715486
791.439	0.25697749
791.622	0.25675449
791.806	0.25661384
791.989	0.2563971
792.172	0.25621686
792.355	0.25601103
792.539	0.25582531
792.722	0.25560805
792.905	0.25538805
793.088	0.25514499
793.271	0.25499863
793.455	0.25474302
793.638	0.25453748
793.821	0.25427444
794.004	0.25410369
794.187	0.25393255
794.37	0.25369636
794.553	0.25347077
794.736	0.25324808
794.919	0.25293781
795.102	0.25276284
795.285	0.25247543
795.468	0.25224878
795.651	0.25202635
795.834	0.25177737
796.017	0.25154253
796.2	0.25132068
796.383	0.25107295
796.566	0.25087466
796.749	0.25065595
796.931	0.25041168
797.114	0.25015245
797.297	0.24987124
797.48	0.24963629
797.663	0.24937358
797.845	0.24907389
798.028	0.24881634
798.211	0.24861555
798.393	0.24834874
798.576	0.24813172
798.759	0.24786374
798.941	0.247577
799.124	0.24728221
799.307	0.24701726
799.489	0.2466985
799.672	0.24644543
799.854	0.24614728
800.037	0.24587856
800.219	0.24567443
800.402	0.24550873
800.584	0.24518676
800.767	0.24498373
800.949	0.24472857
801.132	0.24457033
801.314	0.24433649
801.496	0.24405376
801.679	0.24375943
801.861	0.24353466
802.043	0.24320205
802.226	0.24293156
802.408	0.24257289
802.59	0.2423464
802.772	0.24208282
802.955	0.24185493
803.137	0.24156189
803.319	0.24125804
803.501	0.24092156
803.684	0.24066981
803.866	0.24030849
804.048	0.24006191
804.23	0.23968886
804.412	0.2394592
804.594	0.23919757
804.776	0.23908839
804.958	0.23877341
805.14	0.23852308
805.322	0.23821586
805.504	0.23797283
805.686	0.23772289
805.868	0.23746902
806.05	0.2370589
806.232	0.23690197
806.414	0.23665087
806.596	0.23634736
806.778	0.23604749
806.96	0.23575327
807.141	0.23542223
807.323	0.23516212
807.505	0.23477027
807.687	0.23445104
807.869	0.23416033
808.05	0.23388546
808.232	0.23359429
808.414	0.23330301
808.595	0.23297355
808.777	0.23263842
808.959	0.23234839
809.14	0.23210179
809.322	0.23188527
809.504	0.23151262
809.685	0.23129404
809.867	0.23101743
810.048	0.23070998
810.23	0.23047189
810.411	0.23015154
810.593	0.22974193
810.774	0.22943811
810.956	0.22900954
811.137	0.22865603
811.319	0.228361
811.5	0.22797317
811.681	0.22767843
811.863	0.2274249
812.044	0.22702624
812.225	0.22677499
812.407	0.22649653
812.588	0.22615802
812.769	0.22580807
812.951	0.22545397
813.132	0.22511537
813.313	0.22492042
813.494	0.22454555
813.675	0.22421175
813.857	0.22392749
814.038	0.22366522
814.219	0.22325177
814.4	0.22289737
814.581	0.22257272
814.762	0.22218391
814.943	0.2218878
815.124	0.22158532
815.305	0.22120784
815.486	0.22092972
815.667	0.220632
815.848	0.22023651
816.029	0.21995704
816.21	0.21966232
816.391	0.2193704
816.572	0.21906561
816.753	0.21882295
816.934	0.21843981
817.115	0.2180875
817.295	0.2177778
817.476	0.21732963
817.657	0.21686512
817.838	0.21653987
818.019	0.21616393
818.199	0.21580399
818.38	0.21553812
818.561	0.2152412
818.741	0.21496744
818.922	0.21465636
819.103	0.21432587
819.283	0.21394646
819.464	0.21367073
819.645	0.21334082
819.825	0.21293167
820.006	0.21258788
820.186	0.21221729
820.367	0.21186803
820.547	0.21146255
820.728	0.21106854
820.908	0.21069202
821.089	0.21043004
821.269	0.21004417
821.45	0.20979154
821.63	0.20939596
821.81	0.20910501
821.991	0.20880247
822.171	0.20846317
822.351	0.20805725
822.532	0.20766273
822.712	0.20724121
822.892	0.20691869
823.072	0.20654598
823.253	0.20610222
823.433	0.20563913
823.613	0.20529377
823.793	0.20497956
823.973	0.20464853
824.154	0.20424702
824.334	0.20390736
824.514	0.20358255
824.694	0.20333511
824.874	0.20289718
825.054	0.2025254
825.234	0.20207395
825.414	0.20178984
825.594	0.20137332
825.774	0.20101046
825.954	0.200693
826.134	0.20036794
826.314	0.20002211
826.494	0.19973233
826.674	0.19930972
826.854	0.19897609
827.033	0.19854776
827.213	0.19810451
827.393	0.19771199
827.573	0.19738625
827.753	0.1970345
827.932	0.19669821
828.112	0.19634189
828.292	0.19606064
828.472	0.19569193
828.651	0.19542199
828.831	0.1950051
829.011	0.19468983
829.19	0.19432195
829.37	0.19390511
829.549	0.19347846
829.729	0.19315861
829.909	0.19272018
830.088	0.19240131
830.268	0.19194422
830.447	0.19149452
830.627	0.19118565
830.806	0.19089365
830.986	0.19045663
831.165	0.19016228
831.344	0.18983853
831.524	0.18953425
831.703	0.18924526
831.883	0.18882683
832.062	0.18835605
832.241	0.18796308
832.421	0.18753723
832.6	0.18709247
832.779	0.18668172
832.958	0.18627686
833.138	0.18592335
833.317	0.18565767
833.496	0.18531707
833.675	0.18497128
833.854	0.18462364
834.034	0.18426211
834.213	0.18386993
834.392	0.18352714
834.571	0.18306191
834.75	0.18262995
834.929	0.18225421
835.108	0.18178499
835.287	0.18146645
835.466	0.18111495
835.645	0.18071954
835.824	0.18035424
836.003	0.1800559
836.182	0.17970824
836.361	0.17946073
836.54	0.17909391
836.719	0.17870068
836.897	0.17833964
837.076	0.17801378
837.255	0.17762212
837.434	0.17728441
837.613	0.17677447
837.791	0.1762885
837.97	0.17589338
838.149	0.17543778
838.328	0.17501821
838.506	0.1746224
838.685	0.17419515
838.864	0.173942
839.042	0.17360801
839.221	0.1733075
839.4	0.17296724
839.578	0.17257525
839.757	0.17225451
839.935	0.17185689
840.114	0.17147922
840.292	0.17108987
840.471	0.17076458
840.649	0.17039404
840.828	0.17007026
841.006	0.16977777
841.185	0.16929938
841.363	0.16897127
841.541	0.16870152
841.72	0.16832471
841.898	0.168065
842.076	0.1676175
842.255	0.16718759
842.433	0.16686243
842.611	0.16642231
842.789	0.16593809
842.968	0.16542277
843.146	0.16496068
843.324	0.16470325
843.502	0.16433071
843.68	0.1640759
843.859	0.16373213
844.037	0.1634384
844.215	0.16306761
844.393	0.1627345
844.571	0.16230291
844.749	0.1619061
844.927	0.16144171
845.105	0.1609623
845.283	0.16044692
845.461	0.16013297
845.639	0.15976402
845.817	0.15944618
845.995	0.15909226
846.173	0.15872055
846.351	0.15850993
846.529	0.15826092
846.706	0.15786088
846.884	0.15747342
847.062	0.15702929
847.24	0.15664579
847.418	0.15621158
847.595	0.15564177
847.773	0.15530141
847.951	0.15500882
848.129	0.15467101
848.306	0.15438559
848.484	0.15409195
848.662	0.15386461
848.839	0.15366959
849.017	0.15326587
849.194	0.15283329
849.372	0.15245579
849.549	0.15207395
849.727	0.1516229
849.905	0.15109103
850.082	0.15058523
850.26	0.15028191
850.437	0.14997192
850.614	0.14960112
850.792	0.1492449
850.969	0.14896182
851.147	0.14875738
851.324	0.14851218
851.501	0.14808592
851.679	0.14765124
851.856	0.14726451
852.033	0.14690619
852.211	0.14639801
852.388	0.14596858
852.565	0.1455731
852.742	0.14522946
852.92	0.14488646
853.097	0.14457797
853.274	0.14419281
853.451	0.14392608
853.628	0.14359237
853.805	0.14321444
853.982	0.14292336
854.159	0.14254021
854.336	0.14211668
854.514	0.14170369
854.691	0.14125637
854.868	0.14084993
855.045	0.14041818
855.221	0.13994402
855.398	0.13956951
855.575	0.13924819
855.752	0.13899331
855.929	0.13876476
856.106	0.13843104
856.283	0.13817006
856.46	0.13784178
856.637	0.13755486
856.813	0.13724546
856.99	0.13684816
857.167	0.13638581
857.344	0.13598501
857.52	0.13567129
857.697	0.13528621
857.874	0.13481328
858.05	0.13432745
858.227	0.13393335
858.404	0.13364547
858.58	0.1334212
858.757	0.13309492
858.933	0.13272734
859.11	0.13253371
859.287	0.13218395
859.463	0.13188425
859.64	0.13151568
859.816	0.13100242
859.993	0.13051537
860.169	0.13021179
860.345	0.12979065
860.522	0.12946137
860.698	0.12911498
860.875	0.12877303
861.051	0.12855839
861.227	0.12829295
861.404	0.12793655
861.58	0.1276742
861.756	0.12730017
861.932	0.1269235
862.109	0.12658125
862.285	0.12619994
862.461	0.12584402
862.637	0.12541952
862.813	0.12488768
862.99	0.12452643
863.166	0.124147
863.342	0.12382677
863.518	0.12350967
863.694	0.12321418
863.87	0.12297409
864.046	0.12279737
864.222	0.12259398
864.398	0.1223133
864.574	0.12188655
864.75	0.12149635
864.926	0.12106911
865.102	0.12067026
865.278	0.12018188
865.454	0.11975049
865.63	0.11932573
865.805	0.11901293
865.981	0.11870863
866.157	0.11838167
866.333	0.11803308
866.509	0.11788768
866.684	0.11760715
866.86	0.11742477
867.036	0.11703535
867.212	0.11666861
867.387	0.11636164
867.563	0.11608944
867.739	0.11562097
867.914	0.11527507
868.09	0.11485906
868.265	0.11459897
868.441	0.11428802
868.617	0.11391891
868.792	0.11362192
868.968	0.11333684
869.143	0.11311536
869.319	0.1128064
869.494	0.11249175
869.67	0.11212925
869.845	0.11193492
870.02	0.11157891
870.196	0.11111987
870.371	0.11063011
870.546	0.11026483
870.722	0.109863
870.897	0.10947556
871.072	0.10902823
871.248	0.10865733
871.423	0.10840336
871.598	0.10816899
871.773	0.10780998
871.949	0.10759599
872.124	0.10745505
872.299	0.10722616
872.474	0.10693299
872.649	0.10657056
872.824	0.10616149
872.999	0.10574823
873.174	0.10533595
873.349	0.10488061
873.524	0.10442753
873.699	0.10415393
873.874	0.10387514
874.049	0.10360494
874.224	0.10347756
874.399	0.10320342
874.574	0.10297734
874.749	0.10274968
874.924	0.10232941
875.099	0.10210208
875.274	0.10183447
875.449	0.10151633
875.623	0.1010883
875.798	0.10071897
875.973	0.10043921
876.148	0.10009626
876.322	0.09975208
876.497	0.09940788
876.672	0.09905211
876.846	0.09888766
877.021	0.09861324
877.196	0.09819634
877.37	0.09802795
877.545	0.09788186
877.72	0.09762009
877.894	0.09741765
878.069	0.0971296
878.243	0.09673262
878.418	0.09648586
878.592	0.09600572
878.767	0.09545373
878.941	0.09501175
879.116	0.09458918
879.29	0.09423718
879.464	0.09398628
879.639	0.09373762
879.813	0.09359741
879.987	0.09343954
880.162	0.09326768
880.336	0.09299723
880.51	0.09279424
880.685	0.09258314
880.859	0.09226691
881.033	0.09201717
881.207	0.09163766
881.381	0.09135625
881.556	0.09102392
881.73	0.09058308
881.904	0.09025683
882.078	0.08995235
882.252	0.08965233
882.426	0.08951998
882.6	0.08921754
882.774	0.08905587
882.948	0.088942
883.122	0.08868721
883.296	0.08841188
883.47	0.08816066
883.644	0.08783948
883.818	0.08743544
883.992	0.08713425
884.166	0.08674815
884.34	0.08646846
884.514	0.08630672
884.687	0.08605245
884.861	0.08569785
885.035	0.08559493
885.209	0.08534735
885.382	0.08523129
885.556	0.08505712
885.73	0.08482094
885.904	0.08457615
886.077	0.08433265
886.251	0.0839409
886.425	0.08363803
886.598	0.08325367
886.772	0.08290726
886.945	0.08248271
887.119	0.08201169
887.292	0.08177841
887.466	0.08148817
887.64	0.08116778
887.813	0.08093458
887.986	0.08064771
888.16	0.08051276
888.333	0.08035287
888.507	0.08013321
888.68	0.08009951
888.854	0.07987867
889.027	0.07960677
889.2	0.07930409
889.374	0.07889976
889.547	0.0785612
889.72	0.07827174
889.893	0.07789407
890.067	0.0775769
890.24	0.07723643
890.413	0.07712345
890.586	0.07685489
890.759	0.0767708
890.933	0.0764966
891.106	0.07620529
891.279	0.07610759
891.452	0.07592782
891.625	0.07560491
891.798	0.07541186
891.971	0.075132
892.144	0.07482886
892.317	0.07458295
892.49	0.07418177
892.663	0.07395047
892.836	0.07369604
893.009	0.07343202
893.182	0.07320929
893.355	0.07306856
893.527	0.07285418
893.7	0.07270047
893.873	0.0725509
894.046	0.07229726
894.219	0.07212624
894.391	0.07183033
894.564	0.07160712
894.737	0.07132803
894.91	0.07103528
895.082	0.07064323
895.255	0.07037188
895.428	0.07003891
895.6	0.06971816
895.773	0.06937127
895.945	0.06915721
896.118	0.06885886
896.291	0.06875912
896.463	0.06854609
896.636	0.06842127
896.808	0.0683028
896.981	0.06811622
897.153	0.06797407
897.326	0.06787314
897.498	0.06747465
897.67	0.06716915
897.843	0.06694607
898.015	0.06667602
898.187	0.06642071
898.36	0.06599603
898.532	0.0656821
898.704	0.06535148
898.877	0.06508235
899.049	0.06479529
899.221	0.064518
899.393	0.06437299
899.566	0.06427613
899.738	0.06417121
899.91	0.06412335
900.082	0.06402686
900.254	0.06381986
900.426	0.06358571
900.598	0.06328035
900.77	0.06286512
900.942	0.06252635
901.114	0.06224759
901.286	0.06201092
901.458	0.06171901
901.63	0.06141833
901.802	0.061183
901.974	0.06107895
902.146	0.06088512
902.318	0.06069485
902.49	0.06052346
902.662	0.06035947
902.834	0.06023222
903.005	0.06010502
903.177	0.05996372
903.349	0.05977576
903.521	0.05958916
903.693	0.05931648
903.864	0.05907778
904.036	0.0588147
904.208	0.05857779
904.379	0.05826536
904.551	0.05802812
904.723	0.05777234
904.894	0.05766572
905.066	0.0576155
905.237	0.05758119
905.409	0.05736071
905.58	0.05741296
905.752	0.05725564
905.923	0.05704991
906.095	0.05682083
906.266	0.05647561
906.438	0.05626105
906.609	0.0560174
906.78	0.05560012
906.952	0.05532611
907.123	0.0552008
907.295	0.05489889
907.466	0.05460719
907.637	0.05448004
907.808	0.05442405
907.98	0.05431825
908.151	0.05422779
908.322	0.05398335
908.493	0.05382895
908.665	0.05373703
908.836	0.05349042
909.007	0.05322186
909.178	0.05296754
909.349	0.05256277
909.52	0.05244966
909.691	0.05223359
909.862	0.05200347
910.033	0.05165672
910.204	0.05135922
910.375	0.05124524
910.546	0.05121029
910.717	0.05102928
910.888	0.05100699
911.059	0.05091226
911.23	0.05092722
911.401	0.05079001
911.572	0.05055582
911.742	0.05033705
911.913	0.05006532
912.084	0.04972995
912.255	0.04944807
912.426	0.04901049
912.596	0.04878817
912.767	0.04844802
912.938	0.04819674
913.108	0.04799601
913.279	0.04776929
913.45	0.0475399
913.62	0.04752747
913.791	0.04743453
913.962	0.04743866
914.132	0.04745049
914.303	0.04723472
914.473	0.04719805
914.644	0.0470467
914.814	0.04677749
914.985	0.04652572
915.155	0.04624487
915.326	0.04588158
915.496	0.04574977
915.666	0.0455043
915.837	0.04545238
916.007	0.04527499
916.177	0.04525151
916.348	0.04512589
916.518	0.04501643
916.688	0.04498118
916.858	0.04484458
917.029	0.04458053
917.199	0.04447406
917.369	0.04425862
917.539	0.04405864
917.709	0.04387523
917.88	0.04350949
918.05	0.04328887
918.22	0.04307366
918.39	0.04274211
918.56	0.04248433
918.73	0.04232669
918.9	0.04212385
919.07	0.04214991
919.24	0.04207744
919.41	0.04193714
919.58	0.04193535
919.75	0.04187792
919.92	0.04172014
920.09	0.04168386
920.26	0.04149479
920.429	0.04123497
920.599	0.04121777
920.769	0.04097261
920.939	0.04069601
921.109	0.04063244
921.278	0.04033028
921.448	0.04017565
921.618	0.03989642
921.787	0.03967412
921.957	0.0396049
922.127	0.03954438
922.296	0.03939612
922.466	0.03935634
922.636	0.03915589
922.805	0.0391658
922.975	0.03898649
923.144	0.03894198
923.314	0.03871439
923.483	0.03843188
923.653	0.03836436
923.822	0.03818485
923.992	0.03809354
924.161	0.03789706
924.331	0.0376433
924.5	0.03758525
924.669	0.03756126
924.839	0.03725342
925.008	0.03717163
925.177	0.03706655
925.347	0.03708025
925.516	0.03702737
925.685	0.03703864
925.854	0.03698268
926.023	0.03696475
926.193	0.03683749
926.362	0.0367948
926.531	0.03664969
926.7	0.03647835
926.869	0.03611438
927.038	0.03590249
927.207	0.03579005
927.376	0.03554654
927.545	0.03521424
927.715	0.03504931
927.884	0.0349317
928.052	0.03498307
928.221	0.03484045
928.39	0.03464279
928.559	0.03460309
928.728	0.03454108
928.897	0.03439187
929.066	0.03422959
929.235	0.03397191
929.404	0.03384498
929.572	0.03376854
929.741	0.03382365
929.91	0.03372589
930.079	0.03362234
930.247	0.03360282
930.416	0.03350589
930.585	0.0333888
930.753	0.033222
930.922	0.03282064
931.091	0.03250665
931.259	0.03225545
931.428	0.03193027
931.596	0.03177335
931.765	0.03175271
931.934	0.03182557
932.102	0.03180952
932.27	0.03184488
932.439	0.03186807
932.607	0.03170996
932.776	0.03172204
932.944	0.03136614
933.113	0.03115287
933.281	0.03093717
933.449	0.03072398
933.618	0.03059519
933.786	0.03066395
933.954	0.03052577
934.123	0.03062829
934.291	0.03055274
934.459	0.03065273
934.627	0.03072562
934.795	0.03063915
934.964	0.03065896
935.132	0.03058739
935.3	0.03062123
935.468	0.03060071
935.636	0.03056098
935.804	0.03061146
935.972	0.03068341
936.14	0.03072587
936.308	0.03069329
936.476	0.03048248
936.644	0.03026429
936.812	0.03020583
936.98	0.02992816
937.148	0.02984995
937.316	0.02964361
937.484	0.02963476
937.652	0.02972319
937.82	0.03021562
937.987	0.03011078
938.155	0.03001742
938.323	0.03001589
938.491	0.03015467
938.658	0.03023708
938.826	0.03042524
938.994	0.03039292
939.162	0.03064157
939.329	0.03075372
939.497	0.03094212
939.665	0.03087694
939.832	0.03107118
940	0.03124304
940.167	0.0310887
940.335	0.03105804
940.502	0.03168921
940.67	0.03224446
940.837	0.03250662
941.005	0.03276207
941.172	0.03173994
941.34	0.03155465
941.507	0.0320174
941.674	0.03164769
941.842	0.03154688
942.009	0.0317849
942.177	0.03103187
942.344	0.03227312
942.511	0.03231568
942.678	0.03242535
942.846	0.03308363
943.013	0.03308784
943.18	0.03279744
943.347	0.03308588
943.514	0.03263143
943.682	0.03203325
943.849	0.03126847
944.016	0.03166213
944.183	0.03055323
944.35	0.02972151
944.517	0.03072199
944.684	0.03085972
944.851	0.03137093
945.018	0.03234445
945.185	0.03195373
945.352	0.03323646
945.519	0.03366735
945.686	0.03321147
945.853	0.03428504
946.02	0.03375867
946.187	0.03299425
946.353	0.03297593
946.52	0.03171671
946.687	0.03114859
946.854	0.03034885
947.021	0.02897444
947.187	0.02982995
947.354	0.02999211
947.521	0.02893812
947.687	0.02891628
947.854	0.02954999
948.021	0.02993464
948.187	0.0299254
948.354	0.02864732
948.52	0.02767916
948.687	0.02743999
948.854	0.02662818
949.02	0.02681975
949.187	0.025757
949.353	0.02596702
949.52	0.02590115
949.686	0.02633277
949.852	0.02688072
950.019	0.02728039
950.185	0.02663955
950.352	0.02634537
950.518	0.02544393
950.684	0.02608003
950.851	0.02544456
951.017	0.02502776
951.183	0.02487355
951.349	0.02501553
951.516	0.02566051
951.682	0.02523192
951.848	0.02491525
952.014	0.02475201
952.18	0.02509267
952.346	0.02496618
952.512	0.02447647
952.679	0.02373209
952.845	0.02365791
953.011	0.02380473
953.177	0.02426543
953.343	0.02362136
953.509	0.02391754
953.675	0.02377884
953.841	0.02452335
954.007	0.0245603
954.172	0.02417834
954.338	0.02359167
954.504	0.02335814
954.67	0.02296181
954.836	0.02209236
955.002	0.02095595
955.167	0.02107025
955.333	0.02028492
955.499	0.02020423
955.665	0.01999801
955.83	0.01935138
955.996	0.02028778
956.162	0.02088651
956.327	0.02055951
956.493	0.02062829
956.659	0.02063386
956.824	0.02074168
956.99	0.02073929
957.155	0.02005311
957.321	0.01975582
957.486	0.01953115
957.652	0.01947268
957.817	0.01944065
957.983	0.01883923
958.148	0.01888244
958.314	0.01909354
958.479	0.01855193
958.644	0.01899109
958.81	0.01898137
958.975	0.01840036
959.14	0.01851206
959.306	0.01889074
959.471	0.01842257
959.636	0.01879339
959.801	0.018461
959.967	0.01840567
960.132	0.01840976
960.297	0.01805501
960.462	0.01778862
960.627	0.0179148
960.792	0.01742957
960.957	0.01705556
961.123	0.01702283
961.288	0.01738628
961.453	0.01761044
961.618	0.01742316
961.783	0.01725692
961.948	0.01701259
962.113	0.01723887
962.277	0.01705772
962.442	0.01626937
962.607	0.01621162
962.772	0.01591193
962.937	0.01567108
963.102	0.0159619
963.267	0.01610115
963.431	0.01609784
963.596	0.01645897
963.761	0.01638482
963.926	0.01657483
964.09	0.01670538
964.255	0.01697805
964.42	0.01605843
964.584	0.01577288
964.749	0.01543459
964.914	0.01531672
965.078	0.01528628
965.243	0.01536797
965.407	0.01462191
965.572	0.01523109
965.736	0.0156666
965.901	0.01557497
966.065	0.01540285
966.23	0.01495936
966.394	0.01465747
966.559	0.01501852
966.723	0.01466322
966.887	0.01429765
967.052	0.01416044
967.216	0.01446818
967.38	0.01440254
967.545	0.01453283
967.709	0.01432143
967.873	0.01466322
968.037	0.01413667
968.202	0.01451662
968.366	0.01441269
968.53	0.01475206
968.694	0.0144877
968.858	0.01407984
969.022	0.01400528
969.187	0.01433816
969.351	0.01404193
969.515	0.01395253
969.679	0.01376597
969.843	0.01347314
970.007	0.01399034
970.171	0.01379357
970.335	0.01375779
970.499	0.01366658
970.662	0.01342198
970.826	0.01311829
970.99	0.01351712
971.154	0.01336521
971.318	0.0135197
971.482	0.01331985
971.645	0.01330611
971.809	0.01395516
971.973	0.01386241
972.137	0.01348541
972.3	0.01329469
972.464	0.0129858
972.628	0.01331072
972.791	0.01320614
972.955	0.01220608
973.119	0.01239497
973.282	0.01271423
973.446	0.01287714
973.609	0.01293384
973.773	0.01276654
973.936	0.01289536
974.1	0.01315601
974.263	0.01297751
974.427	0.01288112
974.59	0.01299804
974.754	0.01288186
974.917	0.01229887
975.08	0.01261342
975.244	0.01228375
975.407	0.01275997
975.57	0.01273068
975.734	0.01222643
975.897	0.01239696
976.06	0.01267051
976.223	0.01245913
976.387	0.01275099
976.55	0.01208342
976.713	0.01202564
976.876	0.01211316
977.039	0.01207781
977.202	0.01220007
977.365	0.01189694
977.528	0.01176108
977.692	0.01224176
977.855	0.01205955
978.018	0.01209014
978.181	0.01153144
978.344	0.01141162
978.506	0.01115382
978.669	0.01129421
978.832	0.01060541
978.995	0.01022102
979.158	0.01046818
979.321	0.0108727
979.484	0.01102505
979.646	0.01119605
979.809	0.0107704
979.972	0.01083972
980.135	0.01128094
980.297	0.01108503
980.46	0.01063464
980.623	0.00999638
980.786	0.01029488
980.948	0.01062412
981.111	0.01094298
981.273	0.01099003
981.436	0.01065361
981.599	0.0111096
981.761	0.01151836
981.924	0.01109549
982.086	0.01163739
982.249	0.01189331
982.411	0.01173571
982.573	0.0120922
982.736	0.01193182
982.898	0.01208806
983.061	0.01260889
983.223	0.01158747
983.385	0.01096894
983.548	0.01079875
983.71	0.01035769
983.872	0.01004044
984.034	0.00960652
984.197	0.00854154
984.359	0.00883784
984.521	0.00920961
984.683	0.00912033
984.845	0.00958304
985.008	0.01009127
985.17	0.01048588
985.332	0.01135366
985.494	0.0110893
985.656	0.01104344
985.818	0.01155898
985.98	0.01120966
986.142	0.0112367
986.304	0.01125638
986.466	0.01121648
986.628	0.01120338
986.79	0.01112685
986.952	0.01088504
987.113	0.01056087
987.275	0.01028535
987.437	0.01020402
987.599	0.00966357
987.761	0.01020606
987.922	0.00995879
988.084	0.00985245
988.246	0.0103007
988.408	0.01004821
988.569	0.00951297
988.731	0.00994775
988.893	0.00956673
989.054	0.00992569
989.216	0.01037377
989.377	0.01034639
989.539	0.01077857
989.701	0.01158288
989.862	0.01122335
990.024	0.01131092
990.185	0.0110879
990.347	0.0110241
990.508	0.01104157
990.669	0.01104286
990.831	0.01012685
990.992	0.01012962
991.154	0.01062026
991.315	0.01073963
991.476	0.00993827
991.638	0.01011739
991.799	0.00979089
991.96	0.01097489
992.121	0.01173593
992.283	0.01107378
992.444	0.011385
992.605	0.0114674
992.766	0.01154617
992.927	0.01147182
993.088	0.01068796
993.249	0.00943108
993.41	0.0103862
993.572	0.00983132
993.733	0.01011545
993.894	0.00986817
994.055	0.00957031
994.216	0.00974776
994.376	0.01010861
994.537	0.00940537
994.698	0.00894056
994.859	0.0088359
995.02	0.00875472
995.181	0.00907279
995.342	0.00914757
995.503	0.00970385
995.663	0.00958748
995.824	0.01036448
995.985	0.01060111
996.146	0.0098775
996.306	0.00980968
996.467	0.00927252
996.628	0.00874233
996.788	0.00901103
996.949	0.00871903
997.11	0.00924075
997.27	0.00896822
997.431	0.00888248
997.591	0.00935465
997.752	0.0088791
997.912	0.00849493
998.073	0.00768308
998.233	0.00729919
998.394	0.00821468
998.554	0.00829575
998.714	0.00930575
998.875	0.0099091
999.035	0.00957411
999.196	0.01061526
999.356	0.00998086
999.516	0.01035042
999.676	0.01103971
999.837	0.01034826
999.997	0.01062209
1000.157	0.01135501
1000.317	0.01117572
1000.477	0.0116992
1000.638	0.01098629
1000.798	0.01029313
1000.958	0.01039993
1001.118	0.01054795
1001.278	0.00950686
1001.438	0.00922459
1001.598	0.00930984
1001.758	0.01072626
1001.918	0.0112112
1002.078	0.01024823
1002.238	0.00973245
1002.398	0.01068671
1002.558	0.01158273
1002.718	0.0114979
1002.878	0.01084197
1003.037	0.00964477
1003.197	0.01035908
1003.357	0.01115146
1003.517	0.01171363
1003.677	0.01191838
1003.836	0.01076244
1003.996	0.01097129
1004.156	0.01223419
1004.315	0.01161908
1004.475	0.01095331
1004.635	0.0105814
1004.794	0.00972942
1004.954	0.01115065
1005.114	0.01001771
1005.273	0.01007865
1005.433	0.01035235
1005.592	0.01070763
1005.752	0.01038684
1005.911	0.01005697
1006.071	0.00968406
1006.23	0.00971806
1006.389	0.00995252
1006.549	0.00978157
1006.708	0.00863318
1006.868	0.00845795
1007.027	0.00934613
1007.186	0.00935364
1007.345	0.01072155
1007.505	0.00993707
1007.664	0.010106
1007.823	0.01119162
1007.982	0.01060238
1008.142	0.01020905
1008.301	0.01014712
1008.46	0.00890999
1008.619	0.00902336
1008.778	0.00974638
1008.937	0.00939263
1009.096	0.00930761
1009.255	0.00939056
1009.414	0.00897099
1009.573	0.00952354
1009.732	0.00983298
1009.891	0.00837839
1010.05	0.00978977
1010.209	0.00999341
1010.368	0.01003683
1010.527	0.01214196
1010.686	0.01253367
1010.845	0.01270531
1011.003	0.0127047
1011.162	0.01120871
1011.321	0.01089055
1011.48	0.01051681
1011.638	0.0094298
1011.797	0.00983835
1011.956	0.01003525
1012.115	0.01227116
1012.273	0.01356518
1012.432	0.01648937
1012.59	0.01695747
1012.749	0.016569
1012.908	0.01644691
1013.066	0.01717785
1013.225	0.01602454
1013.383	0.01608131
1013.542	0.01447537
1013.7	0.01494268
1013.859	0.0160769
1014.017	0.01605192
1014.175	0.01530804
1014.334	0.0183138
1014.492	0.01692552
1014.65	0.01862889
1014.809	0.01831177
1014.967	0.01791606
1015.125	0.01756224
1015.284	0.01604542
1015.442	0.01530366
1015.6	0.01849789
1015.758	0.01787205
1015.916	0.01833809
1016.075	0.01809464
1016.233	0.01722115
1016.391	0.01829929
1016.549	0.01681115
1016.707	0.01741695
1016.865	0.01586003
1017.023	0.0154006
1017.181	0.01563649
1017.339	0.01513382
1017.497	0.01363989
1017.655	0.01272518
1017.813	0.0107853
1017.971	0.01171245
1018.129	0.01294379
1018.286	0.01171101
1018.444	0.01353256
1018.602	0.01401886
1018.76	0.01353603
1018.918	0.01414398
1019.075	0.0133238
1019.233	0.0142608
1019.391	0.01797052
1019.549	0.0181014
1019.706	0.02206451
1019.864	0.02334989
1020.022	0.02341899
1020.179	0.02591506
1020.337	0.02369994
1020.494	0.01942431
1020.652	0.0199786
1020.809	0.01917414
1020.967	0.01935843
1021.124	0.01706531
1021.282	0.01571365
1021.439	0.01855173
1021.597	0.02002057
1021.754	0.02028881
1021.911	0.01846594
1022.069	0.02018801
1022.226	0.02254819
1022.384	0.02608877
1022.541	0.02170013
1022.698	0.02339228
1022.855	0.02440177
1023.013	0.02566435
1023.17	0.02621415
1023.327	0.02470264
1023.484	0.02034255
1023.641	0.02478619
1023.798	0.02347701
1023.956	0.02224094
1024.113	0.02169224
1024.27	0.01807413
1024.427	0.01935253
1024.584	0.02149176
1024.741	0.01992505
1024.898	0.01829974
1025.055	0.01769954
1025.212	0.01618983
1025.369	0.01898982
1025.525	0.02176914
1025.682	0.02040989
1025.839	0.02086288
1025.996	0.02204298
1026.153	0.02678884
1026.31	0.02738189
1026.466	0.02533711
1026.623	0.02385698
1026.78	0.02710064
1026.937	0.03000847
1027.093	0.03551436
1027.25	0.03434258
1027.407	0.03553297
1027.563	0.03244203
1027.72	0.02980295
1027.876	0.02845083
1028.033	0.02608175
1028.19	0.02311106
1028.346	0.02201273
1028.503	0.0250211
1028.659	0.03125202
1028.816	0.03183825
1028.972	0.02922459
1029.128	0.02685188
1029.285	0.02871599
1029.441	0.02626187
1029.598	0.02702503
1029.754	0.02677199
1029.91	0.03050358
1030.067	0.03703227
1030.223	0.03704539
1030.379	0.0371484
1030.535	0.03973803
1030.691	0.03348265
1030.848	0.03575938
1031.004	0.03550425
1031.16	0.03248211
1031.316	0.03615652
1031.472	0.0372129
1031.628	0.03540912
1031.784	0.04335703
1031.94	0.04425653
1032.096	0.04709328
1032.252	0.04400427
1032.408	0.04741833
1032.564	0.04563794
1032.72	0.05560138
1032.876	0.04835691
1033.032	0.04409288
1033.188	0.04313649
1033.344	0.04970837
1033.5	0.04965408
1033.655	0.05102604
1033.811	0.04385513
1033.967	0.05388833
