Data from 0_1_mm_pl_100pc_Absorbance__0__18-15-50-076.txt Node

Date: Wed Mar 01 18:15:50 CET 2023
User: Ange
Spectrometer: FLMT08341
Trigger mode: 0
Integration Time (sec): 1.000000E-2
Scans to average: 400
Electric dark correction enabled: true
Nonlinearity correction enabled: false
Boxcar width: 3
XAxis mode: Wavelengths
Number of Pixels in Spectrum: 3648
>>>>>Begin Spectral Data<<<<<
345.271	0.01023945
345.487	0.00726356
345.704	0.01631115
345.921	0.0166345
346.137	0.01741775
346.354	0.0248832
346.571	0.01235135
346.787	0.1185314
347.004	-0.12274686
347.22	0.01463609
347.437	-0.07033908
347.653	0.17850456
347.87	-0.26132343
348.086	-0.91451296
348.303	0.25336776
348.519	0.03411738
348.736	0.0413092
348.952	0.03486568
349.169	0.0413714
349.385	0.04198093
349.601	0.04206422
349.818	0.0407531
350.034	0.04227111
350.251	0.0415018
350.467	0.04292271
350.683	0.0388089
350.9	0.03842348
351.116	0.03747419
351.332	0.03724476
351.549	0.03615352
351.765	0.03653358
351.981	0.03605038
352.197	0.03756447
352.414	0.03779873
352.63	0.03866213
352.846	0.03896007
353.062	0.03781397
353.278	0.0379157
353.495	0.03860427
353.711	0.03996884
353.927	0.0382992
354.143	0.03763496
354.359	0.03553653
354.575	0.03591174
354.792	0.03511425
355.008	0.03345834
355.224	0.0322242
355.44	0.03297517
355.656	0.03211666
355.872	0.03302737
356.088	0.0327361
356.304	0.03146819
356.52	0.03114703
356.736	0.03185746
356.952	0.03171603
357.168	0.03164654
357.384	0.0306448
357.6	0.02948535
357.816	0.02911613
358.032	0.02866745
358.248	0.02990938
358.464	0.03021166
358.679	0.02999678
358.895	0.03037494
359.111	0.03103145
359.327	0.03092691
359.543	0.03073521
359.759	0.02922732
359.974	0.0282816
360.19	0.02721443
360.406	0.02610541
360.622	0.02511089
360.838	0.02496275
361.053	0.02492434
361.269	0.0236165
361.485	0.02364256
361.701	0.02343039
361.916	0.02262341
362.132	0.02185054
362.348	0.0212368
362.563	0.02110914
362.779	0.02095113
362.995	0.0215471
363.21	0.02131832
363.426	0.0210804
363.641	0.02024469
363.857	0.02056885
364.073	0.01998822
364.288	0.01967358
364.504	0.01927733
364.719	0.01942641
364.935	0.01986365
365.15	0.01966465
365.366	0.01947468
365.581	0.01955207
365.797	0.01969405
366.012	0.01812913
366.228	0.01785363
366.443	0.01839802
366.658	0.01790495
366.874	0.01716479
367.089	0.01731147
367.305	0.01746213
367.52	0.01766995
367.735	0.01797453
367.951	0.0164043
368.166	0.018113
368.381	0.01826754
368.597	0.01834505
368.812	0.0178999
369.027	0.01755748
369.243	0.01696381
369.458	0.01703176
369.673	0.01619143
369.888	0.01666672
370.104	0.01565753
370.319	0.01629583
370.534	0.01643501
370.749	0.01646406
370.964	0.01665275
371.179	0.01604298
371.395	0.01647976
371.61	0.01620349
371.825	0.01500344
372.04	0.01535572
372.255	0.01479712
372.47	0.01539362
372.685	0.01510414
372.9	0.01396312
373.115	0.01446926
373.33	0.01555259
373.545	0.01512047
373.76	0.01510241
373.975	0.01430995
374.19	0.01409032
374.405	0.01426801
374.62	0.01387622
374.835	0.01267871
375.05	0.01224845
375.265	0.01194518
375.48	0.01169453
375.695	0.01160823
375.91	0.01102978
376.125	0.01091757
376.339	0.01042555
376.554	0.01056838
376.769	0.01089661
376.984	0.01166548
377.199	0.01152081
377.414	0.01183251
377.628	0.01197532
377.843	0.01206014
378.058	0.01175213
378.273	0.01179083
378.487	0.01131457
378.702	0.01182824
378.917	0.01172437
379.131	0.01178409
379.346	0.0119779
379.561	0.0121044
379.775	0.01134871
379.99	0.01146772
380.205	0.0116547
380.419	0.01105684
380.634	0.01043588
380.848	0.00954422
381.063	0.0093153
381.278	0.0103687
381.492	0.00944676
381.707	0.00883808
381.921	0.00943263
382.136	0.00971357
382.35	0.00997369
382.565	0.00994945
382.779	0.00871569
382.994	0.00907605
383.208	0.0088856
383.422	0.00855181
383.637	0.00837508
383.851	0.00883415
384.066	0.00855447
384.28	0.00885458
384.494	0.00856996
384.709	0.00867253
384.923	0.00867876
385.137	0.00901552
385.352	0.00894307
385.566	0.00910615
385.78	0.00908066
385.995	0.00901949
386.209	0.00852446
386.423	0.00830936
386.637	0.00756924
386.852	0.00739198
387.066	0.00704557
387.28	0.00766404
387.494	0.00784613
387.708	0.00809502
387.923	0.00811778
388.137	0.00885675
388.351	0.00884028
388.565	0.00884405
388.779	0.00793512
388.993	0.00787094
389.207	0.00790071
389.421	0.00773956
389.635	0.00710404
389.85	0.00714871
390.064	0.007122
390.278	0.00719264
390.492	0.00689316
390.706	0.00653917
390.92	0.00663968
391.134	0.00646219
391.348	0.00658223
391.561	0.00666624
391.775	0.00628118
391.989	0.00644241
392.203	0.00612228
392.417	0.00581313
392.631	0.0056055
392.845	0.00514802
393.059	0.00514624
393.273	0.00551392
393.486	0.00537508
393.7	0.00573563
393.914	0.00570767
394.128	0.00606466
394.342	0.00635104
394.555	0.00598314
394.769	0.00571463
394.983	0.00603758
395.197	0.00591942
395.41	0.00574394
395.624	0.00517104
395.838	0.00488871
396.051	0.00503509
396.265	0.00516516
396.479	0.00482914
396.692	0.00490514
396.906	0.00525804
397.12	0.00553166
397.333	0.00534475
397.547	0.00543109
397.76	0.00526178
397.974	0.00502355
398.187	0.00513663
398.401	0.00493437
398.614	0.0049456
398.828	0.00501839
399.041	0.00505685
399.255	0.00518752
399.468	0.00522227
399.682	0.00520209
399.895	0.00503481
400.109	0.00515864
400.322	0.00523647
400.536	0.00467481
400.749	0.00431033
400.962	0.00439681
401.176	0.00419545
401.389	0.00482924
401.602	0.00456196
401.816	0.00462296
402.029	0.00467724
402.242	0.0046945
402.456	0.00454584
402.669	0.00425833
402.882	0.00385843
403.095	0.00388353
403.309	0.00385144
403.522	0.00402376
403.735	0.00430654
403.948	0.00424172
404.161	0.00440242
404.375	0.00409481
404.588	0.0040652
404.801	0.00410797
405.014	0.00424553
405.227	0.00415792
405.44	0.00423743
405.653	0.00450199
405.866	0.00482714
406.079	0.00475807
406.293	0.0043126
406.506	0.00402698
406.719	0.0040731
406.932	0.00401772
407.145	0.00376091
407.358	0.00368406
407.571	0.00389678
407.784	0.00409779
407.996	0.004401
408.209	0.00429852
408.422	0.0042004
408.635	0.00423289
408.848	0.00432433
409.061	0.00390253
409.274	0.00377912
409.487	0.00371489
409.7	0.00389463
409.912	0.00405294
410.125	0.00408888
410.338	0.00387499
410.551	0.00404251
410.764	0.00386205
410.976	0.00352157
411.189	0.00328827
411.402	0.00305258
411.615	0.00283651
411.827	0.00273484
412.04	0.00276017
412.253	0.00285862
412.465	0.00299146
412.678	0.0026813
412.891	0.00297373
413.103	0.00317992
413.316	0.00322511
413.529	0.0031543
413.741	0.00335191
413.954	0.00348571
414.166	0.00354655
414.379	0.00336135
414.591	0.00312095
414.804	0.00308404
415.016	0.00292186
415.229	0.00277149
415.441	0.00273635
415.654	0.00290977
415.866	0.00293526
416.079	0.00314156
416.291	0.00325494
416.504	0.00321814
416.716	0.00312792
416.928	0.0028897
417.141	0.00297018
417.353	0.00272929
417.566	0.00270475
417.778	0.00262783
417.99	0.00265387
418.203	0.00283841
418.415	0.00271914
418.627	0.0025926
418.839	0.00269891
419.052	0.00275313
419.264	0.00274737
419.476	0.00284779
419.688	0.00284784
419.901	0.00296557
420.113	0.00304849
420.325	0.00295931
420.537	0.00269137
420.749	0.00230797
420.961	0.00246364
421.174	0.00244605
421.386	0.00237027
421.598	0.00212871
421.81	0.00204801
422.022	0.00176757
422.234	0.00189243
422.446	0.00178494
422.658	0.00159555
422.87	0.00168654
423.082	0.00180007
423.294	0.00201874
423.506	0.00239425
423.718	0.00240026
423.93	0.00223262
424.142	0.00214463
424.354	0.00213269
424.566	0.00217902
424.778	0.00197025
424.99	0.00193589
425.202	0.00186895
425.414	0.00187544
425.625	0.00204846
425.837	0.00203302
426.049	0.00191316
426.261	0.00206642
426.473	0.00226448
426.684	0.00224467
426.896	0.0022628
427.108	0.00214786
427.32	0.00210089
427.531	0.00218945
427.743	0.0022389
427.955	0.00198207
428.167	0.00218703
428.378	0.00215637
428.59	0.00229852
428.802	0.00239611
429.013	0.00239615
429.225	0.00227192
429.436	0.00229889
429.648	0.00222256
429.86	0.00231835
430.071	0.00224887
430.283	0.00210596
430.494	0.00196411
430.706	0.00191338
430.917	0.00179113
431.129	0.00171339
431.34	0.00155051
431.552	0.00150501
431.763	0.001661
431.975	0.00151074
432.186	0.0014143
432.398	0.00159714
432.609	0.00165928
432.821	0.00169682
433.032	0.00148576
433.243	0.00141172
433.455	0.0016635
433.666	0.00177253
433.877	0.0017012
434.089	0.00162302
434.3	0.00166828
434.511	0.0019233
434.723	0.00171411
434.934	0.00162323
435.145	0.00160817
435.356	0.00156354
435.568	0.00166131
435.779	0.00149674
435.99	0.00147908
436.201	0.00164968
436.412	0.00164081
436.624	0.00168989
436.835	0.00169106
437.046	0.00167824
437.257	0.00171749
437.468	0.00163865
437.679	0.0014626
437.89	0.00134069
438.101	0.00126597
438.312	0.00122913
438.523	0.00128643
438.734	0.00135368
438.945	0.00138566
439.156	0.00159556
439.367	0.00175024
439.578	0.00166757
439.789	0.00181151
440	0.00150986
440.211	0.00151666
440.422	0.0013959
440.633	0.00135124
440.844	0.00112639
441.055	0.00109074
441.266	0.00092109
441.477	0.00104293
441.687	0.00090718
441.898	0.0008633
442.109	0.00076318
442.32	0.00096508
442.531	0.00107781
442.741	0.00121656
442.952	0.00120896
443.163	0.00136888
443.374	0.00131355
443.584	0.00141945
443.795	0.00122841
444.006	0.00117114
444.216	0.00097509
444.427	0.00102329
444.638	0.00110321
444.848	0.0013856
445.059	0.00134935
445.27	0.00142268
445.48	0.0015282
445.691	0.00174336
445.901	0.00173678
446.112	0.0015745
446.323	0.0014768
446.533	0.00138784
446.744	0.00149878
446.954	0.00141734
447.165	0.00126227
447.375	0.00120927
447.586	0.00115481
447.796	0.00114308
448.006	0.00113083
448.217	0.00113592
448.427	0.0011866
448.638	0.00133751
448.848	0.00135474
449.058	0.0014589
449.269	0.00136683
449.479	0.00136496
449.689	0.00129879
449.9	0.0013269
450.11	0.00116367
450.32	0.00115913
450.531	0.00111867
450.741	0.00116793
450.951	0.00121141
451.161	0.00116599
451.372	0.00113297
451.582	0.00112136
451.792	0.00123994
452.002	0.00127557
452.212	0.00134718
452.422	0.00139752
452.633	0.00146909
452.843	0.00154351
453.053	0.00165798
453.263	0.00159127
453.473	0.00157441
453.683	0.00149382
453.893	0.00144668
454.103	0.00137401
454.313	0.00128587
454.523	0.00123882
454.733	0.0011463
454.943	0.00110297
455.153	0.00109906
455.363	0.0011228
455.573	0.0010609
455.783	0.001061
455.993	0.00107513
456.203	0.0011866
456.413	0.00125089
456.623	0.00131504
456.833	0.0012862
457.042	0.00141194
457.252	0.00144088
457.462	0.00149656
457.672	0.00146657
457.882	0.00143248
458.091	0.00135976
458.301	0.00129081
458.511	0.00128563
458.721	0.00131551
458.931	0.00115211
459.14	0.00125919
459.35	0.00141983
459.56	0.00140419
459.769	0.0014744
459.979	0.00142306
460.189	0.00137881
460.398	0.0015308
460.608	0.001363
460.817	0.00124668
461.027	0.00131745
461.237	0.00135954
461.446	0.00139908
461.656	0.00140937
461.865	0.001378
462.075	0.00152555
462.284	0.00150109
462.494	0.00150677
462.703	0.00156501
462.913	0.00157734
463.122	0.00158231
463.332	0.00152422
463.541	0.0014508
463.751	0.0014353
463.96	0.00142597
464.169	0.00137921
464.379	0.00133987
464.588	0.00133823
464.797	0.00136244
465.007	0.00140086
465.216	0.00135696
465.425	0.00136997
465.635	0.00133446
465.844	0.00137091
466.053	0.00135768
466.263	0.00142711
466.472	0.00137152
466.681	0.00136645
466.89	0.00143955
467.099	0.00148578
467.309	0.00145503
467.518	0.00148417
467.727	0.00153479
467.936	0.00155797
468.145	0.00159395
468.354	0.00152402
468.563	0.00151
468.772	0.00158322
468.982	0.00152014
469.191	0.00138741
469.4	0.00138654
469.609	0.00143047
469.818	0.00146155
470.027	0.00155076
470.236	0.00154134
470.445	0.00160233
470.654	0.00164878
470.863	0.00163651
471.072	0.00168431
471.28	0.001698
471.489	0.00162206
471.698	0.00166657
471.907	0.0016792
472.116	0.00176013
472.325	0.0017475
472.534	0.0016945
472.743	0.00171713
472.951	0.00174458
473.16	0.00175878
473.369	0.00171986
473.578	0.0016941
473.786	0.00175293
473.995	0.00175936
474.204	0.00180641
474.413	0.00181566
474.621	0.0018204
474.83	0.00183521
475.039	0.00182757
475.247	0.00184577
475.456	0.0018961
475.665	0.00186718
475.873	0.00186739
476.082	0.00193372
476.291	0.00201219
476.499	0.00204734
476.708	0.0020482
476.916	0.00209917
477.125	0.00209735
477.333	0.00205383
477.542	0.00204306
477.75	0.00205871
477.959	0.00203024
478.167	0.00194561
478.376	0.00200497
478.584	0.00206981
478.793	0.00202254
479.001	0.00201256
479.209	0.0020967
479.418	0.00215754
479.626	0.00231275
479.834	0.00228921
480.043	0.00225208
480.251	0.00236933
480.459	0.00236961
480.668	0.00233757
480.876	0.00235287
481.084	0.00231209
481.293	0.00228977
481.501	0.0023793
481.709	0.002448
481.917	0.00252633
482.125	0.00249127
482.334	0.00255183
482.542	0.00258992
482.75	0.00261422
482.958	0.00259405
483.166	0.00260345
483.374	0.00261197
483.583	0.00260321
483.791	0.00257127
483.999	0.00249845
484.207	0.00256923
484.415	0.00264519
484.623	0.00274779
484.831	0.00273729
485.039	0.00281652
485.247	0.00283275
485.455	0.00293683
485.663	0.0029783
485.871	0.00289405
486.079	0.00289121
486.287	0.00289678
486.495	0.00293603
486.702	0.00297957
486.91	0.00301854
487.118	0.00292992
487.326	0.0029507
487.534	0.00292024
487.742	0.00295883
487.95	0.00289504
488.157	0.00287878
488.365	0.00299092
488.573	0.00307201
488.781	0.00317746
488.988	0.00313382
489.196	0.00322194
489.404	0.00329207
489.612	0.00334258
489.819	0.00331573
490.027	0.00334855
490.235	0.00335702
490.442	0.00346517
490.65	0.00347877
490.857	0.00351066
491.065	0.00350679
491.273	0.00349414
491.48	0.00349598
491.688	0.00351957
491.895	0.00353385
492.103	0.00354833
492.31	0.00357209
492.518	0.00366355
492.725	0.00368255
492.933	0.00371425
493.14	0.00378576
493.348	0.00382349
493.555	0.00388401
493.763	0.00393569
493.97	0.00395226
494.177	0.0040525
494.385	0.00405605
494.592	0.0039996
494.8	0.00398019
495.007	0.00397468
495.214	0.0040205
495.422	0.00407092
495.629	0.00406869
495.836	0.0041285
496.043	0.00420724
496.251	0.00424776
496.458	0.00427361
496.665	0.00435112
496.872	0.0043486
497.08	0.00436286
497.287	0.00440908
497.494	0.00441274
497.701	0.00454707
497.908	0.00456578
498.115	0.00453391
498.322	0.00455957
498.53	0.00455859
498.737	0.00466295
498.944	0.00478154
499.151	0.00482837
499.358	0.00486239
499.565	0.00489823
499.772	0.00498661
499.979	0.00507906
500.186	0.00508281
500.393	0.00510391
500.6	0.00510518
500.807	0.00523311
501.014	0.00532798
501.221	0.00539158
501.427	0.00547048
501.634	0.0055192
501.841	0.00554663
502.048	0.00560349
502.255	0.0055838
502.462	0.00558614
502.669	0.00558134
502.875	0.00559715
503.082	0.00564664
503.289	0.00564686
503.496	0.00564079
503.702	0.00565907
503.909	0.00568428
504.116	0.00571821
504.323	0.00574781
504.529	0.00579818
504.736	0.005884
504.943	0.00596593
505.149	0.00603073
505.356	0.00614542
505.563	0.00622627
505.769	0.00634408
505.976	0.00635957
506.182	0.00636656
506.389	0.00640881
506.595	0.00647914
506.802	0.00653272
507.008	0.00656013
507.215	0.00659888
507.421	0.00665593
507.628	0.0067665
507.834	0.0068089
508.041	0.00681711
508.247	0.00681398
508.454	0.00688266
508.66	0.00693197
508.866	0.00695619
509.073	0.00698199
509.279	0.00705352
509.486	0.00714231
509.692	0.00719907
509.898	0.00723774
510.105	0.00725758
510.311	0.00734178
510.517	0.00739927
510.723	0.00745363
510.93	0.00754331
511.136	0.00765524
511.342	0.00775353
511.548	0.00781971
511.754	0.00790008
511.961	0.00797203
512.167	0.00796793
512.373	0.00792512
512.579	0.00797926
512.785	0.00799774
512.991	0.00802473
513.197	0.00811633
513.404	0.00819048
513.61	0.00832898
513.816	0.00848797
514.022	0.00854146
514.228	0.00863636
514.434	0.00868415
514.64	0.00871021
514.846	0.00879206
515.052	0.00884313
515.258	0.00888406
515.464	0.00890688
515.669	0.00889536
515.875	0.0089993
516.081	0.00904743
516.287	0.00907876
516.493	0.00911088
516.699	0.0091663
516.905	0.00923329
517.111	0.00933005
517.316	0.00943236
517.522	0.00950418
517.728	0.00957998
517.934	0.00966833
518.139	0.00972834
518.345	0.00980788
518.551	0.00989959
518.757	0.00994542
518.962	0.01006205
519.168	0.01010309
519.374	0.01015519
519.579	0.01023765
519.785	0.01029454
519.991	0.01041724
520.196	0.01053255
520.402	0.01057891
520.607	0.01070008
520.813	0.01083135
521.018	0.01092602
521.224	0.01108538
521.429	0.01112365
521.635	0.0111598
521.84	0.01125749
522.046	0.01132206
522.251	0.01139735
522.457	0.01143903
522.662	0.01149369
522.868	0.01158207
523.073	0.01167072
523.279	0.01173299
523.484	0.01182784
523.689	0.01189151
523.895	0.01203423
524.1	0.01211917
524.305	0.01226845
524.511	0.01230788
524.716	0.0124072
524.921	0.01249036
525.126	0.01259242
525.332	0.01265507
525.537	0.0127535
525.742	0.01279931
525.947	0.01292093
526.153	0.01298643
526.358	0.01308017
526.563	0.01317181
526.768	0.01330101
526.973	0.013375
527.178	0.01347044
527.383	0.0136064
527.588	0.01371643
527.794	0.01380716
527.999	0.01388962
528.204	0.01399757
528.409	0.01407436
528.614	0.01417155
528.819	0.01421989
529.024	0.01427745
529.229	0.01440131
529.434	0.0145048
529.639	0.01458267
529.843	0.01474422
530.048	0.01488186
530.253	0.0150015
530.458	0.01518037
530.663	0.01528921
530.868	0.01546298
531.073	0.01562008
531.278	0.01576665
531.482	0.01587948
531.687	0.01601851
531.892	0.01611135
532.097	0.01623984
532.302	0.01629716
532.506	0.0163614
532.711	0.01639014
532.916	0.016515
533.12	0.01664362
533.325	0.0167649
533.53	0.01686515
533.734	0.01701157
533.939	0.01714277
534.144	0.01732333
534.348	0.01739539
534.553	0.01750764
534.757	0.01763116
534.962	0.0177245
535.167	0.01781091
535.371	0.01793617
535.576	0.01804421
535.78	0.01820796
535.985	0.0183291
536.189	0.01847807
536.394	0.01865209
536.598	0.01882468
536.803	0.01895737
537.007	0.01905483
537.211	0.01913327
537.416	0.01924782
537.62	0.01937023
537.825	0.01947686
538.029	0.01962535
538.233	0.0197308
538.438	0.01995061
538.642	0.02016956
538.846	0.02034572
539.05	0.02047156
539.255	0.02064869
539.459	0.02080534
539.663	0.0209965
539.867	0.02110118
540.072	0.0211889
540.276	0.02134006
540.48	0.02153404
540.684	0.02168509
540.888	0.02181633
541.092	0.02193605
541.297	0.02211029
541.501	0.02228596
541.705	0.02244698
541.909	0.02262427
542.113	0.02278863
542.317	0.02296935
542.521	0.02315672
542.725	0.0233234
542.929	0.02345021
543.133	0.02357281
543.337	0.02369564
543.541	0.02384264
543.745	0.02400588
543.949	0.02416346
544.153	0.0242719
544.357	0.02448241
544.56	0.02467666
544.764	0.02484946
544.968	0.02498385
545.172	0.02510848
545.376	0.02527305
545.58	0.02543433
545.783	0.02562599
545.987	0.02581138
546.191	0.02591814
546.395	0.02616535
546.598	0.02635723
546.802	0.02652738
547.006	0.02673031
547.21	0.02687736
547.413	0.02704416
547.617	0.0272971
547.821	0.02742787
548.024	0.02763237
548.228	0.02781601
548.431	0.02799255
548.635	0.02817661
548.839	0.0283694
549.042	0.02855591
549.246	0.0287324
549.449	0.02889481
549.653	0.02913763
549.856	0.02934528
550.06	0.02955714
550.263	0.02973655
550.467	0.02992445
550.67	0.03010748
550.874	0.03025091
551.077	0.03041612
551.28	0.03059316
551.484	0.03073624
551.687	0.03090577
551.891	0.03105916
552.094	0.03125533
552.297	0.03151295
552.501	0.03172546
552.704	0.03196603
552.907	0.03217584
553.11	0.03245751
553.314	0.03269958
553.517	0.0329225
553.72	0.0331774
553.923	0.0333849
554.127	0.03356232
554.33	0.0337864
554.533	0.03395142
554.736	0.03415487
554.939	0.03438167
555.142	0.03455466
555.345	0.03472995
555.549	0.03493472
555.752	0.03511358
555.955	0.03529373
556.158	0.03551965
556.361	0.03573841
556.564	0.03591378
556.767	0.03615421
556.97	0.03637697
557.173	0.03666927
557.376	0.03694194
557.579	0.03719726
557.782	0.03741902
557.984	0.03771152
558.187	0.03797973
558.39	0.03823334
558.593	0.03848816
558.796	0.03872803
558.999	0.03894231
559.202	0.03919616
559.404	0.03942078
559.607	0.03962196
559.81	0.03985605
560.013	0.04003237
560.216	0.04028474
560.418	0.04050926
560.621	0.04072995
560.824	0.04097848
561.026	0.04123058
561.229	0.04148036
561.432	0.04172914
561.634	0.04193489
561.837	0.04219236
562.04	0.04246203
562.242	0.04273912
562.445	0.04297999
562.647	0.04325217
562.85	0.04349445
563.053	0.04377207
563.255	0.0440189
563.458	0.04424331
563.66	0.04446565
563.863	0.04477688
564.065	0.04500938
564.268	0.04529456
564.47	0.04555542
564.672	0.04580851
564.875	0.04612559
565.077	0.04635443
565.28	0.04654706
565.482	0.04680319
565.684	0.04705687
565.887	0.04729365
566.089	0.04756992
566.291	0.0477956
566.494	0.04808676
566.696	0.0483839
566.898	0.04865151
567.1	0.0489427
567.303	0.04927556
567.505	0.04956116
567.707	0.04982993
567.909	0.05008683
568.111	0.05036018
568.314	0.05067387
568.516	0.05099971
568.718	0.05130044
568.92	0.05160701
569.122	0.05182517
569.324	0.05210278
569.526	0.05233625
569.728	0.05263385
569.93	0.05287024
570.132	0.05311015
570.334	0.05334308
570.536	0.05373353
570.738	0.05402337
570.94	0.05433623
571.142	0.05462734
571.344	0.05492514
571.546	0.05515284
571.748	0.05544181
571.95	0.05569417
572.152	0.05602101
572.354	0.05633457
572.555	0.05663456
572.757	0.0569039
572.959	0.05724435
573.161	0.05755248
573.363	0.0578078
573.564	0.05810207
573.766	0.05836584
573.968	0.05860615
574.17	0.05889697
574.371	0.05918858
574.573	0.05952888
574.775	0.05983989
574.976	0.06012713
575.178	0.06044715
575.38	0.06076597
575.581	0.06109317
575.783	0.06146941
575.985	0.06177804
576.186	0.06212248
576.388	0.06247861
576.589	0.06275202
576.791	0.06305459
576.992	0.06334057
577.194	0.06358352
577.395	0.06382712
577.597	0.06412209
577.798	0.06435269
578	0.06470491
578.201	0.06504882
578.402	0.06537309
578.604	0.06566773
578.805	0.06598457
579.007	0.06631611
579.208	0.06667987
579.409	0.06697671
579.611	0.06728876
579.812	0.06761366
580.013	0.06798229
580.215	0.06830796
580.416	0.06860844
580.617	0.06894303
580.818	0.06928219
581.019	0.06957678
581.221	0.06986233
581.422	0.0701556
581.623	0.07050993
581.824	0.07080073
582.025	0.0710888
582.226	0.07140838
582.428	0.07176074
582.629	0.0721213
582.83	0.07246182
583.031	0.07278182
583.232	0.07315616
583.433	0.07352099
583.634	0.07389241
583.835	0.07422319
584.036	0.07453545
584.237	0.07483252
584.438	0.07511796
584.639	0.07542755
584.84	0.07575523
585.041	0.07601707
585.242	0.07632914
585.442	0.07667633
585.643	0.07701423
585.844	0.07737754
586.045	0.07775178
586.246	0.07805581
586.447	0.07841039
586.647	0.07873718
586.848	0.07907151
587.049	0.07943402
587.25	0.07974883
587.45	0.08001799
587.651	0.08033302
587.852	0.08067859
588.053	0.08105875
588.253	0.08139357
588.454	0.08169267
588.655	0.08203644
588.855	0.08241288
589.056	0.08272972
589.256	0.08303505
589.457	0.08328497
589.658	0.08359135
589.858	0.0839106
590.059	0.08424778
590.259	0.08457428
590.46	0.08490509
590.66	0.0852496
590.861	0.08562757
591.061	0.08594211
591.262	0.08627126
591.462	0.08665497
591.662	0.08698181
591.863	0.08735127
592.063	0.08768491
592.264	0.08802249
592.464	0.0883601
592.664	0.08871657
592.865	0.0890284
593.065	0.08933886
593.265	0.08966369
593.465	0.09000624
593.666	0.09033475
593.866	0.0906372
594.066	0.0910238
594.266	0.09129948
594.467	0.09167382
594.667	0.0919428
594.867	0.09228572
595.067	0.0925969
595.267	0.09296172
595.467	0.09329244
595.668	0.09361996
595.868	0.09395963
596.068	0.09435897
596.268	0.09465804
596.468	0.09503225
596.668	0.09538098
596.868	0.09569173
597.068	0.09604935
597.268	0.09637638
597.468	0.09667397
597.668	0.09701577
597.868	0.09733515
598.068	0.09770146
598.268	0.09806904
598.467	0.09844137
598.667	0.09875359
598.867	0.09917224
599.067	0.09954319
599.267	0.09984615
599.467	0.10013916
599.667	0.100432
599.866	0.10076012
600.066	0.10108315
600.266	0.10137927
600.466	0.10170656
600.665	0.1020271
600.865	0.10243862
601.065	0.10274256
601.264	0.10303207
601.464	0.10337461
601.664	0.10372007
601.863	0.10397985
602.063	0.10432171
602.263	0.10450439
602.462	0.10482322
602.662	0.10514234
602.861	0.1054566
603.061	0.10571317
603.26	0.10604714
603.46	0.10632517
603.659	0.10671073
603.859	0.1069617
604.058	0.10723532
604.258	0.10755844
604.457	0.1079525
604.657	0.10825468
604.856	0.10856055
605.056	0.10888593
605.255	0.10925401
605.454	0.10965964
605.654	0.10994874
605.853	0.11022231
606.052	0.11055323
606.252	0.11090307
606.451	0.11123692
606.65	0.11159614
606.849	0.11182541
607.049	0.11215524
607.248	0.11242529
607.447	0.1127657
607.646	0.11304048
607.845	0.11332238
608.045	0.11355271
608.244	0.11396379
608.443	0.11425716
608.642	0.11460532
608.841	0.11486927
609.04	0.11518763
609.239	0.11551033
609.438	0.11578304
609.637	0.11604865
609.836	0.11636159
610.035	0.11661722
610.234	0.11697562
610.433	0.11729434
610.632	0.1175561
610.831	0.11794638
611.03	0.11819782
611.229	0.11852562
611.428	0.1188329
611.627	0.11906834
611.826	0.11939806
612.025	0.11979885
612.224	0.12006805
612.422	0.1203635
612.621	0.1206325
612.82	0.12097293
613.019	0.12133506
613.218	0.12168149
613.416	0.1218895
613.615	0.12225047
613.814	0.12261311
614.012	0.12296487
614.211	0.12319169
614.41	0.12350639
614.608	0.12372639
614.807	0.12402689
615.006	0.124317
615.204	0.12459394
615.403	0.12489208
615.602	0.12527083
615.8	0.12559811
615.999	0.12586203
616.197	0.12618012
616.396	0.12650676
616.594	0.12676987
616.793	0.12703896
616.991	0.12731435
617.19	0.1274579
617.388	0.12785333
617.586	0.12812577
617.785	0.12835442
617.983	0.12865174
618.182	0.12891092
618.38	0.12911911
618.578	0.12946735
618.777	0.12973047
618.975	0.13001838
619.173	0.13033651
619.372	0.13061453
619.57	0.13088444
619.768	0.1312319
619.966	0.13154049
620.165	0.13174623
620.363	0.13201649
620.561	0.13225522
620.759	0.13256615
620.957	0.13287602
621.155	0.13312451
621.354	0.13332712
621.552	0.13369014
621.75	0.13399329
621.948	0.13435518
622.146	0.13464938
622.344	0.13492132
622.542	0.13519586
622.74	0.13552428
622.938	0.13570863
623.136	0.13598024
623.334	0.13621158
623.532	0.13642951
623.73	0.13670138
623.928	0.1370332
624.126	0.13730382
624.324	0.1376141
624.522	0.13784001
624.719	0.13807226
624.917	0.13833909
625.115	0.1385516
625.313	0.1388126
625.511	0.13910213
625.708	0.13929581
625.906	0.13958766
626.104	0.13981149
626.302	0.14014108
626.499	0.14044281
626.697	0.14066859
626.895	0.14087864
627.093	0.14116916
627.29	0.14146617
627.488	0.14178492
627.686	0.14205597
627.883	0.14230937
628.081	0.14257558
628.278	0.14300663
628.476	0.1432758
628.673	0.1435191
628.871	0.14380182
629.068	0.14401808
629.266	0.14432603
629.463	0.14456425
629.661	0.14467484
629.858	0.14488348
630.056	0.14507124
630.253	0.14525051
630.451	0.14546194
630.648	0.14562387
630.845	0.14584471
631.043	0.14610298
631.24	0.14640786
631.438	0.14667635
631.635	0.14696311
631.832	0.1471618
632.029	0.14743416
632.227	0.14773886
632.424	0.14801666
632.621	0.14826903
632.818	0.14850181
633.016	0.14868738
633.213	0.14892034
633.41	0.14918639
633.607	0.14939897
633.804	0.14960921
634.001	0.14980944
634.199	0.15011464
634.396	0.15037373
634.593	0.15061466
634.79	0.15082369
634.987	0.15112784
635.184	0.15143094
635.381	0.15174155
635.578	0.15199862
635.775	0.15223475
635.972	0.15251986
636.169	0.15279038
636.366	0.15297752
636.563	0.15315835
636.76	0.15331399
636.957	0.15348061
637.153	0.15366257
637.35	0.15391873
637.547	0.15416115
637.744	0.15439878
637.941	0.15461986
638.138	0.15488705
638.334	0.15508187
638.531	0.155393
638.728	0.15560668
638.925	0.15583564
639.121	0.15596598
639.318	0.15613904
639.515	0.15632663
639.711	0.15663987
639.908	0.15680754
640.105	0.15701045
640.301	0.15721853
640.498	0.15743973
640.695	0.1576803
640.891	0.15790139
641.088	0.1580476
641.284	0.15829056
641.481	0.15849526
641.677	0.15868669
641.874	0.15895721
642.07	0.15922034
642.267	0.15946368
642.463	0.15970456
642.66	0.15996109
642.856	0.1601504
643.053	0.16032199
643.249	0.16056195
643.445	0.16073971
643.642	0.16091296
643.838	0.16115279
644.034	0.16135243
644.231	0.16156925
644.427	0.16177857
644.623	0.16197715
644.82	0.16222916
645.016	0.16247045
645.212	0.16263389
645.408	0.16287895
645.604	0.16325516
645.801	0.1635458
645.997	0.16375993
646.193	0.16393264
646.389	0.16422687
646.585	0.16447215
646.781	0.1646795
646.977	0.16476573
647.173	0.16493197
647.37	0.16513367
647.566	0.16537344
647.762	0.16555217
647.958	0.16578744
648.154	0.16594134
648.35	0.16617813
648.546	0.1664115
648.742	0.16672664
648.937	0.16686409
649.133	0.16710485
649.329	0.16735942
649.525	0.16764618
649.721	0.167935
649.917	0.16823059
650.113	0.16835904
650.309	0.16870621
650.504	0.16883521
650.7	0.16901037
650.896	0.16926408
651.092	0.1694204
651.287	0.16955552
651.483	0.16983576
651.679	0.16996837
651.875	0.17030657
652.07	0.17049049
652.266	0.17061584
652.462	0.17078312
652.657	0.17102346
652.853	0.17114682
653.048	0.171346
653.244	0.17142012
653.44	0.17161559
653.635	0.17179017
653.831	0.17205838
654.026	0.1722997
654.222	0.17256428
654.417	0.17287006
654.613	0.17315238
654.808	0.17341223
655.004	0.17370888
655.199	0.17390175
655.394	0.17410026
655.59	0.17434602
655.785	0.17451661
655.98	0.17474861
656.176	0.17490189
656.371	0.17516869
656.566	0.17539693
656.762	0.17553748
656.957	0.17575224
657.152	0.17596366
657.348	0.1761948
657.543	0.17646828
657.738	0.17664985
657.933	0.17685761
658.128	0.17711331
658.324	0.17722189
658.519	0.17746479
658.714	0.17762971
658.909	0.17781513
659.104	0.17803035
659.299	0.17820238
659.494	0.17836928
659.689	0.17862716
659.884	0.17876397
660.079	0.17896908
660.274	0.17919757
660.469	0.17943235
660.664	0.17970581
660.859	0.18000085
661.054	0.18026548
661.249	0.18057708
661.444	0.18082027
661.639	0.18102388
661.834	0.1811317
662.029	0.1813519
662.224	0.18151202
662.418	0.18169799
662.613	0.18187216
662.808	0.18205577
663.003	0.18226596
663.198	0.18253211
663.392	0.1827252
663.587	0.18306345
663.782	0.1832354
663.977	0.18346002
664.171	0.18366574
664.366	0.18391793
664.561	0.18418794
664.755	0.18444157
664.95	0.18454732
665.144	0.1848499
665.339	0.18509482
665.534	0.18538387
665.728	0.18566566
665.923	0.1858828
666.117	0.18611017
666.312	0.18636868
666.506	0.18661355
666.701	0.18679611
666.895	0.18697963
667.09	0.18706813
667.284	0.18730763
667.479	0.18749888
667.673	0.18773948
667.867	0.18796975
668.062	0.18822859
668.256	0.18849888
668.45	0.18882254
668.645	0.18906632
668.839	0.18930649
669.033	0.18952406
669.228	0.18974191
669.422	0.19001164
669.616	0.19024488
669.81	0.19056622
670.004	0.19073733
670.199	0.19098038
670.393	0.19118269
670.587	0.19137466
670.781	0.1915525
670.975	0.19176278
671.169	0.19188797
671.363	0.19210667
671.558	0.19229952
671.752	0.19258048
671.946	0.1928593
672.14	0.19313384
672.334	0.19333605
672.528	0.19365325
672.722	0.19388346
672.916	0.19420828
673.11	0.1944587
673.304	0.19476867
673.497	0.19495591
673.691	0.19530022
673.885	0.19549476
674.079	0.19584557
674.273	0.19607631
674.467	0.19634886
674.661	0.19653035
674.854	0.19687172
675.048	0.19717234
675.242	0.19748089
675.436	0.19767506
675.629	0.19791324
675.823	0.19807903
676.017	0.19836295
676.211	0.19858319
676.404	0.19875937
676.598	0.19894074
676.792	0.199216
676.985	0.19951364
677.179	0.19978283
677.372	0.19996234
677.566	0.20020753
677.76	0.20045162
677.953	0.20074237
678.147	0.20100949
678.34	0.20124826
678.534	0.20152746
678.727	0.2018365
678.921	0.20211867
679.114	0.20236186
679.307	0.20262575
679.501	0.2028603
679.694	0.20310653
679.888	0.20338088
680.081	0.2036434
680.274	0.20388092
680.468	0.20419339
680.661	0.20440318
680.854	0.20472973
681.048	0.2050092
681.241	0.20530095
681.434	0.20553325
681.627	0.20583062
681.821	0.20607457
682.014	0.20645403
682.207	0.20662905
682.4	0.20687295
682.593	0.20713624
682.786	0.20737879
682.98	0.20759796
683.173	0.20792991
683.366	0.20813949
683.559	0.20845758
683.752	0.20878033
683.945	0.20905081
684.138	0.20937759
684.331	0.20963206
684.524	0.20987249
684.717	0.21010736
684.91	0.21041036
685.103	0.21066408
685.296	0.21095544
685.489	0.21126446
685.682	0.21157094
685.874	0.21187116
686.067	0.21217168
686.26	0.21245875
686.453	0.2127386
686.646	0.21298116
686.839	0.21326273
687.031	0.21353121
687.224	0.21375437
687.417	0.21408105
687.61	0.21431058
687.802	0.2145303
687.995	0.21482353
688.188	0.21503795
688.38	0.21529615
688.573	0.21561044
688.766	0.21586163
688.958	0.21615689
689.151	0.21643923
689.343	0.2167519
689.536	0.21702679
689.729	0.21732517
689.921	0.21751745
690.114	0.21766814
690.306	0.21787833
690.499	0.21814857
690.691	0.21839048
690.884	0.21870346
691.076	0.21901699
691.268	0.21933219
691.461	0.21966934
691.653	0.22000906
691.846	0.220374
692.038	0.22061644
692.23	0.22086821
692.423	0.22111697
692.615	0.22145264
692.807	0.22179637
692.999	0.22209038
693.192	0.22231769
693.384	0.22263199
693.576	0.22292869
693.768	0.22330684
693.961	0.22356314
694.153	0.22388017
694.345	0.22416038
694.537	0.22447924
694.729	0.22481708
694.921	0.22508352
695.113	0.22529396
695.305	0.22556222
695.498	0.22572943
695.69	0.22603539
695.882	0.22634764
696.074	0.22666788
696.266	0.2269944
696.458	0.2272551
696.65	0.22756511
696.842	0.2279533
697.033	0.2281924
697.225	0.22838763
697.417	0.22868156
697.609	0.22893104
697.801	0.22923285
697.993	0.22958922
698.185	0.22991548
698.376	0.23029112
698.568	0.23064956
698.76	0.23095822
698.952	0.23132514
699.144	0.23169605
699.335	0.23194485
699.527	0.23220604
699.719	0.23242858
699.91	0.23280935
700.102	0.23304141
700.294	0.23332558
700.485	0.2336292
700.677	0.2339189
700.869	0.23418132
701.06	0.2345652
701.252	0.23480472
701.443	0.23515369
701.635	0.23545842
701.826	0.23577264
702.018	0.23610709
702.209	0.2364616
702.401	0.23669497
702.592	0.23701387
702.784	0.23732285
702.975	0.23768279
703.166	0.23793716
703.358	0.23818191
703.549	0.23849619
703.741	0.23886616
703.932	0.23908894
704.123	0.23933565
704.315	0.23957756
704.506	0.23992094
704.697	0.24027137
704.888	0.24060589
705.08	0.24087676
705.271	0.24126263
705.462	0.24158049
705.653	0.24192479
705.844	0.24216509
706.035	0.24248658
706.227	0.24272154
706.418	0.24300796
706.609	0.24329112
706.8	0.24364449
706.991	0.24390655
707.182	0.24421831
707.373	0.24447977
707.564	0.24480119
707.755	0.24504222
707.946	0.24533409
708.137	0.24554236
708.328	0.24585949
708.519	0.24620074
708.71	0.24655252
708.901	0.24684061
709.092	0.24719989
709.283	0.24749568
709.473	0.24785992
709.664	0.24818822
709.855	0.24843448
710.046	0.24869839
710.237	0.24903025
710.427	0.24933003
710.618	0.24964779
710.809	0.24992646
711	0.25023543
711.19	0.25054732
711.381	0.25086019
711.572	0.25110225
711.762	0.25144489
711.953	0.25170661
712.144	0.25194418
712.334	0.25215234
712.525	0.25250245
712.715	0.25280892
712.906	0.25314856
713.097	0.25338839
713.287	0.25372337
713.478	0.25406169
713.668	0.25437587
713.859	0.25462673
714.049	0.25488558
714.239	0.25520192
714.43	0.25555332
714.62	0.25584684
714.811	0.25617551
715.001	0.25653183
715.191	0.25686019
715.382	0.25716688
715.572	0.25748528
715.762	0.25775665
715.953	0.25805814
716.143	0.25836546
716.333	0.25857456
716.523	0.25882321
716.714	0.25922986
716.904	0.25944638
717.094	0.2597878
717.284	0.2599835
717.474	0.26021504
717.664	0.26054215
717.855	0.26085453
718.045	0.26103069
718.235	0.26139113
718.425	0.26163799
718.615	0.26204808
718.805	0.26243948
718.995	0.26274232
719.185	0.26309568
719.375	0.26341351
719.565	0.26372959
719.755	0.26406529
719.945	0.26436533
720.135	0.26466606
720.325	0.26503545
720.515	0.26535443
720.704	0.26569116
720.894	0.26603479
721.084	0.26635961
721.274	0.26668544
721.464	0.26703598
721.654	0.26736188
721.843	0.26760935
722.033	0.26790459
722.223	0.26812052
722.413	0.26843779
722.602	0.2687252
722.792	0.26896478
722.982	0.2691915
723.171	0.26956917
723.361	0.26983407
723.55	0.27013219
723.74	0.27036584
723.93	0.27059259
724.119	0.27085578
724.309	0.2711241
724.498	0.27137045
724.688	0.27169379
724.877	0.2720034
725.067	0.27225137
725.256	0.27258754
725.446	0.27293283
725.635	0.2731979
725.825	0.27340992
726.014	0.27366631
726.203	0.27390957
726.393	0.27415833
726.582	0.27431308
726.771	0.27446151
726.961	0.27474281
727.15	0.27497265
727.339	0.2751644
727.529	0.27541335
727.718	0.27564361
727.907	0.27589383
728.096	0.2761334
728.286	0.27635927
728.475	0.27665198
728.664	0.27694073
728.853	0.2770698
729.042	0.27729485
729.231	0.27752636
729.42	0.27782612
729.609	0.2780583
729.799	0.27822395
729.988	0.27841835
730.177	0.27871846
730.366	0.27895271
730.555	0.27924074
730.744	0.27943305
730.933	0.27965427
731.122	0.27991136
731.31	0.28013965
731.499	0.2803555
731.688	0.28058719
731.877	0.28076574
732.066	0.28099905
732.255	0.28118498
732.444	0.28143101
732.632	0.28167122
732.821	0.28184291
733.01	0.28206032
733.199	0.28222903
733.388	0.28241344
733.576	0.28261222
733.765	0.28274071
733.954	0.2829233
734.142	0.28316712
734.331	0.28336309
734.52	0.28361697
734.708	0.28381415
734.897	0.28404345
735.086	0.28428008
735.274	0.28442095
735.463	0.2846317
735.651	0.28481041
735.84	0.28503918
736.028	0.28526201
736.217	0.28545832
736.405	0.285578
736.594	0.28580249
736.782	0.28594465
736.971	0.28612973
737.159	0.28624562
737.347	0.28634636
737.536	0.28646526
737.724	0.28670177
737.912	0.28690924
738.101	0.2870901
738.289	0.28728001
738.477	0.28747462
738.666	0.28769929
738.854	0.28790022
739.042	0.28808298
739.23	0.28821071
739.418	0.28844041
739.607	0.28861794
739.795	0.28878548
739.983	0.28902393
740.171	0.2892252
740.359	0.28938986
740.547	0.28955185
740.735	0.28971937
740.923	0.29001478
741.112	0.29022148
741.3	0.29042937
741.488	0.29061819
741.676	0.29090793
741.864	0.29113762
742.052	0.2913638
742.239	0.2913765
742.427	0.29155689
742.615	0.29152562
742.803	0.29167969
742.991	0.29172838
743.179	0.29184313
743.367	0.29196576
743.555	0.29220558
743.742	0.29234194
743.93	0.29269404
744.118	0.29282247
744.306	0.2930627
744.494	0.29318724
744.681	0.29333168
744.869	0.29345665
745.057	0.29361989
745.244	0.29369536
745.432	0.29390185
745.62	0.29396989
745.807	0.29415418
745.995	0.29431637
746.182	0.29440486
746.37	0.29452778
746.558	0.29460259
746.745	0.29467222
746.933	0.29477697
747.12	0.29487253
747.308	0.2949582
747.495	0.29515016
747.683	0.29526056
747.87	0.29543678
748.057	0.29557951
748.245	0.2957871
748.432	0.29598075
748.62	0.29611044
748.807	0.29611317
748.994	0.29626049
749.182	0.29631274
749.369	0.2963844
749.556	0.29642946
749.743	0.29650061
749.931	0.29659399
750.118	0.29671822
750.305	0.29679873
750.492	0.29687733
750.68	0.29699114
750.867	0.29704917
751.054	0.29716684
751.241	0.29723135
751.428	0.29737465
751.615	0.29750369
751.802	0.29767918
751.989	0.29778623
752.176	0.29795407
752.363	0.29802894
752.55	0.29811046
752.737	0.29817006
752.924	0.29814548
753.111	0.29818336
753.298	0.29824474
753.485	0.2982248
753.672	0.29825574
753.859	0.29842447
754.046	0.29855148
754.233	0.29868618
754.42	0.29883362
754.606	0.29890495
754.793	0.29904664
754.98	0.29919256
755.167	0.2992229
755.353	0.29930307
755.54	0.29945808
755.727	0.29951169
755.914	0.29962125
756.1	0.29967153
756.287	0.29965648
756.474	0.29974438
756.66	0.29986832
756.847	0.29989489
757.033	0.2998323
757.22	0.29982944
757.407	0.29995037
757.593	0.30011266
757.78	0.30008338
757.966	0.30005472
758.153	0.30004512
758.339	0.30017928
758.526	0.30023368
758.712	0.3001509
758.898	0.30011587
759.085	0.30013611
759.271	0.30018936
759.458	0.30020834
759.644	0.30021761
759.83	0.30027827
760.017	0.30042836
760.203	0.30040928
760.389	0.30052184
760.576	0.30050271
760.762	0.30055873
760.948	0.30056366
761.134	0.30058758
761.32	0.30059482
761.507	0.3006239
761.693	0.3006394
761.879	0.30068498
762.065	0.30072738
762.251	0.30081474
762.437	0.30086317
762.623	0.30079748
762.809	0.30079923
762.995	0.30076181
763.181	0.30076771
763.367	0.30077685
763.553	0.30079828
763.739	0.30081392
763.925	0.30090999
764.111	0.30097597
764.297	0.30100821
764.483	0.30098412
764.669	0.3009144
764.855	0.30088928
765.041	0.30087782
765.227	0.30077319
765.412	0.30080358
765.598	0.30076848
765.784	0.30075785
765.97	0.30078244
766.156	0.30067941
766.341	0.3006972
766.527	0.30073295
766.713	0.30065511
766.898	0.30062508
767.084	0.30058492
767.27	0.30053682
767.455	0.30053283
767.641	0.30044453
767.827	0.30039265
768.012	0.30038324
768.198	0.30038012
768.383	0.30035463
768.569	0.30032827
768.754	0.30030755
768.94	0.30016632
769.125	0.30007128
769.311	0.29995218
769.496	0.29992247
769.682	0.29991461
769.867	0.29996608
770.052	0.29996353
770.238	0.29994859
770.423	0.29999715
770.608	0.30001679
770.794	0.29990933
770.979	0.29982523
771.164	0.29964947
771.35	0.29957937
771.535	0.29959842
771.72	0.29948516
771.905	0.29946398
772.09	0.29939821
772.276	0.29931719
772.461	0.29926424
772.646	0.29917501
772.831	0.29903717
773.016	0.29892914
773.201	0.29881072
773.386	0.29879364
773.571	0.29870207
773.756	0.29858042
773.941	0.29842709
774.126	0.29842139
774.311	0.29835997
774.496	0.2983411
774.681	0.2982199
774.866	0.29813154
775.051	0.29804729
775.236	0.29793334
775.421	0.29771145
775.606	0.29752115
775.791	0.29725617
775.976	0.29715351
776.16	0.29705879
776.345	0.29698901
776.53	0.29702326
776.715	0.29699637
776.899	0.29695773
777.084	0.29690866
777.269	0.29678664
777.454	0.29663929
777.638	0.29652637
777.823	0.29630459
778.008	0.29613271
778.192	0.29609548
778.377	0.29592869
778.561	0.29587108
778.746	0.29584842
778.931	0.29573293
779.115	0.29571773
779.3	0.29571457
779.484	0.29549613
779.669	0.29546067
779.853	0.29524434
780.037	0.2950633
780.222	0.29489063
780.406	0.29471486
780.591	0.29453986
780.775	0.29450831
780.959	0.29438567
781.144	0.29429042
781.328	0.29411053
781.512	0.29398607
781.697	0.29379867
781.881	0.29358699
782.065	0.29333726
782.249	0.29305648
782.434	0.29293004
782.618	0.29283613
782.802	0.29263757
782.986	0.29248806
783.17	0.29233993
783.354	0.2921683
783.539	0.29202607
783.723	0.29172774
783.907	0.29146549
784.091	0.29126134
784.275	0.29105595
784.459	0.29086407
784.643	0.29070065
784.827	0.29055327
785.011	0.29046741
785.195	0.2903771
785.379	0.29039114
785.563	0.29028328
785.747	0.29007475
785.93	0.29000098
786.114	0.28974862
786.298	0.28943723
786.482	0.28915651
786.666	0.28887222
786.85	0.2885915
787.033	0.28845645
787.217	0.28815543
787.401	0.28798719
787.585	0.28785107
787.768	0.28771073
787.952	0.28744587
788.136	0.28724807
788.319	0.28698738
788.503	0.28672646
788.687	0.28649626
788.87	0.28628515
789.054	0.28601142
789.237	0.28586396
789.421	0.2856535
789.605	0.28544613
789.788	0.28523722
789.972	0.28507587
790.155	0.2847473
790.338	0.28448458
790.522	0.28416033
790.705	0.28386756
790.889	0.2836118
791.072	0.28342633
791.256	0.28314543
791.439	0.28304415
791.622	0.28283517
791.806	0.28266628
791.989	0.28239181
792.172	0.28219443
792.355	0.28189189
792.539	0.28163628
792.722	0.2812612
792.905	0.28098365
793.088	0.28072061
793.271	0.28057108
793.455	0.28029443
793.638	0.28014701
793.821	0.27997763
794.004	0.27982904
794.187	0.27969508
794.37	0.27940288
794.553	0.27918082
794.736	0.27893079
794.919	0.27862559
795.102	0.27832778
795.285	0.27800549
795.468	0.27765076
795.651	0.27740085
795.834	0.27713567
796.017	0.27688332
796.2	0.27656884
796.383	0.27625512
796.566	0.2760978
796.749	0.27592266
796.931	0.27574535
797.114	0.27544606
797.297	0.2752223
797.48	0.27501168
797.663	0.27483639
797.845	0.27452681
798.028	0.27433028
798.211	0.2740891
798.393	0.27385137
798.576	0.27359031
798.759	0.27329384
798.941	0.27301514
799.124	0.27276655
799.307	0.27239544
799.489	0.27201438
799.672	0.2717379
799.854	0.27140107
800.037	0.2711371
800.219	0.27087026
800.402	0.27066298
800.584	0.27034312
800.767	0.27013444
800.949	0.26983711
801.132	0.26959086
801.314	0.26932772
801.496	0.26900228
801.679	0.26862686
801.861	0.26831429
802.043	0.26794219
802.226	0.26764267
802.408	0.26726247
802.59	0.26692351
802.772	0.26667792
802.955	0.26639456
803.137	0.26605431
803.319	0.26570767
803.501	0.26530106
803.684	0.26504148
803.866	0.26468875
804.048	0.264262
804.23	0.26388591
804.412	0.26362551
804.594	0.26329244
804.776	0.26317919
804.958	0.26283081
805.14	0.2625505
805.322	0.26234352
805.504	0.26209396
805.686	0.26182145
805.868	0.26149547
806.05	0.26105224
806.232	0.26082876
806.414	0.26051927
806.596	0.26017861
806.778	0.25980882
806.96	0.25951429
807.141	0.25933406
807.323	0.25904517
807.505	0.25869661
807.687	0.25837382
807.869	0.25798906
808.05	0.25772302
808.232	0.25735642
808.414	0.25692864
808.595	0.25657615
808.777	0.25618023
808.959	0.25589873
809.14	0.25564131
809.322	0.2553209
809.504	0.25496555
809.685	0.25473703
809.867	0.254468
810.048	0.25419152
810.23	0.25388189
810.411	0.25353408
810.593	0.2531397
810.774	0.25278469
810.956	0.2523261
811.137	0.25189504
811.319	0.25150533
811.5	0.25110016
811.681	0.25069608
811.863	0.25029695
812.044	0.24982841
812.225	0.24952782
812.407	0.24915923
812.588	0.24874919
812.769	0.24832782
812.951	0.24802203
813.132	0.24770232
813.313	0.24751841
813.494	0.24710826
813.675	0.24675466
813.857	0.24646831
814.038	0.2462336
814.219	0.24582793
814.4	0.24551323
814.581	0.24519263
814.762	0.2448278
814.943	0.24451258
815.124	0.24416649
815.305	0.24373524
815.486	0.24337573
815.667	0.24306503
815.848	0.24266048
816.029	0.24232615
816.21	0.24196737
816.391	0.24163287
816.572	0.24130444
816.753	0.24099266
816.934	0.24057041
817.115	0.24018034
817.295	0.23986821
817.476	0.23943847
817.657	0.23901187
817.838	0.23864239
818.019	0.23816783
818.199	0.23769787
818.38	0.23737971
818.561	0.23698921
818.741	0.23665864
818.922	0.23629713
819.103	0.23591052
819.283	0.23560326
819.464	0.23529247
819.645	0.23483526
819.825	0.23432122
820.006	0.23396208
820.186	0.23346618
820.367	0.23307172
820.547	0.23260331
820.728	0.23216595
820.908	0.23181668
821.089	0.23149425
821.269	0.23108369
821.45	0.23081593
821.63	0.23036
821.81	0.23003088
821.991	0.22974548
822.171	0.2294321
822.351	0.22904941
822.532	0.22870689
822.712	0.22830355
822.892	0.22793353
823.072	0.22755747
823.253	0.22710766
823.433	0.22657573
823.613	0.22623021
823.793	0.22577966
823.973	0.22541962
824.154	0.2250086
824.334	0.22458847
824.514	0.22415376
824.694	0.2238819
824.874	0.22341564
825.054	0.22304858
825.234	0.22249497
825.414	0.22210745
825.594	0.2217461
825.774	0.2213694
825.954	0.2209601
826.134	0.22056565
826.314	0.22019376
826.494	0.21994159
826.674	0.2195845
826.854	0.21906712
827.033	0.21858696
827.213	0.21815151
827.393	0.21775023
827.573	0.21727529
827.753	0.216785
827.932	0.21637225
828.112	0.21608468
828.292	0.215851
828.472	0.21543122
828.651	0.21514913
828.831	0.2147964
829.011	0.21452812
829.19	0.21407353
829.37	0.21364577
829.549	0.21318141
829.729	0.21280898
829.909	0.21241341
830.088	0.21198988
830.268	0.21150052
830.447	0.21114858
830.627	0.21080308
830.806	0.21040866
830.986	0.20994985
831.165	0.20951264
831.344	0.20916392
831.524	0.20885019
831.703	0.20848474
831.883	0.20798743
832.062	0.20755123
832.241	0.2070829
832.421	0.20663814
832.6	0.206235
832.779	0.20579774
832.958	0.20539361
833.138	0.2049763
833.317	0.20466059
833.496	0.20435575
833.675	0.2039377
833.854	0.20357427
834.034	0.20317227
834.213	0.2026864
834.392	0.2023737
834.571	0.20182788
834.75	0.20141572
834.929	0.20102134
835.108	0.2004853
835.287	0.20009407
835.466	0.19973359
835.645	0.19934615
835.824	0.1990131
836.003	0.1985858
836.182	0.19823773
836.361	0.19789741
836.54	0.19738449
836.719	0.19689605
836.897	0.19639886
837.076	0.19594317
837.255	0.19552719
837.434	0.19509398
837.613	0.1945804
837.791	0.19416243
837.97	0.19381979
838.149	0.19337336
838.328	0.19297837
838.506	0.1925234
838.685	0.19202499
838.864	0.19177016
839.042	0.19142253
839.221	0.19106718
839.4	0.19071183
839.578	0.19031366
839.757	0.18999195
839.935	0.18965434
840.114	0.18926426
840.292	0.18885127
840.471	0.18844439
840.649	0.18805464
840.828	0.18757856
841.006	0.18719887
841.185	0.18669771
841.363	0.18633137
841.541	0.18601331
841.72	0.18562347
841.898	0.18527046
842.076	0.18493756
842.255	0.18445439
842.433	0.18405528
842.611	0.18345609
842.789	0.18289768
842.968	0.18238735
843.146	0.18189729
843.324	0.1815184
843.502	0.18115438
843.68	0.18085788
843.859	0.18047078
844.037	0.18018566
844.215	0.17979491
844.393	0.17938749
844.571	0.17892025
844.749	0.17841431
844.927	0.17792073
845.105	0.17745251
845.283	0.17693683
845.461	0.17659931
845.639	0.17623296
845.817	0.17587144
845.995	0.17557676
846.173	0.17520959
846.351	0.17501121
846.529	0.17464057
846.706	0.1742403
846.884	0.17384726
847.062	0.17334352
847.24	0.17287743
847.418	0.17240392
847.595	0.1718612
847.773	0.17148359
847.951	0.1710164
848.129	0.17061491
848.306	0.17035822
848.484	0.17005996
848.662	0.16977678
848.839	0.16943839
849.017	0.16898925
849.194	0.16851265
849.372	0.16804474
849.549	0.16752882
849.727	0.16701104
849.905	0.16647229
850.082	0.1659507
850.26	0.16561324
850.437	0.1652937
850.614	0.16493799
850.792	0.16458109
850.969	0.16428046
851.147	0.16405619
851.324	0.16371785
851.501	0.16330265
851.679	0.16277829
851.856	0.16228082
852.033	0.16179932
852.211	0.16113496
852.388	0.16062343
852.565	0.16021324
852.742	0.15979098
852.92	0.15947828
853.097	0.15914688
853.274	0.15888775
853.451	0.15872984
853.628	0.15833262
853.805	0.15790711
853.982	0.15751973
854.159	0.15712014
854.336	0.15668995
854.514	0.15606193
854.691	0.15546988
854.868	0.15503637
855.045	0.15452315
855.221	0.15399961
855.398	0.15362041
855.575	0.15328175
855.752	0.15311247
855.929	0.15295412
856.106	0.15257612
856.283	0.15237539
856.46	0.15213303
856.637	0.15178805
856.813	0.15143102
856.99	0.15094825
857.167	0.15048766
857.344	0.15007303
857.52	0.1496229
857.697	0.14914992
857.874	0.14866409
858.05	0.14807485
858.227	0.14771865
858.404	0.14730097
858.58	0.14702948
858.757	0.1466941
858.933	0.14640406
859.11	0.14614966
859.287	0.1459233
859.463	0.1455495
859.64	0.14521139
859.816	0.1447351
859.993	0.14426468
860.169	0.1438303
860.345	0.14333603
860.522	0.1428763
860.698	0.14246659
860.875	0.14212936
861.051	0.14181987
861.227	0.14144108
861.404	0.141076
861.58	0.14072287
861.756	0.14031019
861.932	0.13994338
862.109	0.13943376
862.285	0.13899086
862.461	0.13857437
862.637	0.13808281
862.813	0.13761604
862.99	0.13717801
863.166	0.13672686
863.342	0.13637039
863.518	0.13601582
863.694	0.13579861
863.87	0.13547074
864.046	0.1352953
864.222	0.13513205
864.398	0.13485559
864.574	0.13448305
864.75	0.13405039
864.926	0.13356973
865.102	0.13318231
865.278	0.13258757
865.454	0.13217262
865.63	0.13169272
865.805	0.13129904
865.981	0.13086366
866.157	0.13046469
866.333	0.13013245
866.509	0.12993497
866.684	0.12956927
866.86	0.12930891
867.036	0.12903035
867.212	0.12866244
867.387	0.12835459
867.563	0.12800657
867.739	0.12753315
867.914	0.12709751
868.09	0.12668185
868.265	0.12622554
868.441	0.12588258
868.617	0.12560514
868.792	0.12534892
868.968	0.12505236
869.143	0.124826
869.319	0.12449343
869.494	0.12421972
869.67	0.12394629
869.845	0.12350665
870.02	0.12299585
870.196	0.12250227
870.371	0.12202057
870.546	0.12161194
870.722	0.12113851
870.897	0.12070866
871.072	0.1202744
871.248	0.11993968
871.423	0.11966286
871.598	0.11934972
871.773	0.11893679
871.949	0.11872966
872.124	0.11856007
872.299	0.1183169
872.474	0.11803741
872.649	0.11762928
872.824	0.11717803
872.999	0.11679126
873.174	0.11625634
873.349	0.11577503
873.524	0.11542561
873.699	0.11507158
873.874	0.11480585
874.049	0.11464066
874.224	0.11451335
874.399	0.11427509
874.574	0.11401344
874.749	0.11367772
874.924	0.11322289
875.099	0.11286721
875.274	0.11234501
875.449	0.11188549
875.623	0.11143549
875.798	0.11089897
875.973	0.11045238
876.148	0.11010141
876.322	0.10973521
876.497	0.10942267
876.672	0.10907793
876.846	0.10879815
877.021	0.10854004
877.196	0.10815931
877.37	0.10788185
877.545	0.10765565
877.72	0.10734003
877.894	0.10707749
878.069	0.10683083
878.243	0.10642532
878.418	0.10615391
878.592	0.10569585
878.767	0.10516297
878.941	0.10480613
879.116	0.10438437
879.29	0.10398276
879.464	0.10374997
879.639	0.10356725
879.813	0.10340583
879.987	0.10326824
880.162	0.10302792
880.336	0.1027795
880.51	0.10253418
880.685	0.10222984
880.859	0.10185427
881.033	0.10157956
881.207	0.10113938
881.381	0.10086043
881.556	0.1005267
881.73	0.10019949
881.904	0.09989189
882.078	0.0995625
882.252	0.09921377
882.426	0.09900641
882.6	0.09861991
882.774	0.09836482
882.948	0.09812274
883.122	0.09781837
883.296	0.09749286
883.47	0.09715892
883.644	0.09679146
883.818	0.09643821
883.992	0.09609642
884.166	0.09562553
884.34	0.09536985
884.514	0.09517243
884.687	0.09496193
884.861	0.0947563
885.035	0.09458616
885.209	0.09427643
885.382	0.09407424
885.556	0.09373016
885.73	0.09343771
885.904	0.0930973
886.077	0.09264378
886.251	0.09218886
886.425	0.09189533
886.598	0.09157408
886.772	0.09121104
886.945	0.09066963
887.119	0.09021133
887.292	0.08994894
887.466	0.08958564
887.64	0.08926218
887.813	0.08897646
887.986	0.08875187
888.16	0.08863349
888.333	0.08851329
888.507	0.08825199
888.68	0.08814355
888.854	0.08794178
889.027	0.08770495
889.2	0.08739825
889.374	0.08712459
889.547	0.0868476
889.72	0.08669577
889.893	0.0864021
890.067	0.08602001
890.24	0.08555298
890.413	0.08541179
890.586	0.08502089
890.759	0.08473642
890.933	0.08441537
891.106	0.08415361
891.279	0.08402733
891.452	0.08386594
891.625	0.08354653
891.798	0.08329513
891.971	0.08306226
892.144	0.08268289
892.317	0.08235926
892.49	0.08191397
892.663	0.08167805
892.836	0.08140454
893.009	0.08111629
893.182	0.0807384
893.355	0.0805691
893.527	0.0803204
893.7	0.08019305
893.873	0.07988238
894.046	0.07947491
894.219	0.07939995
894.391	0.07924521
894.564	0.07897108
894.737	0.0786135
894.91	0.07824988
895.082	0.07792317
895.255	0.0777201
895.428	0.07725582
895.6	0.07687534
895.773	0.07662253
895.945	0.07642603
896.118	0.07605124
896.291	0.07589426
896.463	0.07565866
896.636	0.07547383
896.808	0.07521189
896.981	0.07481335
897.153	0.07463168
897.326	0.07456697
897.498	0.07425385
897.67	0.07393006
897.843	0.0736838
898.015	0.07345193
898.187	0.07318901
898.36	0.07270065
898.532	0.07227374
898.704	0.0719869
898.877	0.07169248
899.049	0.07147224
899.221	0.07111362
899.393	0.07102609
899.566	0.07103774
899.738	0.07102449
899.91	0.07091883
900.082	0.07082908
900.254	0.0705244
900.426	0.07040348
900.598	0.07009876
900.77	0.06963884
900.942	0.06924339
901.114	0.06891837
901.286	0.06851441
901.458	0.06832465
901.63	0.06801817
901.802	0.06777151
901.974	0.06770212
902.146	0.06746515
902.318	0.06725405
902.49	0.0670781
902.662	0.06679964
902.834	0.06660995
903.005	0.06634725
903.177	0.06610556
903.349	0.06586744
903.521	0.06566467
903.693	0.06535616
903.864	0.06503258
904.036	0.0647201
904.208	0.06436807
904.379	0.06407008
904.551	0.06389771
904.723	0.06362595
904.894	0.06350081
905.066	0.06339499
905.237	0.06332844
905.409	0.06319555
905.58	0.06314368
905.752	0.06279412
905.923	0.06243307
906.095	0.06218144
906.266	0.06189099
906.438	0.06151046
906.609	0.06133818
906.78	0.06099533
906.952	0.06083861
907.123	0.06077188
907.295	0.06050315
907.466	0.060229
907.637	0.06012762
907.808	0.05992966
907.98	0.05977934
908.151	0.05958351
908.322	0.05943194
908.493	0.05931977
908.665	0.05928028
908.836	0.05914153
909.007	0.0589484
909.178	0.05865441
909.349	0.05837463
909.52	0.05805752
909.691	0.05766756
909.862	0.05742096
910.033	0.05703443
910.204	0.05671607
910.375	0.05649583
910.546	0.05643078
910.717	0.05625562
910.888	0.05635108
911.059	0.05612144
911.23	0.05601077
911.401	0.05587693
911.572	0.05561292
911.742	0.05535919
911.913	0.05512892
912.084	0.05469398
912.255	0.05440898
912.426	0.05401706
912.596	0.05361299
912.767	0.05341168
912.938	0.05309569
913.108	0.05305264
913.279	0.05296066
913.45	0.05277913
913.62	0.05272679
913.791	0.05280262
913.962	0.05264054
914.132	0.05256482
914.303	0.05214961
914.473	0.05196061
914.644	0.05174523
914.814	0.05155219
914.985	0.05123082
915.155	0.05100666
915.326	0.05060459
915.496	0.05044839
915.666	0.05025363
915.837	0.05013551
916.007	0.04983884
916.177	0.0497534
916.348	0.0496088
916.518	0.04960296
916.688	0.04948196
916.858	0.04930936
917.029	0.04908932
917.199	0.04898157
917.369	0.04864906
917.539	0.04838807
917.709	0.0481057
917.88	0.04775976
918.05	0.04751257
918.22	0.04731239
918.39	0.04695566
918.56	0.04678132
918.73	0.04665791
918.9	0.04658115
919.07	0.04662488
919.24	0.04651157
919.41	0.04642068
919.58	0.04656071
919.75	0.04653056
919.92	0.04644592
920.09	0.04636064
920.26	0.04612591
920.429	0.04591366
920.599	0.04578762
920.769	0.04535529
920.939	0.04505435
921.109	0.04479328
921.278	0.04446976
921.448	0.04418188
921.618	0.04386466
921.787	0.04349761
921.957	0.04345826
922.127	0.04334286
922.296	0.04318335
922.466	0.04314685
922.636	0.043015
922.805	0.04300945
922.975	0.04270718
923.144	0.04258931
923.314	0.04241221
923.483	0.04223629
923.653	0.04191656
923.822	0.04174372
923.992	0.04169273
924.161	0.0417011
924.331	0.04143971
924.5	0.04126522
924.669	0.04099815
924.839	0.04082477
925.008	0.04071972
925.177	0.04043663
925.347	0.04047215
925.516	0.040484
925.685	0.04052104
925.854	0.04063767
926.023	0.04068553
926.193	0.04058861
926.362	0.04063736
926.531	0.04045315
926.7	0.04023253
926.869	0.0398821
927.038	0.03966846
927.207	0.03946953
927.376	0.03923741
927.545	0.0388248
927.715	0.03856636
927.884	0.03845028
928.052	0.0385704
928.221	0.03827373
928.39	0.0381395
928.559	0.03802374
928.728	0.03796993
928.897	0.03804269
929.066	0.03785026
929.235	0.03768093
929.404	0.03788666
929.572	0.03778659
929.741	0.03776507
929.91	0.03768922
930.079	0.03744156
930.247	0.03746832
930.416	0.03711296
930.585	0.03676663
930.753	0.03652843
930.922	0.03620939
931.091	0.03596475
931.259	0.03555037
931.428	0.0352458
931.596	0.03512722
931.765	0.03512487
931.934	0.03505342
932.102	0.03502402
932.27	0.03484556
932.439	0.03504986
932.607	0.03480878
932.776	0.03481131
932.944	0.03438903
933.113	0.03429477
933.281	0.03416122
933.449	0.03418013
933.618	0.03399905
933.786	0.03410356
933.954	0.03388928
934.123	0.03398535
934.291	0.03373554
934.459	0.03357779
934.627	0.0334416
934.795	0.03331838
934.964	0.03314375
935.132	0.03316794
935.3	0.03316955
935.468	0.03329297
935.636	0.03338267
935.804	0.03339782
935.972	0.03338436
936.14	0.03345513
936.308	0.03339068
936.476	0.033132
936.644	0.03309079
936.812	0.03302668
936.98	0.03292305
937.148	0.03298404
937.316	0.03291946
937.484	0.03292971
937.652	0.03278045
937.82	0.03297728
937.987	0.03308287
938.155	0.03311458
938.323	0.03306458
938.491	0.03326527
938.658	0.03334378
938.826	0.03371136
938.994	0.03369551
939.162	0.03375901
939.329	0.03346497
939.497	0.03373521
939.665	0.03343069
939.832	0.0334556
940	0.03374157
940.167	0.03390648
940.335	0.033793
940.502	0.03405532
940.67	0.03388158
940.837	0.0343872
941.005	0.03459966
941.172	0.03375766
941.34	0.03352475
941.507	0.03375992
941.674	0.03347684
941.842	0.03333673
942.009	0.033759
942.177	0.03345959
942.344	0.03492324
942.511	0.03480386
942.678	0.03448448
942.846	0.03534589
943.013	0.03541792
943.18	0.03454421
943.347	0.03514989
943.514	0.0349307
943.682	0.03418339
943.849	0.03416474
944.016	0.0345062
944.183	0.03437088
944.35	0.03423358
944.517	0.03404672
944.684	0.03341778
944.851	0.0340293
945.018	0.03376825
945.185	0.03299189
945.352	0.03272892
945.519	0.03264268
945.686	0.03299076
945.853	0.03374532
946.02	0.03308247
946.187	0.03344291
946.353	0.03433393
946.52	0.03429033
946.687	0.03396042
946.854	0.03348017
947.021	0.03271988
947.187	0.03334695
947.354	0.03294195
947.521	0.03174189
947.687	0.03205115
947.854	0.03221417
948.021	0.03133594
948.187	0.03105601
948.354	0.03044101
948.52	0.03084033
948.687	0.03039257
948.854	0.0296363
949.02	0.02970449
949.187	0.02890774
949.353	0.02904635
949.52	0.02876331
949.686	0.0278815
949.852	0.02868384
950.019	0.02903534
950.185	0.02824282
950.352	0.0283739
950.518	0.02765916
950.684	0.0278178
950.851	0.02750276
951.017	0.02720154
951.183	0.0266817
951.349	0.02692331
951.516	0.02757876
951.682	0.02737946
951.848	0.02665451
952.014	0.02688419
952.18	0.02688276
952.346	0.02708591
952.512	0.02691064
952.679	0.02617666
952.845	0.02575595
953.011	0.02657477
953.177	0.02642272
953.343	0.02569894
953.509	0.0255225
953.675	0.02532465
953.841	0.02558759
954.007	0.02574804
954.172	0.0253061
954.338	0.0250717
954.504	0.02521267
954.67	0.02503253
954.836	0.0246661
955.002	0.02395009
955.167	0.02406435
955.333	0.02322443
955.499	0.02282346
955.665	0.02210812
955.83	0.02153735
955.996	0.02176832
956.162	0.022152
956.327	0.02206101
956.493	0.02250885
956.659	0.02273266
956.824	0.023051
956.99	0.02256312
957.155	0.02246082
957.321	0.02240536
957.486	0.02196321
957.652	0.02147599
957.817	0.0210832
957.983	0.02045753
958.148	0.02077489
958.314	0.02032519
958.479	0.01976559
958.644	0.01999258
958.81	0.01995638
958.975	0.01970021
959.14	0.01980508
959.306	0.01961638
959.471	0.01932353
959.636	0.01957492
959.801	0.01911038
959.967	0.0191368
960.132	0.01936324
960.297	0.01918428
960.462	0.01944014
960.627	0.0194072
960.792	0.01895435
960.957	0.0191287
961.123	0.0188996
961.288	0.01870586
961.453	0.01848207
961.618	0.01797569
961.783	0.01807991
961.948	0.01789475
962.113	0.01761748
962.277	0.01732302
962.442	0.01719951
962.607	0.01753942
962.772	0.0175622
962.937	0.01752211
963.102	0.01785567
963.267	0.0180157
963.431	0.01813679
963.596	0.01835817
963.761	0.01830716
963.926	0.01829306
964.09	0.01811533
964.255	0.01783731
964.42	0.01702749
964.584	0.01676948
964.749	0.01637455
964.914	0.01622221
965.078	0.01619738
965.243	0.0161012
965.407	0.01583222
965.572	0.01624882
965.736	0.01657046
965.901	0.01650929
966.065	0.01634197
966.23	0.01622214
966.394	0.01623865
966.559	0.01646071
966.723	0.01650254
966.887	0.01572211
967.052	0.01548416
967.216	0.01545152
967.38	0.01547767
967.545	0.01549955
967.709	0.01545921
967.873	0.0154927
968.037	0.01559485
968.202	0.01594886
968.366	0.01576839
968.53	0.01592595
968.694	0.01566481
968.858	0.01505376
969.022	0.01473092
969.187	0.01488333
969.351	0.01475402
969.515	0.01475828
969.679	0.0142591
969.843	0.01409774
970.007	0.014535
970.171	0.01479565
970.335	0.01458428
970.499	0.01436109
970.662	0.01454462
970.826	0.01435228
970.99	0.01455184
971.154	0.01434883
971.318	0.01437362
971.482	0.01469577
971.645	0.01462097
971.809	0.01468037
971.973	0.01488569
972.137	0.01451261
972.3	0.01494087
972.464	0.01473495
972.628	0.01472932
972.791	0.0150496
972.955	0.0149234
973.119	0.01442383
973.282	0.01433771
973.446	0.01385871
973.609	0.01375278
973.773	0.01376744
973.936	0.01323024
974.1	0.01306734
974.263	0.01340668
974.427	0.01353682
974.59	0.0138602
974.754	0.01377675
974.917	0.01312964
975.08	0.01339186
975.244	0.01312381
975.407	0.0129946
975.57	0.01294313
975.734	0.01253391
975.897	0.01280713
976.06	0.01338241
976.223	0.01360968
976.387	0.01409212
976.55	0.0140585
976.713	0.01413118
976.876	0.0141579
977.039	0.01386969
977.202	0.01381919
977.365	0.01352178
977.528	0.01284739
977.692	0.01307899
977.855	0.01310626
978.018	0.01316323
978.181	0.01299862
978.344	0.01264294
978.506	0.01236837
978.669	0.01276691
978.832	0.01233109
978.995	0.01197677
979.158	0.01194999
979.321	0.01191023
979.484	0.01205772
979.646	0.01230604
979.809	0.01182524
979.972	0.01190461
980.135	0.01230323
980.297	0.01212054
980.46	0.01200509
980.623	0.01161259
980.786	0.01191254
980.948	0.0120032
981.111	0.012441
981.273	0.01243191
981.436	0.01239743
981.599	0.01265
981.761	0.01307999
981.924	0.0123932
982.086	0.0128146
982.249	0.01257459
982.411	0.01219084
982.573	0.01208892
982.736	0.01195028
982.898	0.01176273
983.061	0.0123642
983.223	0.01202942
983.385	0.01197753
983.548	0.01239921
983.71	0.0122213
983.872	0.01169969
984.034	0.01171797
984.197	0.01092514
984.359	0.01088589
984.521	0.0108404
984.683	0.01064729
984.845	0.01095762
985.008	0.01124114
985.17	0.01147437
985.332	0.01198091
985.494	0.0118761
985.656	0.01218296
985.818	0.01245047
985.98	0.01245925
986.142	0.01299551
986.304	0.0127067
986.466	0.01246655
986.628	0.01249623
986.79	0.01266557
986.952	0.01246609
987.113	0.01204365
987.275	0.01197902
987.437	0.01214907
987.599	0.01202456
987.761	0.01200498
987.922	0.01150113
988.084	0.0118032
988.246	0.01188636
988.408	0.01120044
988.569	0.01086203
988.731	0.01143344
988.893	0.01103266
989.054	0.01105411
989.216	0.01082121
989.377	0.01109061
989.539	0.01181335
989.701	0.01204009
989.862	0.01166052
990.024	0.01169415
990.185	0.01117762
990.347	0.01121633
990.508	0.01076588
990.669	0.01030747
990.831	0.00962356
990.992	0.00929556
991.154	0.00957267
991.315	0.0103011
991.476	0.00986225
991.638	0.01015992
991.799	0.01026537
991.96	0.01142022
992.121	0.01130888
992.283	0.01125028
992.444	0.0111695
992.605	0.01080766
992.766	0.01100434
992.927	0.0107017
993.088	0.01038069
993.249	0.0100733
993.41	0.01106887
993.572	0.01086459
993.733	0.01108567
993.894	0.01123977
994.055	0.01049063
994.216	0.01041756
994.376	0.01055161
994.537	0.01001272
994.698	0.00996889
994.859	0.01035637
995.02	0.00940254
995.181	0.01062818
995.342	0.01026594
995.503	0.0107207
995.663	0.01072384
995.824	0.01110675
995.985	0.01070327
996.146	0.0103869
996.306	0.01022803
996.467	0.01009135
996.628	0.01006226
996.788	0.01001375
996.949	0.00937121
997.11	0.00985301
997.27	0.01034397
997.431	0.00998202
997.591	0.01004748
997.752	0.00903258
997.912	0.00863755
998.073	0.00802236
998.233	0.00831077
998.394	0.00897144
998.554	0.00942328
998.714	0.01036287
998.875	0.01080687
999.035	0.01091131
999.196	0.01202864
999.356	0.01108291
999.516	0.01072185
999.676	0.01088895
999.837	0.00978574
999.997	0.01083545
1000.157	0.01094356
1000.317	0.00992642
1000.477	0.0105248
1000.638	0.01042074
1000.798	0.00991468
1000.958	0.01031647
1001.118	0.01024347
1001.278	0.01001097
1001.438	0.01069293
1001.598	0.00991287
1001.758	0.0111201
1001.918	0.01138854
1002.078	0.0113412
1002.238	0.01003103
1002.398	0.01041029
1002.558	0.01111275
1002.718	0.01047851
1002.878	0.00923686
1003.037	0.0084828
1003.197	0.00912845
1003.357	0.01011728
1003.517	0.0103936
1003.677	0.00916458
1003.836	0.01000478
1003.996	0.00979998
1004.156	0.01114514
1004.315	0.0097169
1004.475	0.00987025
1004.635	0.00991578
1004.794	0.00996414
1004.954	0.01046512
1005.114	0.00967511
1005.273	0.00894239
1005.433	0.00977609
1005.592	0.00997032
1005.752	0.01004082
1005.911	0.01000959
1006.071	0.00966631
1006.23	0.01016652
1006.389	0.01026942
1006.549	0.01018322
1006.708	0.01011451
1006.868	0.00948244
1007.027	0.01057018
1007.186	0.01021395
1007.345	0.0107231
1007.505	0.01057659
1007.664	0.01080174
1007.823	0.01022262
1007.982	0.01033926
1008.142	0.00990659
1008.301	0.00945956
1008.46	0.00928547
1008.619	0.00866286
1008.778	0.00866665
1008.937	0.00927171
1009.096	0.00860468
1009.255	0.01002863
1009.414	0.01097048
1009.573	0.01164692
1009.732	0.0124041
1009.891	0.01209315
1010.05	0.01247434
1010.209	0.0135843
1010.368	0.01163466
1010.527	0.01138301
1010.686	0.01180217
1010.845	0.01186824
1011.003	0.01263578
1011.162	0.01181121
1011.321	0.01132193
1011.48	0.01216276
1011.638	0.01280135
1011.797	0.01283526
1011.956	0.01266731
1012.115	0.01181913
1012.273	0.01230518
1012.432	0.01366609
1012.59	0.01422378
1012.749	0.01483757
1012.908	0.01444447
1013.066	0.01512458
1013.225	0.01542349
1013.383	0.01681296
1013.542	0.01477274
1013.7	0.01523783
1013.859	0.01581123
1014.017	0.01656328
1014.175	0.01697034
1014.334	0.01820287
1014.492	0.01667176
1014.65	0.01823927
1014.809	0.01712722
1014.967	0.01565001
1015.125	0.01483239
1015.284	0.01330794
1015.442	0.01265795
1015.6	0.01412794
1015.758	0.01431592
1015.916	0.01441805
1016.075	0.01639369
1016.233	0.01670039
1016.391	0.01774747
1016.549	0.01825059
1016.707	0.0176965
1016.865	0.01561086
1017.023	0.01646301
1017.181	0.01658082
1017.339	0.01613144
1017.497	0.01469104
1017.655	0.01429876
1017.813	0.01327259
1017.971	0.01336188
1018.129	0.01278143
1018.286	0.01007015
1018.444	0.01086483
1018.602	0.01337514
1018.76	0.01211949
1018.918	0.01231848
1019.075	0.0143121
1019.233	0.01330303
1019.391	0.01557336
1019.549	0.01683047
1019.706	0.01927322
1019.864	0.02261888
1020.022	0.02465716
1020.179	0.02488968
1020.337	0.02684713
1020.494	0.02414472
1020.652	0.02405118
1020.809	0.02360466
1020.967	0.02194293
1021.124	0.02055919
1021.282	0.01916142
1021.439	0.01973263
1021.597	0.02141736
1021.754	0.02120448
1021.911	0.01545081
1022.069	0.01456378
1022.226	0.01542886
1022.384	0.01961196
1022.541	0.01812599
1022.698	0.01947427
1022.855	0.02061733
1023.013	0.02508005
1023.17	0.02751893
1023.327	0.025937
1023.484	0.0232191
1023.641	0.02590428
1023.798	0.02629692
1023.956	0.02239886
1024.113	0.02172003
1024.27	0.02078707
1024.427	0.02242669
1024.584	0.02337031
1024.741	0.02110852
1024.898	0.01915201
1025.055	0.02250919
1025.212	0.01816292
1025.369	0.01667496
1025.525	0.01997315
1025.682	0.0189591
1025.839	0.0220769
1025.996	0.02058565
1026.153	0.02386227
1026.31	0.02312765
1026.466	0.02730847
1026.623	0.02524046
1026.78	0.02798019
1026.937	0.02728741
1027.093	0.03175165
1027.25	0.03159759
1027.407	0.03574599
1027.563	0.031651
1027.72	0.02808471
1027.876	0.030354
1028.033	0.03016595
1028.19	0.02738727
1028.346	0.0242621
1028.503	0.02699333
1028.659	0.03022813
1028.816	0.03057409
1028.972	0.02608321
1029.128	0.02476249
1029.285	0.02928199
1029.441	0.0257117
1029.598	0.02667668
1029.754	0.02789384
1029.91	0.03488717
1030.067	0.03821561
1030.223	0.03414785
1030.379	0.03559933
1030.535	0.0395172
1030.691	0.03617301
1030.848	0.03808273
1031.004	0.03471911
1031.16	0.03208016
1031.316	0.04090186
1031.472	0.03970689
1031.628	0.04027729
1031.784	0.05195947
1031.94	0.04857649
1032.096	0.05032448
1032.252	0.05318537
1032.408	0.05736435
1032.564	0.05846542
1032.72	0.06277563
1032.876	0.05591332
1033.032	0.0578093
1033.188	0.05877551
1033.344	0.05876412
1033.5	0.0526637
1033.655	0.05240931
1033.811	0.05196825
1033.967	0.05266901
