Data from 0_1_mm_pl_40pc_Absorbance__0__18-09-47-452.txt Node

Date: Wed Mar 01 18:09:47 CET 2023
User: Ange
Spectrometer: FLMT08341
Trigger mode: 0
Integration Time (sec): 1.000000E-2
Scans to average: 400
Electric dark correction enabled: true
Nonlinearity correction enabled: false
Boxcar width: 3
XAxis mode: Wavelengths
Number of Pixels in Spectrum: 3648
>>>>>Begin Spectral Data<<<<<
345.271	0.05587622
345.487	0.03766912
345.704	0.0502905
345.921	0.0490524
346.137	0.03164955
346.354	0.02952232
346.571	0.01289703
346.787	-0.08097933
347.004	-0.0404087
347.22	0.05125477
347.437	0.02370035
347.653	-0.1720592
347.87	-0.18587275
348.086	-0
348.303	-0.02841261
348.519	0.03862635
348.736	0.04799214
348.952	0.04556682
349.169	0.04908941
349.385	0.05539224
349.601	0.05191474
349.818	0.05228646
350.034	0.05290745
350.251	0.05151315
350.467	0.05224521
350.683	0.05087238
350.9	0.04940949
351.116	0.04959206
351.332	0.05169973
351.549	0.05212345
351.765	0.05425074
351.981	0.05562074
352.197	0.05828265
352.414	0.06019339
352.63	0.06382559
352.846	0.06377892
353.062	0.06325281
353.278	0.06355476
353.495	0.064039
353.711	0.06385752
353.927	0.06421403
354.143	0.06193749
354.359	0.06018758
354.575	0.06083213
354.792	0.0605702
355.008	0.05926368
355.224	0.05922025
355.44	0.05893886
355.656	0.06083496
355.872	0.0617701
356.088	0.06340174
356.304	0.0647815
356.52	0.06790682
356.736	0.06835182
356.952	0.06890819
357.168	0.06928252
357.384	0.06957368
357.6	0.06831435
357.816	0.06724512
358.032	0.06641506
358.248	0.06762696
358.464	0.06752823
358.679	0.06696857
358.895	0.06746103
359.111	0.06701171
359.327	0.06687124
359.543	0.06635832
359.759	0.06545619
359.974	0.06535284
360.19	0.06592777
360.406	0.06500919
360.622	0.06563131
360.838	0.06527701
361.053	0.06569778
361.269	0.06625558
361.485	0.0677834
361.701	0.06849052
361.916	0.068525
362.132	0.06794736
362.348	0.06889653
362.563	0.06948032
362.779	0.06852135
362.995	0.06731987
363.21	0.06717285
363.426	0.06823443
363.641	0.07016389
363.857	0.07063238
364.073	0.07103517
364.288	0.0711213
364.504	0.07222067
364.719	0.0727949
364.935	0.07313329
365.15	0.07332657
365.366	0.0738378
365.581	0.07330497
365.797	0.07423184
366.012	0.07411058
366.228	0.07260461
366.443	0.07362299
366.658	0.07328414
366.874	0.07325408
367.089	0.07482785
367.305	0.07482887
367.52	0.07519779
367.735	0.07676801
367.951	0.0759022
368.166	0.07573931
368.381	0.07695291
368.597	0.07514065
368.812	0.07473421
369.027	0.07523417
369.243	0.07454303
369.458	0.07519859
369.673	0.07581511
369.888	0.07518047
370.104	0.07601432
370.319	0.07660066
370.534	0.07731284
370.749	0.07825232
370.964	0.07830412
371.179	0.07889277
371.395	0.0794441
371.61	0.07988621
371.825	0.08051603
372.04	0.08038467
372.255	0.08020501
372.47	0.08056754
372.685	0.07992385
372.9	0.08012969
373.115	0.0812846
373.33	0.08173587
373.545	0.08155865
373.76	0.08205575
373.975	0.08127538
374.19	0.08174367
374.405	0.08249553
374.62	0.08264616
374.835	0.08265708
375.05	0.08339671
375.265	0.0828699
375.48	0.08462568
375.695	0.08577927
375.91	0.08486338
376.125	0.08463341
376.339	0.08330054
376.554	0.08288245
376.769	0.08297865
376.984	0.08228822
377.199	0.08236418
377.414	0.08169501
377.628	0.08099295
377.843	0.08351522
378.058	0.08483487
378.273	0.08575999
378.487	0.0862723
378.702	0.08569973
378.917	0.08678997
379.131	0.08752726
379.346	0.08610527
379.561	0.08462914
379.775	0.08459618
379.99	0.08447086
380.205	0.08438102
380.419	0.0841146
380.634	0.08395155
380.848	0.0854832
381.063	0.08625634
381.278	0.08727988
381.492	0.0869074
381.707	0.08805746
381.921	0.08812828
382.136	0.08869072
382.35	0.08853463
382.565	0.08819876
382.779	0.08821027
382.994	0.08897099
383.208	0.08921136
383.422	0.0907432
383.637	0.09088458
383.851	0.0914354
384.066	0.09292444
384.28	0.09281883
384.494	0.09294402
384.709	0.09329825
384.923	0.09293329
385.137	0.09282508
385.352	0.09259855
385.566	0.09232933
385.78	0.0928341
385.995	0.09246563
386.209	0.09169377
386.423	0.09189327
386.637	0.09245331
386.852	0.09182846
387.066	0.09164936
387.28	0.09151937
387.494	0.09200995
387.708	0.09261941
387.923	0.09293072
388.137	0.09375753
388.351	0.09447452
388.565	0.09506593
388.779	0.09569428
388.993	0.09681841
389.207	0.09720666
389.421	0.09719517
389.635	0.09647481
389.85	0.09697753
390.064	0.09705405
390.278	0.09726551
390.492	0.09785126
390.706	0.09799976
390.92	0.09811213
391.134	0.09883586
391.348	0.09958831
391.561	0.10019112
391.775	0.0995374
391.989	0.09890786
392.203	0.09947762
392.417	0.10011043
392.631	0.10085836
392.845	0.10050994
393.059	0.10018816
393.273	0.10056306
393.486	0.10033533
393.7	0.09995876
393.914	0.10015383
394.128	0.09970066
394.342	0.09942957
394.555	0.0996993
394.769	0.10041375
394.983	0.10054585
395.197	0.10109225
395.41	0.10055884
395.624	0.10096248
395.838	0.10126533
396.051	0.10169705
396.265	0.10136449
396.479	0.10166026
396.692	0.1018037
396.906	0.10251464
397.12	0.1024794
397.333	0.10296413
397.547	0.10293692
397.76	0.1029097
397.974	0.10333928
398.187	0.10364208
398.401	0.10384931
398.614	0.10391073
398.828	0.10353746
399.041	0.1035976
399.255	0.10426466
399.468	0.10401739
399.682	0.10441056
399.895	0.10448597
400.109	0.10413813
400.322	0.10448429
400.536	0.10453295
400.749	0.10424721
400.962	0.10439514
401.176	0.10369339
401.389	0.10327831
401.602	0.10341336
401.816	0.10382337
402.029	0.10380492
402.242	0.10435878
402.456	0.10449218
402.669	0.1045858
402.882	0.10458286
403.095	0.10502169
403.309	0.10483946
403.522	0.10475908
403.735	0.10432711
403.948	0.10462775
404.161	0.10509822
404.375	0.10553058
404.588	0.10551781
404.801	0.10548243
405.014	0.10560454
405.227	0.10621491
405.44	0.10629749
405.653	0.10625584
405.866	0.1059837
406.079	0.10613664
406.293	0.10626029
406.506	0.10642373
406.719	0.10597312
406.932	0.10566515
407.145	0.10541792
407.358	0.10586648
407.571	0.10558112
407.784	0.10554828
407.996	0.10573418
408.209	0.10542369
408.422	0.10527708
408.635	0.10546757
408.848	0.105133
409.061	0.10466707
409.274	0.10454814
409.487	0.10424712
409.7	0.10469978
409.912	0.10509959
410.125	0.10504184
410.338	0.10525703
410.551	0.10552599
410.764	0.10539948
410.976	0.10533793
411.189	0.10469056
411.402	0.10425717
411.615	0.10409489
411.827	0.10384043
412.04	0.10376688
412.253	0.1037399
412.465	0.10363678
412.678	0.10396308
412.891	0.10404226
413.103	0.10352225
413.316	0.1032786
413.529	0.10321616
413.741	0.10356566
413.954	0.10352167
414.166	0.10328785
414.379	0.10309296
414.591	0.10314252
414.804	0.10298813
415.016	0.10297549
415.229	0.10209118
415.441	0.10165853
415.654	0.10157848
415.866	0.10135654
416.079	0.10147902
416.291	0.10138554
416.504	0.10105826
416.716	0.10114128
416.928	0.10098101
417.141	0.10080142
417.353	0.10039171
417.566	0.09984621
417.778	0.09947311
417.99	0.09918559
418.203	0.09907819
418.415	0.09911928
418.627	0.09886479
418.839	0.0990344
419.052	0.09931347
419.264	0.09926233
419.476	0.09939233
419.688	0.0989826
419.901	0.09865758
420.113	0.09856475
420.325	0.09835245
420.537	0.09778914
420.749	0.09769442
420.961	0.09742026
421.174	0.09737249
421.386	0.09724032
421.598	0.09664332
421.81	0.09635035
422.022	0.09608155
422.234	0.09588147
422.446	0.09543912
422.658	0.09488509
422.87	0.09442633
423.082	0.09431615
423.294	0.0937542
423.506	0.09354847
423.718	0.09308655
423.93	0.09277406
424.142	0.09268819
424.354	0.09233369
424.566	0.09206145
424.778	0.09192233
424.99	0.09157918
425.202	0.09122044
425.414	0.09100537
425.625	0.09067214
425.837	0.09059581
426.049	0.09050954
426.261	0.09026758
426.473	0.0898409
426.684	0.08970931
426.896	0.0893164
427.108	0.08894658
427.32	0.08869113
427.531	0.08813554
427.743	0.08787223
427.955	0.08788044
428.167	0.08756481
428.378	0.08744229
428.59	0.08705829
428.802	0.08661003
429.013	0.08624131
429.225	0.08566365
429.436	0.08522681
429.648	0.08481549
429.86	0.08444274
430.071	0.08423284
430.283	0.08381735
430.494	0.08341975
430.706	0.08318278
430.917	0.08283049
431.129	0.08252379
431.34	0.08207512
431.552	0.08187302
431.763	0.0814702
431.975	0.08132181
432.186	0.08109661
432.398	0.08060492
432.609	0.08013083
432.821	0.07992062
433.032	0.07939814
433.243	0.07920874
433.455	0.0788408
433.666	0.07836673
433.877	0.07815404
434.089	0.07785043
434.3	0.0775229
434.511	0.07729264
434.723	0.07691692
434.934	0.07661605
435.145	0.07644398
435.356	0.07607434
435.568	0.07575776
435.779	0.07540369
435.99	0.07495122
436.201	0.07457478
436.412	0.07402497
436.624	0.07358421
436.835	0.07328512
437.046	0.0729976
437.257	0.07243696
437.468	0.07217319
437.679	0.07189333
437.89	0.0717105
438.101	0.07140095
438.312	0.07089457
438.523	0.07031102
438.734	0.0702121
438.945	0.06979882
439.156	0.06920773
439.367	0.06876552
439.578	0.0682884
439.789	0.06792798
440	0.06769003
440.211	0.06706027
440.422	0.0665477
440.633	0.06625866
440.844	0.06577839
441.055	0.06533346
441.266	0.0649829
441.477	0.06447125
441.687	0.06401775
441.898	0.06351373
442.109	0.06298662
442.32	0.06258716
442.531	0.06206995
442.741	0.06148519
442.952	0.06110459
443.163	0.0608168
443.374	0.0604908
443.584	0.06012739
443.795	0.05967846
444.006	0.05936171
444.216	0.05902597
444.427	0.05853644
444.638	0.05812715
444.848	0.05778602
445.059	0.05741411
445.27	0.05707891
445.48	0.05669927
445.691	0.05630973
445.901	0.05601445
446.112	0.05543977
446.323	0.05505809
446.533	0.05470199
446.744	0.05427469
446.954	0.05380267
447.165	0.05339234
447.375	0.05301819
447.586	0.05280348
447.796	0.0522216
448.006	0.05196048
448.217	0.05163451
448.427	0.05132925
448.638	0.05095531
448.848	0.05034289
449.058	0.05008627
449.269	0.0498424
449.479	0.04944691
449.689	0.0490184
449.9	0.04868022
450.11	0.04831084
450.32	0.04814264
450.531	0.04762941
450.741	0.04731756
450.951	0.04685835
451.161	0.04656552
451.372	0.0460468
451.582	0.04578545
451.792	0.0454754
452.002	0.04520027
452.212	0.04474332
452.422	0.04428887
452.633	0.04387944
452.843	0.04362111
453.053	0.04323458
453.263	0.04284504
453.473	0.0424088
453.683	0.04219389
453.893	0.0418641
454.103	0.04152881
454.313	0.04127098
454.523	0.04095225
454.733	0.04063623
454.943	0.04025654
455.153	0.03998251
455.363	0.03979094
455.573	0.03944878
455.783	0.03910871
455.993	0.03879218
456.203	0.03838239
456.413	0.03808496
456.623	0.03779244
456.833	0.03753489
457.042	0.03736275
457.252	0.03701869
457.462	0.03664356
457.672	0.0364098
457.882	0.03622845
458.091	0.03588436
458.301	0.03551707
458.511	0.03505357
458.721	0.03483874
458.931	0.03456248
459.14	0.03434866
459.35	0.03409115
459.56	0.03373474
459.769	0.03345632
459.979	0.03325837
460.189	0.03294625
460.398	0.03275032
460.608	0.03251456
460.817	0.03218361
461.027	0.03197722
461.237	0.03167416
461.446	0.03136477
461.656	0.03119156
461.865	0.03088718
462.075	0.03056948
462.284	0.03037668
462.494	0.03019769
462.703	0.02987657
462.913	0.02967183
463.122	0.02933686
463.332	0.02911322
463.541	0.02898105
463.751	0.02875126
463.96	0.02849676
464.169	0.02834505
464.379	0.0281603
464.588	0.02804254
464.797	0.02789201
465.007	0.0275388
465.216	0.02733373
465.425	0.02709319
465.635	0.02685482
465.844	0.02672843
466.053	0.0263539
466.263	0.02605324
466.472	0.02605035
466.681	0.02580162
466.89	0.02557558
467.099	0.02564517
467.309	0.02532986
467.518	0.0253645
467.727	0.0251725
467.936	0.02474811
468.145	0.02460848
468.354	0.02451469
468.563	0.02415776
468.772	0.02408495
468.982	0.02390576
469.191	0.02376675
469.4	0.02369844
469.609	0.02355417
469.818	0.02339973
470.027	0.0232736
470.236	0.02302094
470.445	0.02280292
470.654	0.02262793
470.863	0.02250176
471.072	0.02236045
471.28	0.02218263
471.489	0.02193276
471.698	0.02180531
471.907	0.02165772
472.116	0.02154945
472.325	0.02136054
472.534	0.02116088
472.743	0.02104721
472.951	0.02092217
473.16	0.02079733
473.369	0.0206999
473.578	0.02064296
473.786	0.02052961
473.995	0.02037453
474.204	0.02027642
474.413	0.02025333
474.621	0.02010735
474.83	0.01997123
475.039	0.0197689
475.247	0.01968283
475.456	0.0196236
475.665	0.01949342
475.873	0.01930718
476.082	0.01926138
476.291	0.01916011
476.499	0.0190521
476.708	0.01893945
476.916	0.01888182
477.125	0.01873168
477.333	0.01867678
477.542	0.01854601
477.75	0.0184115
477.959	0.01833417
478.167	0.01822922
478.376	0.01810027
478.584	0.01812237
478.793	0.01811681
479.001	0.01804748
479.209	0.01792437
479.418	0.01788691
479.626	0.01773227
479.834	0.01764952
480.043	0.01746854
480.251	0.01726497
480.459	0.01717436
480.668	0.01723235
480.876	0.01715785
481.084	0.01722529
481.293	0.01716343
481.501	0.01713746
481.709	0.01714734
481.917	0.01710109
482.125	0.017035
482.334	0.0169715
482.542	0.01687066
482.75	0.01684921
482.958	0.0167852
483.166	0.01668629
483.374	0.01661657
483.583	0.01656016
483.791	0.01652834
483.999	0.01659541
484.207	0.0165779
484.415	0.01648842
484.623	0.01658791
484.831	0.01658452
485.039	0.01656066
485.247	0.01659625
485.455	0.01645985
485.663	0.01637984
485.871	0.01637118
486.079	0.01624056
486.287	0.01615897
486.495	0.01611005
486.702	0.01605927
486.91	0.01610824
487.118	0.01614222
487.326	0.01617713
487.534	0.01614112
487.742	0.01620956
487.95	0.01618111
488.157	0.01615925
488.365	0.01612267
488.573	0.01609247
488.781	0.01612268
488.988	0.01614289
489.196	0.01610535
489.404	0.01610106
489.612	0.01606913
489.819	0.01611298
490.027	0.01612078
490.235	0.01615032
490.442	0.01618214
490.65	0.01621766
490.857	0.01622949
491.065	0.01625991
491.273	0.01624592
491.48	0.01626649
491.688	0.01615443
491.895	0.0161467
492.103	0.01617945
492.31	0.01622301
492.518	0.01627964
492.725	0.0162746
492.933	0.01623599
493.14	0.01630987
493.348	0.01627707
493.555	0.01631488
493.763	0.01625625
493.97	0.01628753
494.177	0.01633037
494.385	0.01634605
494.592	0.01634451
494.8	0.01640833
495.007	0.01638469
495.214	0.01650414
495.422	0.01648379
495.629	0.0165237
495.836	0.01655623
496.043	0.01659637
496.251	0.01669686
496.458	0.01670194
496.665	0.01674756
496.872	0.01678409
497.08	0.01677779
497.287	0.0168347
497.494	0.01694108
497.701	0.01692043
497.908	0.01696023
498.115	0.017
498.322	0.01704058
498.53	0.0170584
498.737	0.01717385
498.944	0.01715713
499.151	0.0171677
499.358	0.01722895
499.565	0.01727075
499.772	0.01736512
499.979	0.01746161
500.186	0.01749154
500.393	0.01753102
500.6	0.01766149
500.807	0.01777849
501.014	0.01782191
501.221	0.01786793
501.427	0.01796318
501.634	0.01802973
501.841	0.01811945
502.048	0.01812535
502.255	0.01816171
502.462	0.01825108
502.669	0.01827404
502.875	0.01834694
503.082	0.01833976
503.289	0.01843537
503.496	0.01852177
503.702	0.01858687
503.909	0.01857117
504.116	0.01864283
504.323	0.01863498
504.529	0.01874153
504.736	0.01880074
504.943	0.01882768
505.149	0.01886485
505.356	0.01895536
505.563	0.01907467
505.769	0.01916896
505.976	0.01920103
506.182	0.0192829
506.389	0.01936195
506.595	0.01947071
506.802	0.01961086
507.008	0.01966007
507.215	0.01980609
507.421	0.01996312
507.628	0.02004679
507.834	0.02019489
508.041	0.02025132
508.247	0.02028361
508.454	0.0203714
508.66	0.0203652
508.866	0.02041566
509.073	0.02053861
509.279	0.02062665
509.486	0.02071776
509.692	0.02082476
509.898	0.0209297
510.105	0.02107185
510.311	0.02113581
510.517	0.02114726
510.723	0.02120662
510.93	0.02127633
511.136	0.02138885
511.342	0.02147747
511.548	0.02156666
511.754	0.02167698
511.961	0.0218291
512.167	0.02193873
512.373	0.02206753
512.579	0.02214424
512.785	0.02227308
512.991	0.02235825
513.197	0.02248337
513.404	0.02257629
513.61	0.02268084
513.816	0.02274563
514.022	0.02287605
514.228	0.02292392
514.434	0.02302991
514.64	0.02313105
514.846	0.02317527
515.052	0.02330339
515.258	0.02339854
515.464	0.02346516
515.669	0.02356718
515.875	0.02364448
516.081	0.02373037
516.287	0.02390829
516.493	0.02403305
516.699	0.02414639
516.905	0.02422124
517.111	0.0243246
517.316	0.02446377
517.522	0.02462073
517.728	0.02472575
517.934	0.02481568
518.139	0.02497552
518.345	0.02513052
518.551	0.02527944
518.757	0.02536056
518.962	0.02540838
519.168	0.02548791
519.374	0.02561065
519.579	0.02572178
519.785	0.02588659
519.991	0.02602896
520.196	0.02619052
520.402	0.02636949
520.607	0.02649486
520.813	0.02659467
521.018	0.02671142
521.224	0.0268222
521.429	0.02693984
521.635	0.02708659
521.84	0.02721478
522.046	0.0273735
522.251	0.02749776
522.457	0.02765511
522.662	0.02776066
522.868	0.02792867
523.073	0.02802368
523.279	0.02813277
523.484	0.02825391
523.689	0.02839806
523.895	0.0285699
524.1	0.02871936
524.305	0.02884473
524.511	0.02899998
524.716	0.02918197
524.921	0.02933728
525.126	0.02953111
525.332	0.02964251
525.537	0.02983811
525.742	0.02996437
525.947	0.03014399
526.153	0.03031132
526.358	0.03046796
526.563	0.03055628
526.768	0.03069681
526.973	0.03080293
527.178	0.03093381
527.383	0.03111057
527.588	0.03123565
527.794	0.03140808
527.999	0.03157796
528.204	0.03173367
528.409	0.03185896
528.614	0.03207001
528.819	0.03219409
529.024	0.03236096
529.229	0.03248278
529.434	0.0326519
529.639	0.03280485
529.843	0.03296514
530.048	0.03309405
530.253	0.03321327
530.458	0.03337318
530.663	0.03349942
530.868	0.03366855
531.073	0.03386642
531.278	0.03409903
531.482	0.03427137
531.687	0.03444266
531.892	0.0346228
532.097	0.03481593
532.302	0.03496999
532.506	0.035183
532.711	0.03531232
532.916	0.03543149
533.12	0.03559643
533.325	0.03574526
533.53	0.03590783
533.734	0.03610133
533.939	0.03618986
534.144	0.03635977
534.348	0.03653494
534.553	0.03673189
534.757	0.03688713
534.962	0.03706014
535.167	0.03720911
535.371	0.0374571
535.576	0.0376009
535.78	0.0378082
535.985	0.03798967
536.189	0.03819676
536.394	0.03837344
536.598	0.03857417
536.803	0.03870165
537.007	0.0389377
537.211	0.03916128
537.416	0.03932893
537.62	0.03952585
537.825	0.03972913
538.029	0.03996694
538.233	0.04011366
538.438	0.04025534
538.642	0.0403955
538.846	0.04056055
539.05	0.04070685
539.255	0.04087103
539.459	0.04101593
539.663	0.04126491
539.867	0.04146583
540.072	0.04169279
540.276	0.04195249
540.48	0.04212285
540.684	0.04232287
540.888	0.0425256
541.092	0.04270422
541.297	0.04293706
541.501	0.04312696
541.705	0.04334333
541.909	0.04360315
542.113	0.04381667
542.317	0.04401018
542.521	0.04422851
542.725	0.04440131
542.929	0.0445954
543.133	0.04478334
543.337	0.0449503
543.541	0.04516047
543.745	0.04538008
543.949	0.04559158
544.153	0.04579862
544.357	0.04599639
544.56	0.04615783
544.764	0.04637844
544.968	0.04654667
545.172	0.04674412
545.376	0.04692709
545.58	0.04711147
545.783	0.04734937
545.987	0.04756624
546.191	0.04776127
546.395	0.04802377
546.598	0.04820674
546.802	0.04844792
547.006	0.04866148
547.21	0.04882487
547.413	0.04904267
547.617	0.04926535
547.821	0.04945074
548.024	0.04965708
548.228	0.04983137
548.431	0.0501014
548.635	0.05031707
548.839	0.05050882
549.042	0.05072151
549.246	0.05093546
549.449	0.051115
549.653	0.05132136
549.856	0.05155495
550.06	0.0517261
550.263	0.05199934
550.467	0.05220712
550.67	0.05246672
550.874	0.05270229
551.077	0.05296068
551.28	0.05315045
551.484	0.05339867
551.687	0.05357406
551.891	0.0538327
552.094	0.05401228
552.297	0.05429413
552.501	0.05448954
552.704	0.05467288
552.907	0.05494008
553.11	0.05515294
553.314	0.05535367
553.517	0.05559161
553.72	0.05579319
553.923	0.05605297
554.127	0.05631312
554.33	0.05651087
554.533	0.05676561
554.736	0.05701644
554.939	0.05724273
555.142	0.05745203
555.345	0.05763875
555.549	0.057877
555.752	0.05810809
555.955	0.05832535
556.158	0.05856426
556.361	0.05879447
556.564	0.0590197
556.767	0.05927186
556.97	0.05951543
557.173	0.05974502
557.376	0.05997648
557.579	0.06015664
557.782	0.06038194
557.984	0.0606924
558.187	0.06095809
558.39	0.06119266
558.593	0.06147135
558.796	0.06170597
558.999	0.06193937
559.202	0.06223159
559.404	0.06244175
559.607	0.06261264
559.81	0.06286074
560.013	0.06309592
560.216	0.06339236
560.418	0.06365597
560.621	0.0638515
560.824	0.06405108
561.026	0.06438134
561.229	0.06459617
561.432	0.06483458
561.634	0.06503103
561.837	0.06526226
562.04	0.06550109
562.242	0.06575057
562.445	0.06594903
562.647	0.0662124
562.85	0.06644244
563.053	0.06669267
563.255	0.06697166
563.458	0.0672389
563.66	0.06749027
563.863	0.06774467
564.065	0.06798773
564.268	0.06827643
564.47	0.06856496
564.672	0.06877112
564.875	0.06901376
565.077	0.06926572
565.28	0.06948056
565.482	0.06971921
565.684	0.06990917
565.887	0.07008085
566.089	0.07031813
566.291	0.07053668
566.494	0.0707849
566.696	0.07105556
566.898	0.07130984
567.1	0.07154956
567.303	0.07181394
567.505	0.07209788
567.707	0.07235671
567.909	0.07264715
568.111	0.072922
568.314	0.07315662
568.516	0.07340884
568.718	0.07369097
568.92	0.07395137
569.122	0.07419754
569.324	0.07440444
569.526	0.07460469
569.728	0.07487397
569.93	0.07510644
570.132	0.07535161
570.334	0.07557618
570.536	0.07583489
570.738	0.07612453
570.94	0.07638015
571.142	0.07663795
571.344	0.07689817
571.546	0.07712208
571.748	0.07739091
571.95	0.07761648
572.152	0.07781676
572.354	0.07809294
572.555	0.07833032
572.757	0.07861434
572.959	0.07887569
573.161	0.07909631
573.363	0.07932415
573.564	0.07962171
573.766	0.07980894
573.968	0.0800445
574.17	0.08025683
574.371	0.08046609
574.573	0.08072116
574.775	0.08097414
574.976	0.08120834
575.178	0.0814794
575.38	0.08170633
575.581	0.08194002
575.783	0.08217891
575.985	0.08242513
576.186	0.08272163
576.388	0.08293455
576.589	0.08319502
576.791	0.08346421
576.992	0.08373713
577.194	0.08402801
577.395	0.08424601
577.597	0.08447454
577.798	0.08475231
578	0.08494384
578.201	0.08520707
578.402	0.08544713
578.604	0.08568461
578.805	0.0859568
579.007	0.08618104
579.208	0.08638826
579.409	0.08663721
579.611	0.08680695
579.812	0.08701197
580.013	0.08728383
580.215	0.08748621
580.416	0.0877392
580.617	0.0879832
580.818	0.0882676
581.019	0.08853876
581.221	0.08878891
581.422	0.08900753
581.623	0.0892592
581.824	0.08948055
582.025	0.08972575
582.226	0.08993102
582.428	0.09020946
582.629	0.09041365
582.83	0.09063853
583.031	0.0908777
583.232	0.09111105
583.433	0.09136792
583.634	0.09160864
583.835	0.09180472
584.036	0.09205154
584.237	0.0922277
584.438	0.09248671
584.639	0.09268003
584.84	0.09290665
585.041	0.09313726
585.242	0.09341143
585.442	0.09369092
585.643	0.09400611
585.844	0.09424255
586.045	0.09451599
586.246	0.09466641
586.447	0.09486795
586.647	0.09504003
586.848	0.0952203
587.049	0.09546027
587.25	0.0956652
587.45	0.09589463
587.651	0.09614786
587.852	0.09636635
588.053	0.09661441
588.253	0.09681
588.454	0.09698185
588.655	0.09715989
588.855	0.09740449
589.056	0.09764263
589.256	0.09791482
589.457	0.09813215
589.658	0.09843181
589.858	0.09864033
590.059	0.09890903
590.259	0.09909478
590.46	0.09931531
590.66	0.09949812
590.861	0.09970149
591.061	0.09990617
591.262	0.10013859
591.462	0.10035903
591.662	0.10056376
591.863	0.10074287
592.063	0.1009351
592.264	0.10113589
592.464	0.10130569
592.664	0.10150891
592.865	0.10175119
593.065	0.10193195
593.265	0.10216993
593.465	0.10242307
593.666	0.10262506
593.866	0.10280059
594.066	0.10299233
594.266	0.10312629
594.467	0.10330949
594.667	0.10345613
594.867	0.10363002
595.067	0.10381565
595.267	0.10405981
595.467	0.10423397
595.668	0.10444229
595.868	0.10468993
596.068	0.10490437
596.268	0.10506627
596.468	0.10529007
596.668	0.10544984
596.868	0.10568108
597.068	0.10584889
597.268	0.10602538
597.468	0.1062105
597.668	0.10644465
597.868	0.10661247
598.068	0.10683405
598.268	0.10699367
598.467	0.10724948
598.667	0.10737466
598.867	0.1075688
599.067	0.10770853
599.267	0.10789722
599.467	0.10806331
599.667	0.1082233
599.866	0.10832637
600.066	0.10851573
600.266	0.10863748
600.466	0.10879988
600.665	0.10896699
600.865	0.10912034
601.065	0.10930426
601.264	0.10949187
601.464	0.10964489
601.664	0.10988314
601.863	0.11005577
602.063	0.11018032
602.263	0.11028672
602.462	0.11041014
602.662	0.11049983
602.861	0.11071522
603.061	0.11080899
603.26	0.11094729
603.46	0.11110616
603.659	0.1112728
603.859	0.11139835
604.058	0.1115655
604.258	0.11170969
604.457	0.11193829
604.657	0.11209079
604.856	0.11216742
605.056	0.11233999
605.255	0.11249512
605.454	0.1127071
605.654	0.11277817
605.853	0.1128297
606.052	0.11293196
606.252	0.11310507
606.451	0.11329631
606.65	0.11348242
606.849	0.11351878
607.049	0.11368842
607.248	0.11386234
607.447	0.11403687
607.646	0.11418435
607.845	0.11424447
608.045	0.11428396
608.244	0.1144802
608.443	0.11460162
608.642	0.11477822
608.841	0.11481323
609.04	0.11491819
609.239	0.11505805
609.438	0.11515417
609.637	0.11526106
609.836	0.1153576
610.035	0.1153371
610.234	0.11556052
610.433	0.1157116
610.632	0.11581828
610.831	0.11603658
611.03	0.11610881
611.229	0.11630461
611.428	0.1164838
611.627	0.11659107
611.826	0.11676258
612.025	0.11697856
612.224	0.11707853
612.422	0.11724014
612.621	0.11733758
612.82	0.11748964
613.019	0.11763604
613.218	0.11770265
613.416	0.11771948
613.615	0.11784755
613.814	0.11794149
614.012	0.11799657
614.211	0.11804131
614.41	0.11811364
614.608	0.11816084
614.807	0.11826881
615.006	0.11838025
615.204	0.11848468
615.403	0.11862906
615.602	0.11879755
615.8	0.11894745
615.999	0.11903877
616.197	0.1191256
616.396	0.11923739
616.594	0.11926713
616.793	0.1193625
616.991	0.11937979
617.19	0.11933701
617.388	0.11950402
617.586	0.11959774
617.785	0.11960048
617.983	0.11973709
618.182	0.11980467
618.38	0.11991135
618.578	0.12004623
618.777	0.12009684
618.975	0.12016891
619.173	0.12028522
619.372	0.12034532
619.57	0.12038673
619.768	0.12050026
619.966	0.12060165
620.165	0.12063873
620.363	0.12071919
620.561	0.12074093
620.759	0.12080324
620.957	0.12091601
621.155	0.12097793
621.354	0.12100385
621.552	0.12115102
621.75	0.12120194
621.948	0.12135623
622.146	0.12147141
622.344	0.12153875
622.542	0.12164149
622.74	0.12174786
622.938	0.12175917
623.136	0.12189449
623.334	0.12192765
623.532	0.12192627
623.73	0.12196779
623.928	0.12199815
624.126	0.12206886
624.324	0.12218021
624.522	0.12210549
624.719	0.12213551
624.917	0.12222422
625.115	0.12225827
625.313	0.12232729
625.511	0.12238664
625.708	0.12233347
625.906	0.12244322
626.104	0.12248956
626.302	0.12259396
626.499	0.12263398
626.697	0.12265126
626.895	0.12265749
627.093	0.12277493
627.29	0.12286525
627.488	0.1229119
627.686	0.12289823
627.883	0.12291637
628.081	0.12288324
628.278	0.12300297
628.476	0.12298963
628.673	0.12299813
628.871	0.12303994
629.068	0.12306366
629.266	0.12318375
629.463	0.12320751
629.661	0.12320582
629.858	0.12320525
630.056	0.12317819
630.253	0.12320639
630.451	0.12328807
630.648	0.12325301
630.845	0.12330235
631.043	0.12331905
631.24	0.12346463
631.438	0.12357506
631.635	0.12362589
631.832	0.12360238
632.029	0.12368288
632.227	0.12375035
632.424	0.1237673
632.621	0.12371335
632.818	0.12367162
633.016	0.12373112
633.213	0.12374822
633.41	0.12379045
633.607	0.12378714
633.804	0.12380157
634.001	0.12379456
634.199	0.12386967
634.396	0.12383643
634.593	0.12381798
634.79	0.12380187
634.987	0.12385504
635.184	0.12388373
635.381	0.12395725
635.578	0.12399708
635.775	0.1240099
635.972	0.12405579
636.169	0.12408964
636.366	0.1240093
636.563	0.12394778
636.76	0.12386224
636.957	0.12382701
637.153	0.12377583
637.35	0.12380842
637.547	0.12373353
637.744	0.12376954
637.941	0.12384042
638.138	0.12390503
638.334	0.12384955
638.531	0.1238958
638.728	0.12389007
638.925	0.1239793
639.121	0.12400648
639.318	0.12399141
639.515	0.12397106
639.711	0.12402381
639.908	0.12401277
640.105	0.12400089
640.301	0.12393858
640.498	0.12391981
640.695	0.12392034
640.891	0.12391027
641.088	0.12387993
641.284	0.12388923
641.481	0.12387039
641.677	0.12386986
641.874	0.12382519
642.07	0.12386176
642.267	0.12388535
642.463	0.12389376
642.66	0.12391718
642.856	0.12390029
643.053	0.12381199
643.249	0.12382932
643.445	0.12376797
643.642	0.12375195
643.838	0.12372264
644.034	0.12366211
644.231	0.12365663
644.427	0.12372269
644.623	0.12371516
644.82	0.12371714
645.016	0.12370548
645.212	0.12362844
645.408	0.12361815
645.604	0.12366257
645.801	0.12364996
645.997	0.12362113
646.193	0.12351519
646.389	0.12351977
646.585	0.12355042
646.781	0.12357129
646.977	0.1235287
647.173	0.1235278
647.37	0.1234809
647.566	0.12350647
647.762	0.12341731
647.958	0.12345396
648.154	0.12339983
648.35	0.12335939
648.546	0.1232901
648.742	0.12331923
648.937	0.12325115
649.133	0.12328448
649.329	0.1232852
649.525	0.12327612
649.721	0.1232532
649.917	0.12331072
650.113	0.12325256
650.309	0.12333457
650.504	0.12329152
650.7	0.12317907
650.896	0.12314556
651.092	0.12311344
651.287	0.12301295
651.483	0.12303247
651.679	0.12294058
651.875	0.12294472
652.07	0.12293188
652.266	0.12293014
652.462	0.12290328
652.657	0.12288252
652.853	0.1228312
653.048	0.12280145
653.244	0.12267811
653.44	0.12267009
653.635	0.12256836
653.831	0.12253955
654.026	0.1225157
654.222	0.12244127
654.417	0.12247929
654.613	0.12248844
654.808	0.12243353
655.004	0.12243463
655.199	0.12239003
655.394	0.12238844
655.59	0.12244564
655.785	0.12233771
655.98	0.12233953
656.176	0.12230005
656.371	0.12235405
656.566	0.12237914
656.762	0.12227967
656.957	0.12222787
657.152	0.12220819
657.348	0.12220093
657.543	0.12218705
657.738	0.12211299
657.933	0.12198948
658.128	0.12196853
658.324	0.12187169
658.519	0.1218345
658.714	0.12173855
658.909	0.12164506
659.104	0.12157746
659.299	0.12154188
659.494	0.12143781
659.689	0.12142131
659.884	0.12138759
660.079	0.12135415
660.274	0.12135736
660.469	0.121307
660.664	0.12135248
660.859	0.12141008
661.054	0.12141265
661.249	0.12145141
661.444	0.12142704
661.639	0.12138698
661.834	0.12133252
662.029	0.12129273
662.224	0.12124808
662.418	0.12128411
662.613	0.12116939
662.808	0.12113244
663.003	0.121171
663.198	0.12119898
663.392	0.12113611
663.587	0.12118144
663.782	0.12101218
663.977	0.12100857
664.171	0.12097711
664.366	0.12085796
664.561	0.12080576
664.755	0.1207645
664.95	0.12063954
665.144	0.12064506
665.339	0.12061742
665.534	0.12061107
665.728	0.1205993
665.923	0.12057046
666.117	0.12058086
666.312	0.12056965
666.506	0.12060345
666.701	0.12056292
666.895	0.12051342
667.09	0.12052101
667.284	0.12050657
667.479	0.1203931
667.673	0.12029621
667.867	0.12024847
668.062	0.12020903
668.256	0.12019511
668.45	0.12019924
668.645	0.12012067
668.839	0.12016786
669.033	0.12021253
669.228	0.12013128
669.422	0.1201408
669.616	0.12004799
669.81	0.11997533
670.004	0.11991784
670.199	0.11985475
670.393	0.11980614
670.587	0.11979534
670.781	0.11972097
670.975	0.1197323
671.169	0.11969327
671.363	0.11965799
671.558	0.11959172
671.752	0.11954673
671.946	0.11953958
672.14	0.11954193
672.334	0.1194595
672.528	0.11953076
672.722	0.11953583
672.916	0.11950296
673.11	0.11944099
673.304	0.11943183
673.497	0.11934289
673.691	0.11940614
673.885	0.11925514
674.079	0.11925467
674.273	0.11922214
674.467	0.11930042
674.661	0.11928639
674.854	0.11933377
675.048	0.11930773
675.242	0.11930406
675.436	0.11929703
675.629	0.11935188
675.823	0.11926634
676.017	0.11924196
676.211	0.11913901
676.404	0.11910195
676.598	0.11911602
676.792	0.11909039
676.985	0.11905845
677.179	0.11907063
677.372	0.11901854
677.566	0.11910137
677.76	0.11910887
677.953	0.11910596
678.147	0.11911379
678.34	0.11917587
678.534	0.11915643
678.727	0.11921961
678.921	0.11922622
679.114	0.11921593
679.307	0.11920076
679.501	0.11919125
679.694	0.11913422
679.888	0.11911639
680.081	0.11903317
680.274	0.11895454
680.468	0.11892658
680.661	0.11889774
680.854	0.11894716
681.048	0.11895544
681.241	0.11896646
681.434	0.11898718
681.627	0.11899691
681.821	0.11898547
682.014	0.11904114
682.207	0.11889819
682.4	0.1188749
682.593	0.11886272
682.786	0.11879958
682.98	0.11877309
683.173	0.11879619
683.366	0.11873237
683.559	0.1187421
683.752	0.11871188
683.945	0.11870336
684.138	0.11871915
684.331	0.11871445
684.524	0.11873628
684.717	0.11869526
684.91	0.1187706
685.103	0.1187442
685.296	0.11873122
685.489	0.11875554
685.682	0.11871937
685.874	0.11865734
686.067	0.11867808
686.26	0.11865319
686.453	0.1186658
686.646	0.11870024
686.839	0.11874539
687.031	0.1187808
687.224	0.11877666
687.417	0.11881209
687.61	0.11877142
687.802	0.11876223
687.995	0.11875848
688.188	0.1187467
688.38	0.1187643
688.573	0.11880674
688.766	0.11880556
688.958	0.11881386
689.151	0.11881472
689.343	0.11884284
689.536	0.11883178
689.729	0.11884404
689.921	0.11886086
690.114	0.11882361
690.306	0.11881239
690.499	0.11885904
690.691	0.11888942
690.884	0.11890591
691.076	0.11893055
691.268	0.1189449
691.461	0.11896323
691.653	0.11905815
691.846	0.11910156
692.038	0.11907275
692.23	0.11907386
692.423	0.11907652
692.615	0.11905449
692.807	0.11907319
692.999	0.11906505
693.192	0.11900135
693.384	0.11900787
693.576	0.11898124
693.768	0.11899682
693.961	0.11895611
694.153	0.118938
694.345	0.11887868
694.537	0.11890788
694.729	0.11891694
694.921	0.11896001
695.113	0.11898498
695.305	0.1190714
695.498	0.11912511
695.69	0.11923395
695.882	0.11926544
696.074	0.11931585
696.266	0.11932276
696.458	0.11931729
696.65	0.11934286
696.842	0.11938422
697.033	0.11938672
697.225	0.11938308
697.417	0.11940482
697.609	0.11943073
697.801	0.11947899
697.993	0.11953989
698.185	0.11956632
698.376	0.11959949
698.568	0.11962183
698.76	0.11962449
698.952	0.11965699
699.144	0.11967281
699.335	0.1196505
699.527	0.11967064
699.719	0.11967574
699.91	0.11976302
700.102	0.11977109
700.294	0.11980737
700.485	0.119876
700.677	0.11993382
700.869	0.12001373
701.06	0.12011418
701.252	0.12015529
701.443	0.1202213
701.635	0.12026939
701.826	0.12027974
702.018	0.12032296
702.209	0.12033909
702.401	0.12032299
702.592	0.12034872
702.784	0.12038822
702.975	0.12039765
703.166	0.1204673
703.358	0.12046837
703.549	0.12048732
703.741	0.12052883
703.932	0.12055345
704.123	0.12059337
704.315	0.12067495
704.506	0.12070719
704.697	0.12076545
704.888	0.12077934
705.08	0.12081938
705.271	0.12085073
705.462	0.12081111
705.653	0.12078558
705.844	0.12076124
706.035	0.12078081
706.227	0.12085613
706.418	0.12087701
706.609	0.12089603
706.8	0.12101458
706.991	0.12104472
707.182	0.12113477
707.373	0.12115688
707.564	0.12116654
707.755	0.12121469
707.946	0.12130661
708.137	0.12135734
708.328	0.12142041
708.519	0.12147493
708.71	0.12155861
708.901	0.12160642
709.092	0.12165782
709.283	0.1216449
709.473	0.12167804
709.664	0.12177847
709.855	0.12176017
710.046	0.12180097
710.237	0.12186369
710.427	0.12189592
710.618	0.12199882
710.809	0.12198014
711	0.12200752
711.19	0.12202931
711.381	0.12215553
711.572	0.12217223
711.762	0.12223265
711.953	0.12226091
712.144	0.12240089
712.334	0.12244398
712.525	0.12252945
712.715	0.12250422
712.906	0.12256645
713.097	0.12258561
713.287	0.12262928
713.478	0.12262252
713.668	0.12267051
713.859	0.1227492
714.049	0.12282588
714.239	0.12292923
714.43	0.12304696
714.62	0.12307395
714.811	0.12314432
715.001	0.1231963
715.191	0.12327873
715.382	0.12326842
715.572	0.12331135
715.762	0.1233245
715.953	0.12338328
716.143	0.12342394
716.333	0.12348942
716.523	0.1235224
716.714	0.1236258
716.904	0.12365788
717.094	0.12374626
717.284	0.12385882
717.474	0.12398401
717.664	0.12410154
717.855	0.12416275
718.045	0.12418603
718.235	0.12427243
718.425	0.12429409
718.615	0.12436405
718.805	0.12441533
718.995	0.1244497
719.185	0.12453473
719.375	0.12465422
719.565	0.12473237
719.755	0.12481802
719.945	0.12482905
720.135	0.12486026
720.325	0.12494202
720.515	0.12501837
720.704	0.12507097
720.894	0.12510945
721.084	0.12517925
721.274	0.12528612
721.464	0.12537527
721.654	0.12543218
721.843	0.12545943
722.033	0.12550746
722.223	0.12552278
722.413	0.12561849
722.602	0.12575919
722.792	0.12583338
722.982	0.12588855
723.171	0.12595364
723.361	0.12604487
723.55	0.1261565
723.74	0.12619921
723.93	0.12618341
724.119	0.12626339
724.309	0.12631302
724.498	0.1264032
724.688	0.12647654
724.877	0.12656158
725.067	0.12659408
725.256	0.12662369
725.446	0.12667306
725.635	0.12667928
725.825	0.12669391
726.014	0.12670216
726.203	0.12673352
726.393	0.12681426
726.582	0.12688926
726.771	0.12693955
726.961	0.12703251
727.15	0.12711604
727.339	0.12716453
727.529	0.12721144
727.718	0.12720722
727.907	0.12722516
728.096	0.12719649
728.286	0.12725068
728.475	0.12727323
728.664	0.12729477
728.853	0.1273296
729.042	0.12739347
729.231	0.12750002
729.42	0.12753577
729.609	0.12752706
729.799	0.12750793
729.988	0.12757396
730.177	0.12759615
730.366	0.12764293
730.555	0.12760137
730.744	0.12762577
730.933	0.12770904
731.122	0.12779339
731.31	0.1278167
731.499	0.12787492
731.688	0.12790279
731.877	0.12795794
732.066	0.12806359
732.255	0.12805015
732.444	0.1280544
732.632	0.12806622
732.821	0.12806764
733.01	0.12815642
733.199	0.1281467
733.388	0.12818085
733.576	0.12824944
733.765	0.1283445
733.954	0.12835608
734.142	0.12838101
734.331	0.12834552
734.52	0.12847371
734.708	0.12851892
734.897	0.1285077
735.086	0.12852032
735.274	0.1285695
735.463	0.12863408
735.651	0.1286659
735.84	0.12868375
736.028	0.12870303
736.217	0.12879969
736.405	0.12882295
736.594	0.12893356
736.782	0.12894578
736.971	0.12897917
737.159	0.12898058
737.347	0.12904181
737.536	0.12910076
737.724	0.12914836
737.912	0.12914042
738.101	0.12921418
738.289	0.12928334
738.477	0.12934708
738.666	0.12936069
738.854	0.12935399
739.042	0.12939232
739.23	0.12942125
739.418	0.12944404
739.607	0.12946637
739.795	0.12946391
739.983	0.12946676
740.171	0.12951528
740.359	0.12955174
740.547	0.12957849
740.735	0.12958523
740.923	0.12959525
741.112	0.12962137
741.3	0.12964347
741.488	0.12968901
741.676	0.12972272
741.864	0.12974188
742.052	0.12982026
742.239	0.12988219
742.427	0.12993448
742.615	0.12994157
742.803	0.12995805
742.991	0.12990961
743.179	0.13001406
743.367	0.13005753
743.555	0.13009197
743.742	0.13014948
743.93	0.13026358
744.118	0.13027859
744.306	0.13036712
744.494	0.13035484
744.681	0.13038053
744.869	0.13043589
745.057	0.13048591
745.244	0.13048272
745.432	0.13050484
745.62	0.13057003
745.807	0.13066193
745.995	0.13065971
746.182	0.13067914
746.37	0.13067421
746.558	0.13069198
746.745	0.13073716
746.933	0.13075217
747.12	0.13070011
747.308	0.13076149
747.495	0.13073456
747.683	0.13073312
747.87	0.13074697
748.057	0.13074949
748.245	0.13074074
748.432	0.13079406
748.62	0.13081028
748.807	0.13086
748.994	0.13091238
749.182	0.13096756
749.369	0.13095684
749.556	0.13101671
749.743	0.13103868
749.931	0.13104112
750.118	0.13111278
750.305	0.1310966
750.492	0.13109786
750.68	0.13111294
750.867	0.13108286
751.054	0.13111008
751.241	0.13112821
751.428	0.1311226
751.615	0.13117931
751.802	0.13124055
751.989	0.13129064
752.176	0.13135055
752.363	0.1313274
752.55	0.13133226
752.737	0.13133853
752.924	0.13128831
753.111	0.13129753
753.298	0.13132702
753.485	0.13133504
753.672	0.13135133
753.859	0.13135906
754.046	0.13134762
754.233	0.13136336
754.42	0.13129278
754.606	0.13127898
754.793	0.13127262
754.98	0.13130715
755.167	0.13129016
755.353	0.13129364
755.54	0.13134636
755.727	0.13139017
755.914	0.13139536
756.1	0.13139537
756.287	0.13136914
756.474	0.13140286
756.66	0.13140411
756.847	0.13139842
757.033	0.13139184
757.22	0.1314068
757.407	0.13141944
757.593	0.13138785
757.78	0.13138272
757.966	0.13143242
758.153	0.13144633
758.339	0.13145095
758.526	0.13143478
758.712	0.13139894
758.898	0.13141945
759.085	0.13143989
759.271	0.13140102
759.458	0.13141281
759.644	0.13144085
759.83	0.13145617
760.017	0.13154695
760.203	0.13157592
760.389	0.13150779
760.576	0.13147878
760.762	0.13140727
760.948	0.13136622
761.134	0.13136677
761.32	0.13127121
761.507	0.1312369
761.693	0.13124881
761.879	0.1312286
762.065	0.13126044
762.251	0.13122652
762.437	0.1311959
762.623	0.13119005
762.809	0.13117055
762.995	0.13118008
763.181	0.13119301
763.367	0.13114498
763.553	0.13116455
763.739	0.1311631
763.925	0.13117324
764.111	0.13113887
764.297	0.13114771
764.483	0.13107289
764.669	0.13103543
764.855	0.13102247
765.041	0.13095366
765.227	0.1308755
765.412	0.13084261
765.598	0.13075628
765.784	0.13073848
765.97	0.13076311
766.156	0.13070627
766.341	0.1306649
766.527	0.13065614
766.713	0.13064766
766.898	0.13064768
767.084	0.13063102
767.27	0.13055921
767.455	0.13055103
767.641	0.1305558
767.827	0.13052043
768.012	0.13052828
768.198	0.13052894
768.383	0.13047585
768.569	0.13045349
768.754	0.13039121
768.94	0.13030616
769.125	0.13023425
769.311	0.130168
769.496	0.13003835
769.682	0.13003889
769.867	0.13002436
770.052	0.13001018
770.238	0.13000538
770.423	0.13008287
770.608	0.13005071
770.794	0.13010043
770.979	0.13004523
771.164	0.12998282
771.35	0.12992853
771.535	0.12987659
771.72	0.12974249
771.905	0.12976514
772.09	0.12967157
772.276	0.12972176
772.461	0.12964132
772.646	0.12957856
772.831	0.12957678
773.016	0.12956291
773.201	0.12940514
773.386	0.1293552
773.571	0.12923806
773.756	0.12924363
773.941	0.12923118
774.126	0.12920567
774.311	0.12918226
774.496	0.12910494
774.681	0.1291012
774.866	0.12905192
775.051	0.12897986
775.236	0.12891502
775.421	0.12880655
775.606	0.12875396
775.791	0.12875752
775.976	0.12868298
776.16	0.12865901
776.345	0.12868305
776.53	0.12867262
776.715	0.12865345
776.899	0.12860692
777.084	0.1285579
777.269	0.12846693
777.454	0.12837723
777.638	0.12824161
777.823	0.1281284
778.008	0.1280597
778.192	0.12799195
778.377	0.12795057
778.561	0.12789711
778.746	0.12781663
778.931	0.12780447
779.115	0.12779209
779.3	0.12767918
779.484	0.12755021
779.669	0.12748795
779.853	0.12737267
780.037	0.1272895
780.222	0.12715053
780.406	0.12709886
780.591	0.1270785
780.775	0.12703597
780.959	0.12692332
781.144	0.12688524
781.328	0.12681171
781.512	0.12675642
781.697	0.12660187
781.881	0.12650862
782.065	0.12640489
782.249	0.12633829
782.434	0.12628131
782.618	0.12627954
782.802	0.12624579
782.986	0.12623959
783.17	0.12620331
783.354	0.12620581
783.539	0.12611667
783.723	0.12598433
783.907	0.12580076
784.091	0.12566664
784.275	0.12551988
784.459	0.12540476
784.643	0.12528436
784.827	0.12526162
785.011	0.12525677
785.195	0.12521593
785.379	0.12511916
785.563	0.12499285
785.747	0.1248864
785.93	0.12478725
786.114	0.12463933
786.298	0.12454841
786.482	0.12440772
786.666	0.12437557
786.85	0.12431305
787.033	0.12426735
787.217	0.12417401
787.401	0.12407878
787.585	0.12394821
787.768	0.12390286
787.952	0.1237489
788.136	0.12367787
788.319	0.1235554
788.503	0.12344067
788.687	0.12336802
788.87	0.12328872
789.054	0.12317306
789.237	0.1230757
789.421	0.12297105
789.605	0.12284038
789.788	0.12273677
789.972	0.12261972
790.155	0.12248567
790.338	0.12240675
790.522	0.12229806
790.705	0.12217871
790.889	0.12201596
791.072	0.12189405
791.256	0.12179461
791.439	0.12168048
791.622	0.12159639
791.806	0.12158381
791.989	0.12145869
792.172	0.12141412
792.355	0.12134652
792.539	0.1212395
792.722	0.12116899
792.905	0.12105404
793.088	0.12091411
793.271	0.12084734
793.455	0.12072441
793.638	0.12064482
793.821	0.12056683
794.004	0.12049838
794.187	0.1203586
794.37	0.12019854
794.553	0.1201024
794.736	0.12000337
794.919	0.11980414
795.102	0.11967254
795.285	0.11951756
795.468	0.11939614
795.651	0.1192826
795.834	0.11918484
796.017	0.11911167
796.2	0.11904353
796.383	0.11893456
796.566	0.11885249
796.749	0.11872217
796.931	0.11862733
797.114	0.1184596
797.297	0.1183047
797.48	0.11820328
797.663	0.11807309
797.845	0.11792594
798.028	0.11786412
798.211	0.11774763
798.393	0.11765852
798.576	0.1175682
798.759	0.11742015
798.941	0.11727486
799.124	0.11707531
799.307	0.11690866
799.489	0.11677067
799.672	0.11656374
799.854	0.11639768
800.037	0.11623508
800.219	0.11608963
800.402	0.11602595
800.584	0.11590984
800.767	0.1157757
800.949	0.11568666
801.132	0.11556392
801.314	0.11547975
801.496	0.11539213
801.679	0.11521712
801.861	0.11506944
802.043	0.11491326
802.226	0.11480975
802.408	0.11469204
802.59	0.11458224
802.772	0.11440017
802.955	0.11430949
803.137	0.11420481
803.319	0.11405063
803.501	0.11380629
803.684	0.1135986
803.866	0.1133832
804.048	0.11326796
804.23	0.11310127
804.412	0.1129767
804.594	0.11287196
804.776	0.1128576
804.958	0.11281139
805.14	0.11269327
805.322	0.11256852
805.504	0.11247422
805.686	0.11232819
805.868	0.1121921
806.05	0.11201681
806.232	0.11181791
806.414	0.1116733
806.596	0.11153857
806.778	0.11136788
806.96	0.11120188
807.141	0.11107877
807.323	0.11095914
807.505	0.11079134
807.687	0.11067464
807.869	0.11055585
808.05	0.11046398
808.232	0.11028611
808.414	0.11013784
808.595	0.10989627
808.777	0.10976206
808.959	0.10960596
809.14	0.10941679
809.322	0.10927611
809.504	0.10919263
809.685	0.10908819
809.867	0.10910133
810.048	0.10903947
810.23	0.10892738
810.411	0.10879842
810.593	0.10862147
810.774	0.10847204
810.956	0.1082421
811.137	0.10807685
811.319	0.10790706
811.5	0.10775582
811.681	0.10761249
811.863	0.1074244
812.044	0.10722279
812.225	0.1071225
812.407	0.10687846
812.588	0.10676742
812.769	0.10663857
812.951	0.10644565
813.132	0.10624561
813.313	0.10619862
813.494	0.10604912
813.675	0.10594641
813.857	0.10575697
814.038	0.10559835
814.219	0.10550627
814.4	0.105458
814.581	0.10526719
814.762	0.10508023
814.943	0.1049185
815.124	0.10477381
815.305	0.10460246
815.486	0.10444176
815.667	0.10425017
815.848	0.10404409
816.029	0.10381859
816.21	0.10360716
816.391	0.10336712
816.572	0.10318846
816.753	0.10298719
816.934	0.10286351
817.115	0.10271459
817.295	0.10261987
817.476	0.10249991
817.657	0.10236211
817.838	0.10222165
818.019	0.10209711
818.199	0.10192657
818.38	0.10181233
818.561	0.10163736
818.741	0.10145481
818.922	0.10130087
819.103	0.10114149
819.283	0.10101872
819.464	0.10086467
819.645	0.10068513
819.825	0.1005796
820.006	0.10039102
820.186	0.10025159
820.367	0.10008317
820.547	0.09985733
820.728	0.09958173
820.908	0.09939359
821.089	0.09916949
821.269	0.09899949
821.45	0.09890241
821.63	0.09873844
821.81	0.09857943
821.991	0.09848716
822.171	0.09831812
822.351	0.09817566
822.532	0.09806007
822.712	0.09777852
822.892	0.09758594
823.072	0.09737483
823.253	0.09720384
823.433	0.09697397
823.613	0.09682743
823.793	0.09663945
823.973	0.0965435
824.154	0.0964255
824.334	0.09626176
824.514	0.09612956
824.694	0.09594785
824.874	0.09577874
825.054	0.0955792
825.234	0.0953247
825.414	0.09505569
825.594	0.09487468
825.774	0.09467055
825.954	0.0946109
826.134	0.09442601
826.314	0.09434209
826.494	0.094267
826.674	0.09412211
826.854	0.094018
827.033	0.09377047
827.213	0.09351529
827.393	0.09329979
827.573	0.09304094
827.753	0.09278548
827.932	0.09257272
828.112	0.09238295
828.292	0.09222644
828.472	0.09204248
828.651	0.0919246
828.831	0.09176342
829.011	0.09163605
829.19	0.09160851
829.37	0.09145026
829.549	0.09130438
829.729	0.09117121
829.909	0.09091793
830.088	0.09073809
830.268	0.09047844
830.447	0.09019504
830.627	0.09000124
830.806	0.08985841
830.986	0.08970356
831.165	0.08958611
831.344	0.08949266
831.524	0.089381
831.703	0.08920701
831.883	0.08900338
832.062	0.08880308
832.241	0.08860695
832.421	0.0883913
832.6	0.08816121
832.779	0.08791552
832.958	0.08776781
833.138	0.08757686
833.317	0.08750448
833.496	0.08731325
833.675	0.0871976
833.854	0.08709578
834.034	0.08697165
834.213	0.08671722
834.392	0.08655398
834.571	0.08622793
834.75	0.08602142
834.929	0.08573815
835.108	0.08538118
835.287	0.08512382
835.466	0.08496951
835.645	0.08480803
835.824	0.08461214
836.003	0.08451171
836.182	0.08442832
836.361	0.08431321
836.54	0.08423203
836.719	0.08408719
836.897	0.08389773
837.076	0.08384126
837.255	0.08364643
837.434	0.08340942
837.613	0.08321209
837.791	0.08307034
837.97	0.08300437
838.149	0.08287668
838.328	0.08274907
838.506	0.08252699
838.685	0.08232944
838.864	0.08223591
839.042	0.08195519
839.221	0.08168715
839.4	0.08144293
839.578	0.08111269
839.757	0.08096118
839.935	0.08080267
840.114	0.08062134
840.292	0.08053697
840.471	0.08040042
840.649	0.08022447
840.828	0.08008037
841.006	0.07996521
841.185	0.07975867
841.363	0.07949782
841.541	0.07930445
841.72	0.07906797
841.898	0.07885914
842.076	0.07871083
842.255	0.07846638
842.433	0.07834309
842.611	0.07823833
842.789	0.0781031
842.968	0.07803213
843.146	0.07791464
843.324	0.07775476
843.502	0.07761762
843.68	0.07753526
843.859	0.07736388
844.037	0.07715232
844.215	0.07685088
844.393	0.07663467
844.571	0.07642019
844.749	0.0761881
844.927	0.07587632
845.105	0.07569039
845.283	0.07551387
845.461	0.07536483
845.639	0.07530051
845.817	0.07510465
845.995	0.07501622
846.173	0.07487035
846.351	0.07465976
846.529	0.07442063
846.706	0.07423203
846.884	0.07399914
847.062	0.07388079
847.24	0.07364125
847.418	0.07339268
847.595	0.07326089
847.773	0.07317021
847.951	0.07302059
848.129	0.07281762
848.306	0.07265488
848.484	0.07248326
848.662	0.07239569
848.839	0.07225352
849.017	0.07210081
849.194	0.07190231
849.372	0.07171115
849.549	0.07151582
849.727	0.07128741
849.905	0.07109035
850.082	0.07079549
850.26	0.070585
850.437	0.07040768
850.614	0.0703087
850.792	0.07010357
850.969	0.06998607
851.147	0.06981769
851.324	0.0696832
851.501	0.06952561
851.679	0.06938007
851.856	0.06910998
852.033	0.06892094
852.211	0.06864355
852.388	0.06840267
852.565	0.06819325
852.742	0.0679546
852.92	0.06776418
853.097	0.06761565
853.274	0.06747828
853.451	0.06738045
853.628	0.0673276
853.805	0.06723506
853.982	0.06708077
854.159	0.06689941
854.336	0.06673946
854.514	0.0664871
854.691	0.06622389
854.868	0.06602316
855.045	0.06579302
855.221	0.0656159
855.398	0.06543546
855.575	0.06521556
855.752	0.06512014
855.929	0.06514157
856.106	0.06499853
856.283	0.06488098
856.46	0.06466188
856.637	0.06455943
856.813	0.06440232
856.99	0.06422202
857.167	0.06395913
857.344	0.06371912
857.52	0.06348898
857.697	0.06332672
857.874	0.06306711
858.05	0.06289134
858.227	0.06263597
858.404	0.06248548
858.58	0.0623834
858.757	0.06229203
858.933	0.06221543
859.11	0.06210655
859.287	0.06199907
859.463	0.06195733
859.64	0.06174326
859.816	0.06147615
859.993	0.0611946
860.169	0.06101833
860.345	0.06083088
860.522	0.06059325
860.698	0.06041312
860.875	0.06033335
861.051	0.06022954
861.227	0.06020566
861.404	0.06007704
861.58	0.0599032
861.756	0.05984686
861.932	0.05971026
862.109	0.05949576
862.285	0.05933557
862.461	0.05911067
862.637	0.05889421
862.813	0.05875456
862.99	0.05848282
863.166	0.05822725
863.342	0.05802534
863.518	0.05791692
863.694	0.05779362
863.87	0.05759122
864.046	0.0573848
864.222	0.05731493
864.398	0.05723369
864.574	0.05713758
864.75	0.05701672
864.926	0.05677719
865.102	0.05666867
865.278	0.05647185
865.454	0.05631528
865.63	0.0561278
865.805	0.05602272
865.981	0.05577837
866.157	0.05567255
866.333	0.05557762
866.509	0.05559239
866.684	0.05538935
866.86	0.05539229
867.036	0.05517896
867.212	0.05494492
867.387	0.05477235
867.563	0.05454535
867.739	0.05434175
867.914	0.05421889
868.09	0.05385959
868.265	0.05372595
868.441	0.05368372
868.617	0.05357469
868.792	0.05348196
868.968	0.05327797
869.143	0.05308659
869.319	0.0530571
869.494	0.05291876
869.67	0.0527262
869.845	0.05254615
870.02	0.05234745
870.196	0.05219903
870.371	0.05199331
870.546	0.05170421
870.722	0.05146036
870.897	0.05128871
871.072	0.05110723
871.248	0.05094708
871.423	0.05076467
871.598	0.05070329
871.773	0.05055696
871.949	0.05050106
872.124	0.05034741
872.299	0.05027036
872.474	0.05005133
872.649	0.04988175
872.824	0.04973041
872.999	0.04967335
873.174	0.04940444
873.349	0.04921227
873.524	0.04906024
873.699	0.0489045
873.874	0.04876433
874.049	0.04859807
874.224	0.04833929
874.399	0.04829174
874.574	0.04815723
874.749	0.04804499
874.924	0.04796002
875.099	0.0478133
875.274	0.04766795
875.449	0.04757881
875.623	0.04738532
875.798	0.04725299
875.973	0.04696397
876.148	0.04675014
876.322	0.04668852
876.497	0.04652192
876.672	0.04631148
876.846	0.04612976
877.021	0.04598242
877.196	0.04593097
877.37	0.04589246
877.545	0.04574116
877.72	0.04561678
877.894	0.04565187
878.069	0.04548489
878.243	0.04539616
878.418	0.04521881
878.592	0.0449427
878.767	0.04461741
878.941	0.04442742
879.116	0.0441259
879.29	0.04402222
879.464	0.04387429
879.639	0.04369723
879.813	0.04365685
879.987	0.04368574
880.162	0.0436363
880.336	0.04348937
880.51	0.04346129
880.685	0.04336709
880.859	0.04332115
881.033	0.04312737
881.207	0.043022
881.381	0.04276025
881.556	0.04266875
881.73	0.04245078
881.904	0.04221328
882.078	0.04197414
882.252	0.04185199
882.426	0.04158928
882.6	0.04160527
882.774	0.04151755
882.948	0.04138886
883.122	0.04139997
883.296	0.04132443
883.47	0.04122441
883.644	0.04114575
883.818	0.04085157
883.992	0.04064839
884.166	0.0404586
884.34	0.04029296
884.514	0.04004101
884.687	0.03998316
884.861	0.03981512
885.035	0.03980304
885.209	0.0397365
885.382	0.03971385
885.556	0.03964628
885.73	0.03963476
885.904	0.03943674
886.077	0.03943563
886.251	0.03926839
886.425	0.03907003
886.598	0.03892547
886.772	0.03863985
886.945	0.03845849
887.119	0.03834253
887.292	0.03811459
887.466	0.03806735
887.64	0.03798679
887.813	0.03792968
887.986	0.03786129
888.16	0.037814
888.333	0.03763405
888.507	0.03757332
888.68	0.03734731
888.854	0.0372555
889.027	0.03694485
889.2	0.03673037
889.374	0.03659894
889.547	0.03656025
889.72	0.0363606
889.893	0.03617271
890.067	0.03606167
890.24	0.03605273
890.413	0.03604034
890.586	0.03602434
890.759	0.03590647
890.933	0.03592666
891.106	0.03592845
891.279	0.03590469
891.452	0.03575099
891.625	0.03567521
891.798	0.03544557
891.971	0.03532492
892.144	0.03514392
892.317	0.03498846
892.49	0.03474757
892.663	0.03455956
892.836	0.03431177
893.009	0.03430907
893.182	0.03418575
893.355	0.03392674
893.527	0.03379905
893.7	0.03382623
893.873	0.03375985
894.046	0.03367935
894.219	0.03352224
894.391	0.03337348
894.564	0.03332014
894.737	0.03320382
894.91	0.03293717
895.082	0.0328376
895.255	0.03272812
895.428	0.03250593
895.6	0.03237914
895.773	0.03236629
895.945	0.03228615
896.118	0.03225126
896.291	0.03222153
896.463	0.03217051
896.636	0.03216714
896.808	0.03215861
896.981	0.03200689
897.153	0.0318665
897.326	0.03172947
897.498	0.03154207
897.67	0.03122261
897.843	0.0310494
898.015	0.03077621
898.187	0.03058644
898.36	0.03051532
898.532	0.03034037
898.704	0.03026823
898.877	0.03034955
899.049	0.03029228
899.221	0.03028703
899.393	0.03028211
899.566	0.03022518
899.738	0.0301455
899.91	0.02999785
900.082	0.02987549
900.254	0.02976305
900.426	0.02961059
900.598	0.02945131
900.77	0.02934739
900.942	0.02918636
901.114	0.02906818
901.286	0.02885632
901.458	0.02867048
901.63	0.02859935
901.802	0.02845045
901.974	0.02836115
902.146	0.02836241
902.318	0.02821211
902.49	0.02824043
902.662	0.02822973
902.834	0.02819055
903.005	0.02810564
903.177	0.02781205
903.349	0.02765973
903.521	0.02758036
903.693	0.02735231
903.864	0.02716389
904.036	0.0269258
904.208	0.02692356
904.379	0.02701745
904.551	0.02685399
904.723	0.02684569
904.894	0.02679163
905.066	0.02674468
905.237	0.02680017
905.409	0.02659858
905.58	0.02636581
905.752	0.02627471
905.923	0.02603829
906.095	0.02587125
906.266	0.0256697
906.438	0.02543892
906.609	0.02528677
906.78	0.02520144
906.952	0.02507438
907.123	0.02505774
907.295	0.025112
907.466	0.0250565
907.637	0.02488888
907.808	0.02488078
907.98	0.02481909
908.151	0.02476828
908.322	0.02459998
908.493	0.02445918
908.665	0.02438467
908.836	0.02444104
909.007	0.02438309
909.178	0.02419754
909.349	0.02396869
909.52	0.02391184
909.691	0.02376023
909.862	0.02360967
910.033	0.02348629
910.204	0.02341618
910.375	0.02352196
910.546	0.02365442
910.717	0.02362169
910.888	0.0237405
911.059	0.02378872
911.23	0.02374454
911.401	0.02361629
911.572	0.02343741
911.742	0.02331321
911.913	0.02313583
912.084	0.02294161
912.255	0.02273217
912.426	0.02249283
912.596	0.02236472
912.767	0.0222309
912.938	0.02206693
913.108	0.02199139
913.279	0.0218587
913.45	0.02196837
913.62	0.02206782
913.791	0.02205122
913.962	0.02205959
914.132	0.02200815
914.303	0.02210932
914.473	0.02207166
914.644	0.02195394
914.814	0.0217044
914.985	0.02157104
915.155	0.02130573
915.326	0.02128121
915.496	0.02100616
915.666	0.02086361
915.837	0.0206258
916.007	0.0205829
916.177	0.02050951
916.348	0.02053801
916.518	0.0204914
916.688	0.02059789
916.858	0.02058075
917.029	0.02056463
917.199	0.02056058
917.369	0.02056199
917.539	0.02050725
917.709	0.02045991
917.88	0.02035952
918.05	0.02017298
918.22	0.0200084
918.39	0.01989278
918.56	0.01970544
918.73	0.0196498
918.9	0.01938584
919.07	0.01914981
919.24	0.01918522
919.41	0.01918099
919.58	0.01917947
919.75	0.01916335
919.92	0.01918421
920.09	0.0192479
920.26	0.01943282
920.429	0.01932422
920.599	0.0193752
920.769	0.01935184
920.939	0.01932062
921.109	0.01906952
921.278	0.01893748
921.448	0.01867002
921.618	0.0186856
921.787	0.01847412
921.957	0.01835359
922.127	0.01822489
922.296	0.01818307
922.466	0.0182003
922.636	0.01819429
922.805	0.01812755
922.975	0.01801987
923.144	0.01797249
923.314	0.018005
923.483	0.01798405
923.653	0.01785382
923.822	0.01771728
923.992	0.01759042
924.161	0.01763283
924.331	0.01745292
924.5	0.01722247
924.669	0.01712749
924.839	0.01706721
925.008	0.01705292
925.177	0.01696049
925.347	0.01680691
925.516	0.01685988
925.685	0.01692073
925.854	0.01699606
926.023	0.01694814
926.193	0.01700743
926.362	0.01704905
926.531	0.01716452
926.7	0.01696353
926.869	0.0169396
927.038	0.01672623
927.207	0.01683042
927.376	0.01675311
927.545	0.01658858
927.715	0.01640884
927.884	0.01634742
928.052	0.01619781
928.221	0.01623005
928.39	0.01584417
928.559	0.0157297
928.728	0.01573694
928.897	0.01575786
929.066	0.01588307
929.235	0.01574143
929.404	0.01565203
929.572	0.01577789
929.741	0.01580964
929.91	0.01575596
930.079	0.01579297
930.247	0.01566916
930.416	0.01567101
930.585	0.01563856
930.753	0.01564119
930.922	0.01548098
931.091	0.01547751
931.259	0.01536924
931.428	0.01528744
931.596	0.01534764
931.765	0.01541935
931.934	0.01537253
932.102	0.01512893
932.27	0.01508508
932.439	0.01496101
932.607	0.01503155
932.776	0.01489408
932.944	0.01485074
933.113	0.01478245
933.281	0.01501417
933.449	0.01491285
933.618	0.01481982
933.786	0.01468511
933.954	0.01452225
934.123	0.01433096
934.291	0.01445165
934.459	0.01435749
934.627	0.01430409
934.795	0.01445955
934.964	0.01452786
935.132	0.01462372
935.3	0.0145076
935.468	0.01443841
935.636	0.0144517
935.804	0.01443655
935.972	0.01416763
936.14	0.0138158
936.308	0.01390489
936.476	0.01403244
936.644	0.01390286
936.812	0.01372497
936.98	0.01385754
937.148	0.01400368
937.316	0.01437713
937.484	0.01417778
937.652	0.0144212
937.82	0.01460561
937.987	0.01477865
938.155	0.01452577
938.323	0.01466981
938.491	0.01489874
938.658	0.0153289
938.826	0.0153176
938.994	0.01520155
939.162	0.01560789
939.329	0.01572865
939.497	0.01621968
939.665	0.01624653
939.832	0.01636464
940	0.01601154
940.167	0.01617161
940.335	0.01608904
940.502	0.0161459
940.67	0.01545683
940.837	0.01522229
941.005	0.01548234
941.172	0.01602441
941.34	0.01659087
941.507	0.01616659
941.674	0.01696659
941.842	0.01740816
942.009	0.01737004
942.177	0.01728852
942.344	0.01746428
942.511	0.01705517
942.678	0.01749014
942.846	0.01757263
943.013	0.01729314
943.18	0.01792165
943.347	0.01876208
943.514	0.01910236
943.682	0.01928082
943.849	0.01932813
944.016	0.01959048
944.183	0.01981946
944.35	0.019159
944.517	0.01780747
944.684	0.01682772
944.851	0.01611809
945.018	0.0162626
945.185	0.01529723
945.352	0.01490327
945.519	0.01503148
945.686	0.01614405
945.853	0.01654729
946.02	0.01659927
946.187	0.01611309
946.353	0.01611957
946.52	0.01638841
946.687	0.01641915
946.854	0.01556906
947.021	0.01566519
947.187	0.01568181
947.354	0.01666243
947.521	0.01717264
947.687	0.01724195
947.854	0.01784861
948.021	0.01761437
948.187	0.01671958
948.354	0.01664038
948.52	0.01551167
948.687	0.01529467
948.854	0.01463073
949.02	0.01386568
949.187	0.01468755
949.353	0.01446704
949.52	0.01460452
949.686	0.01471391
949.852	0.01415987
950.019	0.01470394
950.185	0.01461286
950.352	0.01355276
950.518	0.01415382
950.684	0.01378105
950.851	0.01354057
951.017	0.01323805
951.183	0.01346406
951.349	0.01322083
951.516	0.01303482
951.682	0.01206083
951.848	0.0118204
952.014	0.01190871
952.18	0.012247
952.346	0.01150025
952.512	0.01163974
952.679	0.01214019
952.845	0.01275663
953.011	0.01293381
953.177	0.0130155
953.343	0.01291345
953.509	0.01241437
953.675	0.01226207
953.841	0.01176774
954.007	0.01110442
954.172	0.01064037
954.338	0.00991622
954.504	0.00947195
954.67	0.00965811
954.836	0.00985681
955.002	0.01015364
955.167	0.01017214
955.333	0.01048395
955.499	0.01085655
955.665	0.01108324
955.83	0.011244
955.996	0.01036608
956.162	0.01039944
956.327	0.0105514
956.493	0.0098431
956.659	0.00952447
956.824	0.00942511
956.99	0.00938926
957.155	0.0097205
957.321	0.00903663
957.486	0.00945965
957.652	0.0100951
957.817	0.01008654
957.983	0.00981051
958.148	0.00955581
958.314	0.00925523
958.479	0.00903345
958.644	0.00842458
958.81	0.00814093
958.975	0.00815296
959.14	0.00815841
959.306	0.00836796
959.471	0.00874966
959.636	0.00882719
959.801	0.00887491
959.967	0.00857933
960.132	0.00867032
960.297	0.00835512
960.462	0.00849047
960.627	0.00819679
960.792	0.00853978
960.957	0.00854018
961.123	0.00900347
961.288	0.00863079
961.453	0.00895914
961.618	0.00837283
961.783	0.00841008
961.948	0.00796517
962.113	0.00781877
962.277	0.00768155
962.442	0.00807458
962.607	0.00813988
962.772	0.00829274
962.937	0.00802722
963.102	0.00850463
963.267	0.00866873
963.431	0.00826734
963.596	0.00786352
963.761	0.00754956
963.926	0.00755387
964.09	0.00760502
964.255	0.00752964
964.42	0.00758441
964.584	0.00779864
964.749	0.00796205
964.914	0.00803354
965.078	0.00799965
965.243	0.0081861
965.407	0.00820074
965.572	0.00790088
965.736	0.0081267
965.901	0.00829735
966.065	0.00846565
966.23	0.00818931
966.394	0.00823555
966.559	0.00805665
966.723	0.00816591
966.887	0.00767019
967.052	0.00767807
967.216	0.00713151
967.38	0.00717224
967.545	0.00716516
967.709	0.00748336
967.873	0.00768448
968.037	0.00789061
968.202	0.00748792
968.366	0.00748877
968.53	0.00774341
968.694	0.00768726
968.858	0.00711313
969.022	0.00698493
969.187	0.00657058
969.351	0.00667088
969.515	0.00688948
969.679	0.00599874
969.843	0.00598561
970.007	0.00590479
970.171	0.00578563
970.335	0.00595237
970.499	0.00602326
970.662	0.00607251
970.826	0.00661438
970.99	0.00657114
971.154	0.00635075
971.318	0.0064937
971.482	0.00636435
971.645	0.00609356
971.809	0.00600776
971.973	0.0064796
972.137	0.00651439
972.3	0.00682717
972.464	0.00642035
972.628	0.0065085
972.791	0.00661041
972.955	0.00697762
973.119	0.00681865
973.282	0.00665863
973.446	0.00644413
973.609	0.00683082
973.773	0.00691572
973.936	0.00707983
974.1	0.00646065
974.263	0.00626659
974.427	0.00641294
974.59	0.00635573
974.754	0.00594959
974.917	0.00589897
975.08	0.00546257
975.244	0.0057914
975.407	0.00611852
975.57	0.00597776
975.734	0.00609853
975.897	0.0066115
976.06	0.0064811
976.223	0.00699195
976.387	0.00654661
976.55	0.00612829
976.713	0.00584507
976.876	0.0058813
977.039	0.00583523
977.202	0.0059408
977.365	0.00570943
977.528	0.00610815
977.692	0.00614663
977.855	0.00631812
978.018	0.00639156
978.181	0.00601224
978.344	0.00634578
978.506	0.0065853
978.669	0.00628199
978.832	0.00631194
978.995	0.00614136
979.158	0.00605773
979.321	0.00606084
979.484	0.00561307
979.646	0.00525749
979.809	0.00579365
979.972	0.00560734
980.135	0.00554054
980.297	0.00562475
980.46	0.00551191
980.623	0.00617969
980.786	0.00583135
980.948	0.00557163
981.111	0.00554551
981.273	0.00599236
981.436	0.00612272
981.599	0.006148
981.761	0.00549774
981.924	0.00587601
982.086	0.00615957
982.249	0.00649817
982.411	0.00641445
982.573	0.00591012
982.736	0.00634768
982.898	0.00601798
983.061	0.00578725
983.223	0.00555769
983.385	0.00515258
983.548	0.00448859
983.71	0.00447317
983.872	0.0041296
984.034	0.00471855
984.197	0.00481659
984.359	0.00482539
984.521	0.00486375
984.683	0.00489763
984.845	0.00488842
985.008	0.00500283
985.17	0.00459313
985.332	0.0049941
985.494	0.00477238
985.656	0.00502116
985.818	0.00537889
985.98	0.00589265
986.142	0.00576114
986.304	0.00550066
986.466	0.00553329
986.628	0.00561485
986.79	0.00512023
986.952	0.00493708
987.113	0.00506776
987.275	0.0047814
987.437	0.00488217
987.599	0.00419098
987.761	0.0038366
987.922	0.00396218
988.084	0.00386815
988.246	0.00328836
988.408	0.00343899
988.569	0.00411345
988.731	0.00443839
988.893	0.00441938
989.054	0.00453562
989.216	0.00497429
989.377	0.00517206
989.539	0.00527566
989.701	0.00504245
989.862	0.00465816
990.024	0.0051019
990.185	0.00510839
990.347	0.00482169
990.508	0.0047551
990.669	0.00451596
990.831	0.00399767
990.992	0.00480191
991.154	0.00493835
991.315	0.00522052
991.476	0.00566265
991.638	0.00560022
991.799	0.00532286
991.96	0.00581478
992.121	0.00516269
992.283	0.00507478
992.444	0.00531342
992.605	0.00478801
992.766	0.00476708
992.927	0.00524561
993.088	0.0050345
993.249	0.00533542
993.41	0.00531679
993.572	0.00489088
993.733	0.00505539
993.894	0.00531021
994.055	0.00511863
994.216	0.0052891
994.376	0.00421941
994.537	0.00386818
994.698	0.00357611
994.859	0.00361368
995.02	0.00357459
995.181	0.00392036
995.342	0.00412057
995.503	0.00484774
995.663	0.00509424
995.824	0.00523775
995.985	0.00524101
996.146	0.0048954
996.306	0.0048142
996.467	0.00452242
996.628	0.00508215
996.788	0.00570699
996.949	0.00621374
997.11	0.0064226
997.27	0.00705645
997.431	0.00732931
997.591	0.00761539
997.752	0.00740046
997.912	0.00690405
998.073	0.0065659
998.233	0.00673876
998.394	0.00643307
998.554	0.00629888
998.714	0.00688707
998.875	0.00715557
999.035	0.00675837
999.196	0.00671775
999.356	0.00594207
999.516	0.00541577
999.676	0.00472422
999.837	0.00418177
999.997	0.00404776
1000.157	0.0043762
1000.317	0.00461057
1000.477	0.00540474
1000.638	0.00627598
1000.798	0.00747248
1000.958	0.00751956
1001.118	0.00722569
1001.278	0.00717006
1001.438	0.00723647
1001.598	0.00754462
1001.758	0.00707805
1001.918	0.00652119
1002.078	0.00572352
1002.238	0.00581819
1002.398	0.00675939
1002.558	0.00687127
1002.718	0.00676689
1002.878	0.0071184
1003.037	0.00705668
1003.197	0.00732138
1003.357	0.00707464
1003.517	0.00575839
1003.677	0.00422617
1003.836	0.00456225
1003.996	0.00360214
1004.156	0.00328344
1004.315	0.00452214
1004.475	0.00516939
1004.635	0.00509913
1004.794	0.00745817
1004.954	0.00650628
1005.114	0.00674067
1005.273	0.00783719
1005.433	0.00693541
1005.592	0.00658707
1005.752	0.00682019
1005.911	0.00534386
1006.071	0.00559982
1006.23	0.00663681
1006.389	0.00563174
1006.549	0.00579829
1006.708	0.00621939
1006.868	0.00682393
1007.027	0.00790186
1007.186	0.00894241
1007.345	0.00906701
1007.505	0.00976247
1007.664	0.01083223
1007.823	0.0102182
1007.982	0.01023447
1008.142	0.0098723
1008.301	0.00841066
1008.46	0.00841819
1008.619	0.00847669
1008.778	0.00772932
1008.937	0.00939881
1009.096	0.01014088
1009.255	0.01010043
1009.414	0.0101074
1009.573	0.0086436
1009.732	0.00837155
1009.891	0.00765478
1010.05	0.0056146
1010.209	0.00573876
1010.368	0.00529023
1010.527	0.0070537
1010.686	0.00815018
1010.845	0.00780081
1011.003	0.00826931
1011.162	0.00835043
1011.321	0.00707365
1011.48	0.00618953
1011.638	0.00466078
1011.797	0.00558272
1011.956	0.00703256
1012.115	0.00599147
1012.273	0.00610276
1012.432	0.00708916
1012.59	0.00751553
1012.749	0.0064506
1012.908	0.00693891
1013.066	0.00713456
1013.225	0.00887302
1013.383	0.01199665
1013.542	0.0114828
1013.7	0.01177699
1013.859	0.01328369
1014.017	0.01164804
1014.175	0.01022017
1014.334	0.01013337
1014.492	0.0093525
1014.65	0.00992327
1014.809	0.01196823
1014.967	0.01205398
1015.125	0.01408993
1015.284	0.0133893
1015.442	0.01459376
1015.6	0.01249383
1015.758	0.01066307
1015.916	0.0111362
1016.075	0.00965595
1016.233	0.00649315
1016.391	0.00745379
1016.549	0.00681778
1016.707	0.00645346
1016.865	0.00789148
1017.023	0.00663633
1017.181	0.00750212
1017.339	0.01000199
1017.497	0.01089445
1017.655	0.01305243
1017.813	0.01424314
1017.971	0.01217671
1018.129	0.01338117
1018.286	0.01437194
1018.444	0.01512669
1018.602	0.01388918
1018.76	0.01084623
1018.918	0.01075153
1019.075	0.01098801
1019.233	0.01184855
1019.391	0.0117197
1019.549	0.01109177
1019.706	0.01281448
1019.864	0.01310312
1020.022	0.01257065
1020.179	0.01475803
1020.337	0.01235288
1020.494	0.01211538
1020.652	0.01286963
1020.809	0.01016576
1020.967	0.00857529
1021.124	0.00895169
1021.282	0.00965975
1021.439	0.01190732
1021.597	0.01222628
1021.754	0.00927912
1021.911	0.01230411
1022.069	0.01248992
1022.226	0.01413183
1022.384	0.01360484
1022.541	0.01136895
1022.698	0.01294511
1022.855	0.01214893
1023.013	0.01085645
1023.17	0.01049339
1023.327	0.01234654
1023.484	0.01554394
1023.641	0.0150711
1023.798	0.0135862
1023.956	0.01945642
1024.113	0.0206655
1024.27	0.02179202
1024.427	0.01892047
1024.584	0.0157479
1024.741	0.0162914
1024.898	0.02048971
1025.055	0.01400321
1025.212	0.01262576
1025.369	0.01083522
1025.525	0.00980324
1025.682	0.01208893
1025.839	0.01210914
1025.996	0.00526969
1026.153	0.0095506
1026.31	0.01122745
1026.466	0.01261531
1026.623	0.01716253
1026.78	0.01506803
1026.937	0.01561829
1027.093	0.01907868
1027.25	0.0180618
1027.407	0.01775088
1027.563	0.01723679
1027.72	0.01355673
1027.876	0.01038038
1028.033	0.01070741
1028.19	0.01188618
1028.346	0.01032828
1028.503	0.00669038
1028.659	0.00620425
1028.816	0.00538625
1028.972	0.00886349
1029.128	0.01103274
1029.285	0.01499736
1029.441	0.01958901
1029.598	0.02106264
1029.754	0.02182209
1029.91	0.0246625
1030.067	0.02286285
1030.223	0.02059637
1030.379	0.01215098
1030.535	0.00899873
1030.691	0.01337371
1030.848	0.02108711
1031.004	0.01558833
1031.16	0.01712927
1031.316	0.02278133
1031.472	0.02585192
1031.628	0.03499648
1031.784	0.03547554
1031.94	0.03852128
1032.096	0.04422019
1032.252	0.04647116
1032.408	0.04438836
1032.564	0.04596716
1032.72	0.04004588
1032.876	0.03618788
1033.032	0.02981607
1033.188	0.02428777
1033.344	0.0253004
1033.5	0.02723191
1033.655	0.02910235
1033.811	0.02997995
1033.967	0.03447411
