Data from 0_1_mm_pl_50pc_Absorbance__0__18-10-55-976.txt Node

Date: Wed Mar 01 18:10:55 CET 2023
User: Ange
Spectrometer: FLMT08341
Trigger mode: 0
Integration Time (sec): 1.000000E-2
Scans to average: 400
Electric dark correction enabled: true
Nonlinearity correction enabled: false
Boxcar width: 3
XAxis mode: Wavelengths
Number of Pixels in Spectrum: 3648
>>>>>Begin Spectral Data<<<<<
345.271	-0.02269072
345.487	-0.02391544
345.704	-0.01987213
345.921	-0.02174032
346.137	-0.02564167
346.354	-0.00204486
346.571	-0.01148475
346.787	0.03027314
347.004	-0.10106664
347.22	-0.01167718
347.437	-0.02044662
347.653	-0.12623246
347.87	-0.24402437
348.086	-0
348.303	0.14709778
348.519	0.04594322
348.736	0.05078077
348.952	0.05000575
349.169	0.0517149
349.385	0.05524621
349.601	0.05324382
349.818	0.05200328
350.034	0.05176715
350.251	0.0505527
350.467	0.05143539
350.683	0.04955571
350.9	0.04890596
351.116	0.04885308
351.332	0.0501579
351.549	0.0508854
351.765	0.05332644
351.981	0.0535861
352.197	0.05738504
352.414	0.05736829
352.63	0.0604899
352.846	0.06089381
353.062	0.05927143
353.278	0.05802919
353.495	0.05870293
353.711	0.05752537
353.927	0.05903573
354.143	0.05718058
354.359	0.05570277
354.575	0.05630791
354.792	0.0573177
355.008	0.05587359
355.224	0.05559646
355.44	0.05481633
355.656	0.05553207
355.872	0.05704352
356.088	0.05864343
356.304	0.0590173
356.52	0.06127498
356.736	0.06086958
356.952	0.06102303
357.168	0.06057836
357.384	0.06075408
357.6	0.05945363
357.816	0.06053382
358.032	0.06083215
358.248	0.06108661
358.464	0.06138483
358.679	0.06186901
358.895	0.06248473
359.111	0.06324817
359.327	0.06011422
359.543	0.05821146
359.759	0.05907684
359.974	0.0597481
360.19	0.05971055
360.406	0.05826192
360.622	0.05866198
360.838	0.06058638
361.053	0.06166355
361.269	0.06169862
361.485	0.06164741
361.701	0.06270281
361.916	0.06302965
362.132	0.06201825
362.348	0.06245913
362.563	0.06335288
362.779	0.06362854
362.995	0.06367413
363.21	0.06446879
363.426	0.06509743
363.641	0.06716453
363.857	0.06681492
364.073	0.06705651
364.288	0.06689619
364.504	0.06775313
364.719	0.0671562
364.935	0.06730716
365.15	0.0670565
365.366	0.06723654
365.581	0.06781146
365.797	0.06756103
366.012	0.06692336
366.228	0.06604909
366.443	0.06657036
366.658	0.0662225
366.874	0.06596967
367.089	0.06646658
367.305	0.06705909
367.52	0.06792759
367.735	0.06845597
367.951	0.06778644
368.166	0.06703996
368.381	0.06810161
368.597	0.06619795
368.812	0.06712784
369.027	0.06697925
369.243	0.06738975
369.458	0.06850937
369.673	0.06978224
369.888	0.06891773
370.104	0.07072019
370.319	0.06976178
370.534	0.07014398
370.749	0.07011468
370.964	0.07028873
371.179	0.0699981
371.395	0.07105619
371.61	0.07070238
371.825	0.07145944
372.04	0.07128851
372.255	0.07107237
372.47	0.07123107
372.685	0.07095037
372.9	0.0711252
373.115	0.07145611
373.33	0.07112817
373.545	0.07121099
373.76	0.07235543
373.975	0.07161556
374.19	0.07180066
374.405	0.07142028
374.62	0.07185704
374.835	0.0728961
375.05	0.07329892
375.265	0.07314542
375.48	0.07434838
375.695	0.07578603
375.91	0.07566871
376.125	0.07534365
376.339	0.07458111
376.554	0.07445573
376.769	0.07374004
376.984	0.07369092
377.199	0.0744366
377.414	0.07403937
377.628	0.07459608
377.843	0.07614713
378.058	0.07657248
378.273	0.07708953
378.487	0.07750715
378.702	0.07659752
378.917	0.07716177
379.131	0.07725526
379.346	0.07566432
379.561	0.07497229
379.775	0.07583055
379.99	0.07497032
380.205	0.07549796
380.419	0.07558817
380.634	0.07514165
380.848	0.07630507
381.063	0.07772394
381.278	0.07837037
381.492	0.07885773
381.707	0.0792101
381.921	0.0795647
382.136	0.08060446
382.35	0.08078345
382.565	0.07989957
382.779	0.07997395
382.994	0.08010193
383.208	0.07986253
383.422	0.08111991
383.637	0.08085207
383.851	0.08147627
384.066	0.08232592
384.28	0.08197939
384.494	0.08233693
384.709	0.08305968
384.923	0.08279195
385.137	0.08262673
385.352	0.08231283
385.566	0.08252406
385.78	0.08290836
385.995	0.0827862
386.209	0.08191806
386.423	0.08203414
386.637	0.08241228
386.852	0.08200278
387.066	0.08200821
387.28	0.08208225
387.494	0.08242385
387.708	0.08305159
387.923	0.08331244
388.137	0.08395464
388.351	0.0842633
388.565	0.08472628
388.779	0.08525312
388.993	0.08607952
389.207	0.08650983
389.421	0.08651333
389.635	0.08579056
389.85	0.08612032
390.064	0.08601179
390.278	0.08615486
390.492	0.08604266
390.706	0.08624503
390.92	0.08692101
391.134	0.08764199
391.348	0.08803851
391.561	0.08853622
391.775	0.08815673
391.989	0.08805826
392.203	0.08857859
392.417	0.08836389
392.631	0.08897238
392.845	0.08913822
393.059	0.0890658
393.273	0.08930181
393.486	0.0889984
393.7	0.08864217
393.914	0.08907833
394.128	0.08882099
394.342	0.0886469
394.555	0.08877678
394.769	0.08878008
394.983	0.08914325
395.197	0.08897183
395.41	0.08894487
395.624	0.08909004
395.838	0.08931321
396.051	0.08960311
396.265	0.08963942
396.479	0.09025004
396.692	0.09054427
396.906	0.09036421
397.12	0.09038605
397.333	0.09084105
397.547	0.09067306
397.76	0.09123241
397.974	0.09080348
398.187	0.09103692
398.401	0.09126398
398.614	0.09122036
398.828	0.09123359
399.041	0.09144228
399.255	0.09135192
399.468	0.09164201
399.682	0.09191395
399.895	0.09236463
400.109	0.0925824
400.322	0.09250896
400.536	0.09247276
400.749	0.09278327
400.962	0.09272424
401.176	0.09257174
401.389	0.09216711
401.602	0.09179472
401.816	0.09196464
402.029	0.09239833
402.242	0.09261767
402.456	0.09286977
402.669	0.09305114
402.882	0.09310686
403.095	0.09379822
403.309	0.09388467
403.522	0.09353474
403.735	0.09332426
403.948	0.09325922
404.161	0.0934183
404.375	0.09354835
404.588	0.09323662
404.801	0.0932365
405.014	0.09324506
405.227	0.0934615
405.44	0.09357582
405.653	0.09366494
405.866	0.09325849
406.079	0.09342215
406.293	0.09326131
406.506	0.09351465
406.719	0.09306274
406.932	0.09319876
407.145	0.09287311
407.358	0.09358145
407.571	0.09351935
407.784	0.09372548
407.996	0.09375024
408.209	0.09362637
408.422	0.09309933
408.635	0.09319421
408.848	0.09299102
409.061	0.09261796
409.274	0.09255165
409.487	0.09212616
409.7	0.09206762
409.912	0.09246734
410.125	0.09240557
410.338	0.09207979
410.551	0.09213831
410.764	0.09199487
410.976	0.09203657
411.189	0.09208813
411.402	0.09167094
411.615	0.0915734
411.827	0.09175836
412.04	0.09175723
412.253	0.09152852
412.465	0.09147873
412.678	0.09125515
412.891	0.09136475
413.103	0.09114397
413.316	0.09070625
413.529	0.09072291
413.741	0.09099497
413.954	0.09089022
414.166	0.09088244
414.379	0.09070949
414.591	0.09075569
414.804	0.0906023
415.016	0.09047986
415.229	0.08978614
415.441	0.08948678
415.654	0.08942067
415.866	0.08935359
416.079	0.08934436
416.291	0.08920914
416.504	0.08900463
416.716	0.08919584
416.928	0.08898298
417.141	0.08876307
417.353	0.08845101
417.566	0.08801943
417.778	0.08768857
417.99	0.08733609
418.203	0.08713756
418.415	0.08721696
418.627	0.08704149
418.839	0.08720346
419.052	0.08736907
419.264	0.08753555
419.476	0.08746473
419.688	0.0871664
419.901	0.08686963
420.113	0.08673607
420.325	0.08644826
420.537	0.08587597
420.749	0.08572798
420.961	0.08569132
421.174	0.0854544
421.386	0.08516723
421.598	0.08492305
421.81	0.08473589
422.022	0.08443441
422.234	0.08413927
422.446	0.08381539
422.658	0.08356118
422.87	0.08331203
423.082	0.08318115
423.294	0.08276499
423.506	0.08281064
423.718	0.08255927
423.93	0.08247263
424.142	0.08226323
424.354	0.08181028
424.566	0.08147812
424.778	0.08138731
424.99	0.0810397
425.202	0.08081942
425.414	0.08050879
425.625	0.08033704
425.837	0.08022364
426.049	0.07998845
426.261	0.07956603
426.473	0.07916173
426.684	0.07882981
426.896	0.07838501
427.108	0.07803403
427.32	0.07791941
427.531	0.07759885
427.743	0.07746443
427.955	0.07728743
428.167	0.07693175
428.378	0.07668575
428.59	0.07647026
428.802	0.07629677
429.013	0.07587451
429.225	0.07542933
429.436	0.0752338
429.648	0.07494046
429.86	0.07478154
430.071	0.07435225
430.283	0.07389273
430.494	0.0736235
430.706	0.07320391
430.917	0.07275952
431.129	0.07257927
431.34	0.07203415
431.552	0.0719827
431.763	0.07155907
431.975	0.0713267
432.186	0.07106888
432.398	0.07080531
432.609	0.0703354
432.821	0.07031052
433.032	0.06979128
433.243	0.0696026
433.455	0.0692031
433.666	0.06895228
433.877	0.068699
434.089	0.06841829
434.3	0.06798772
434.511	0.06790484
434.723	0.06744521
434.934	0.06726339
435.145	0.06697987
435.356	0.06655731
435.568	0.06628218
435.779	0.06596721
435.99	0.06525904
436.201	0.0649821
436.412	0.0644843
436.624	0.06426082
436.835	0.06401017
437.046	0.06392666
437.257	0.06351236
437.468	0.06348661
437.679	0.06331028
437.89	0.06328862
438.101	0.06282479
438.312	0.06258766
438.523	0.06206771
438.734	0.06186789
438.945	0.06153685
439.156	0.0610579
439.367	0.06065913
439.578	0.0603116
439.789	0.0597502
440	0.05940878
440.211	0.058999
440.422	0.05841038
440.633	0.05812829
440.844	0.05745822
441.055	0.0570206
441.266	0.05673397
441.477	0.05623976
441.687	0.05583712
441.898	0.05556572
442.109	0.05518446
442.32	0.05505073
442.531	0.05475837
442.741	0.05434641
442.952	0.05413343
443.163	0.05381767
443.374	0.05342522
443.584	0.05307925
443.795	0.05265433
444.006	0.05235735
444.216	0.05216887
444.427	0.05179078
444.638	0.05140783
444.848	0.05109178
445.059	0.05072939
445.27	0.05039727
445.48	0.04990278
445.691	0.04956278
445.901	0.04918396
446.112	0.04886068
446.323	0.04864101
446.533	0.04827406
446.744	0.04792656
446.954	0.04768542
447.165	0.04721284
447.375	0.04692053
447.586	0.04653504
447.796	0.04599192
448.006	0.0458386
448.217	0.04559878
448.427	0.04534622
448.638	0.04496649
448.848	0.04441448
449.058	0.04427641
449.269	0.04397772
449.479	0.04361959
449.689	0.0431991
449.9	0.04284446
450.11	0.04256453
450.32	0.04238046
450.531	0.04197177
450.741	0.04169909
450.951	0.04130605
451.161	0.0410248
451.372	0.04056847
451.582	0.04030761
451.792	0.04002684
452.002	0.03971966
452.212	0.03949678
452.422	0.03901058
452.633	0.03866201
452.843	0.0384902
453.053	0.03817159
453.263	0.03790876
453.473	0.03755976
453.683	0.03718565
453.893	0.03710019
454.103	0.03680918
454.313	0.03654723
454.523	0.03629996
454.733	0.03600645
454.943	0.03564219
455.153	0.0353337
455.363	0.03506344
455.573	0.03474098
455.783	0.03442615
455.993	0.034096
456.203	0.0336558
456.413	0.03337617
456.623	0.03325176
456.833	0.03291265
457.042	0.03277242
457.252	0.03252685
457.462	0.03218075
457.672	0.03195157
457.882	0.031877
458.091	0.03154976
458.301	0.03130171
458.511	0.03104366
458.721	0.03081899
458.931	0.03064693
459.14	0.03062633
459.35	0.0303936
459.56	0.03019037
459.769	0.03006308
459.979	0.02969389
460.189	0.0295772
460.398	0.02938203
460.608	0.02911271
460.817	0.02879037
461.027	0.0285136
461.237	0.02823864
461.446	0.02799052
461.656	0.02767826
461.865	0.02738471
462.075	0.02711984
462.284	0.02689449
462.494	0.02671404
462.703	0.02632727
462.913	0.0262321
463.122	0.02591413
463.332	0.02574679
463.541	0.02561406
463.751	0.02548325
463.96	0.02530701
464.169	0.02516937
464.379	0.02508767
464.588	0.02502934
464.797	0.02483306
465.007	0.02447015
465.216	0.02425836
465.425	0.02407154
465.635	0.02388218
465.844	0.02370793
466.053	0.02338592
466.263	0.02323514
466.472	0.02317612
466.681	0.02295398
466.89	0.02273452
467.099	0.02279201
467.309	0.0224408
467.518	0.02236074
467.727	0.02217361
467.936	0.02192129
468.145	0.02177838
468.354	0.02171845
468.563	0.02145366
468.772	0.02137917
468.982	0.02124868
469.191	0.02113764
469.4	0.02107513
469.609	0.02099553
469.818	0.02085705
470.027	0.02072207
470.236	0.02054874
470.445	0.02041385
470.654	0.02024569
470.863	0.02008553
471.072	0.01989719
471.28	0.01966407
471.489	0.0194079
471.698	0.01929793
471.907	0.0191512
472.116	0.01906807
472.325	0.01891625
472.534	0.01876192
472.743	0.01863379
472.951	0.0185647
473.16	0.01853089
473.369	0.01853078
473.578	0.01840529
473.786	0.01835009
473.995	0.01829589
474.204	0.01824763
474.413	0.01821406
474.621	0.01799157
474.83	0.01780812
475.039	0.01757288
475.247	0.01746078
475.456	0.01732649
475.665	0.01728824
475.873	0.01721652
476.082	0.01720839
476.291	0.01707254
476.499	0.0170985
476.708	0.0169423
476.916	0.01689949
477.125	0.01682279
477.333	0.01674876
477.542	0.01661065
477.75	0.0165721
477.959	0.01651885
478.167	0.01651724
478.376	0.01639016
478.584	0.0162809
478.793	0.01618702
479.001	0.01613152
479.209	0.0160149
479.418	0.01587314
479.626	0.01570597
479.834	0.01565946
480.043	0.01560164
480.251	0.01551466
480.459	0.01545117
480.668	0.01542755
480.876	0.01544
481.084	0.01554785
481.293	0.01549719
481.501	0.01541617
481.709	0.01539563
481.917	0.01534284
482.125	0.01537004
482.334	0.01531067
482.542	0.01516109
482.75	0.01524248
482.958	0.01518967
483.166	0.01511724
483.374	0.01504303
483.583	0.01499743
483.791	0.01500865
483.999	0.01512116
484.207	0.01498991
484.415	0.01492076
484.623	0.01493977
484.831	0.01497199
485.039	0.0149307
485.247	0.01489047
485.455	0.01472146
485.663	0.01463286
485.871	0.01459522
486.079	0.01449262
486.287	0.01452029
486.495	0.01446472
486.702	0.01443584
486.91	0.01449244
487.118	0.01454374
487.326	0.01457218
487.534	0.01453775
487.742	0.01447109
487.95	0.01445104
488.157	0.01438466
488.365	0.01434441
488.573	0.01427612
488.781	0.01428274
488.988	0.01430666
489.196	0.014279
489.404	0.01428639
489.612	0.01431345
489.819	0.01436877
490.027	0.01445714
490.235	0.01452624
490.442	0.01456567
490.65	0.01460699
490.857	0.01461031
491.065	0.01469251
491.273	0.01471567
491.48	0.01475893
491.688	0.0147018
491.895	0.01474259
492.103	0.01480548
492.31	0.01485931
492.518	0.01485596
492.725	0.01483592
492.933	0.01476867
493.14	0.01481383
493.348	0.01479043
493.555	0.0147979
493.763	0.01475169
493.97	0.01479465
494.177	0.014822
494.385	0.01487247
494.592	0.01488888
494.8	0.01492515
495.007	0.01493774
495.214	0.01503255
495.422	0.01504797
495.629	0.01514113
495.836	0.01517213
496.043	0.01524393
496.251	0.01528786
496.458	0.01528839
496.665	0.01532364
496.872	0.01532238
497.08	0.01526373
497.287	0.01529541
497.494	0.01533251
497.701	0.01535239
497.908	0.01540555
498.115	0.01546456
498.322	0.01548694
498.53	0.01552613
498.737	0.01564302
498.944	0.01566826
499.151	0.01571685
499.358	0.01574968
499.565	0.01576743
499.772	0.01585179
499.979	0.01592366
500.186	0.01591754
500.393	0.01595385
500.6	0.01602627
500.807	0.01615522
501.014	0.01620569
501.221	0.01631513
501.427	0.01635229
501.634	0.01644915
501.841	0.01654146
502.048	0.01661551
502.255	0.01661387
502.462	0.01670531
502.669	0.01667933
502.875	0.01676708
503.082	0.01681241
503.289	0.01684752
503.496	0.01685188
503.702	0.01693771
503.909	0.01692627
504.116	0.01698369
504.323	0.01704022
504.529	0.0170569
504.736	0.01712658
504.943	0.01722534
505.149	0.01726751
505.356	0.01733162
505.563	0.01744979
505.769	0.01753802
505.976	0.01760374
506.182	0.01772818
506.389	0.0177732
506.595	0.01788352
506.802	0.01804453
507.008	0.01809471
507.215	0.01821975
507.421	0.01834977
507.628	0.01839233
507.834	0.01852216
508.041	0.01857778
508.247	0.01860956
508.454	0.01869574
508.66	0.01871797
508.866	0.018753
509.073	0.01879696
509.279	0.0188501
509.486	0.01890512
509.692	0.01902431
509.898	0.01912834
510.105	0.01918134
510.311	0.01928128
510.517	0.01939054
510.723	0.01945963
510.93	0.01957074
511.136	0.01965424
511.342	0.01971279
511.548	0.01978838
511.754	0.01988165
511.961	0.019986
512.167	0.02012439
512.373	0.02019842
512.579	0.02028383
512.785	0.02042739
512.991	0.02059368
513.197	0.02069733
513.404	0.02081117
513.61	0.02090431
513.816	0.02102827
514.022	0.02115375
514.228	0.02125605
514.434	0.02132292
514.64	0.02143755
514.846	0.02149195
515.052	0.02160161
515.258	0.02165036
515.464	0.02167836
515.669	0.02176055
515.875	0.02186787
516.081	0.02194724
516.287	0.02207993
516.493	0.02218813
516.699	0.02235206
516.905	0.02247039
517.111	0.02256579
517.316	0.02267149
517.522	0.02279539
517.728	0.02292635
517.934	0.02301061
518.139	0.02312868
518.345	0.02324297
518.551	0.02337624
518.757	0.0234437
518.962	0.02354706
519.168	0.02358062
519.374	0.02371283
519.579	0.02379044
519.785	0.02395064
519.991	0.0240552
520.196	0.0242376
520.402	0.02435392
520.607	0.02453151
520.813	0.02461946
521.018	0.02475371
521.224	0.02486478
521.429	0.02501207
521.635	0.02515812
521.84	0.02525413
522.046	0.02536795
522.251	0.02550062
522.457	0.0256847
522.662	0.02579843
522.868	0.02592949
523.073	0.02603291
523.279	0.02620746
523.484	0.02632436
523.689	0.02647865
523.895	0.02659605
524.1	0.02674154
524.305	0.02687653
524.511	0.0270136
524.716	0.02718299
524.921	0.02738046
525.126	0.02756164
525.332	0.02765955
525.537	0.02780412
525.742	0.02791161
525.947	0.02808183
526.153	0.02822012
526.358	0.02832629
526.563	0.0284165
526.768	0.02858554
526.973	0.02874152
527.178	0.02889185
527.383	0.02902356
527.588	0.02911758
527.794	0.02926711
527.999	0.02941856
528.204	0.02954213
528.409	0.02964577
528.614	0.0298206
528.819	0.02994821
529.024	0.03012941
529.229	0.03028008
529.434	0.03045927
529.639	0.03059324
529.843	0.03073071
530.048	0.03085027
530.253	0.03098883
530.458	0.03112709
530.663	0.03126127
530.868	0.031411
531.073	0.03160083
531.278	0.03180175
531.482	0.0319168
531.687	0.03206643
531.892	0.0322134
532.097	0.03238263
532.302	0.03255165
532.506	0.03272205
532.711	0.03286864
532.916	0.03307142
533.12	0.03324871
533.325	0.03342191
533.53	0.03361872
533.734	0.03379311
533.939	0.0339592
534.144	0.03413624
534.348	0.03429986
534.553	0.03446377
534.757	0.03461572
534.962	0.03475037
535.167	0.03489364
535.371	0.03506855
535.576	0.03521045
535.78	0.03535919
535.985	0.03553588
536.189	0.03573606
536.394	0.03589937
536.598	0.03604837
536.803	0.0362159
537.007	0.03642943
537.211	0.03668889
537.416	0.03686134
537.62	0.0370689
537.825	0.03725579
538.029	0.03751791
538.233	0.03768641
538.438	0.03782276
538.642	0.0379486
538.846	0.03812396
539.05	0.03824743
539.255	0.03842133
539.459	0.03855677
539.663	0.03873558
539.867	0.03895442
540.072	0.03916905
540.276	0.03938884
540.48	0.03957615
540.684	0.03974494
540.888	0.03991531
541.092	0.04008361
541.297	0.04025481
541.501	0.04043425
541.705	0.04062021
541.909	0.0407993
542.113	0.0410146
542.317	0.04122121
542.521	0.04142582
542.725	0.04163546
542.929	0.04180743
543.133	0.04199973
543.337	0.04224138
543.541	0.04248439
543.745	0.0426954
543.949	0.04292491
544.153	0.04307977
544.357	0.04329483
544.56	0.04347714
544.764	0.04370401
544.968	0.04385728
545.172	0.04403385
545.376	0.04424597
545.58	0.04447111
545.783	0.04466754
545.987	0.04488643
546.191	0.04505285
546.395	0.04530482
546.598	0.04549626
546.802	0.04571379
547.006	0.04594211
547.21	0.04615489
547.413	0.0463532
547.617	0.04659738
547.821	0.04675381
548.024	0.04697606
548.228	0.04716373
548.431	0.04737961
548.635	0.04762809
548.839	0.0478507
549.042	0.04803304
549.246	0.04828327
549.449	0.04848471
549.653	0.04867989
549.856	0.04893985
550.06	0.0491206
550.263	0.04938346
550.467	0.04960126
550.67	0.04984396
550.874	0.05004924
551.077	0.05029251
551.28	0.05047766
551.484	0.05070859
551.687	0.05084994
551.891	0.05113355
552.094	0.05132394
552.297	0.05159409
552.501	0.05183941
552.704	0.05206895
552.907	0.05229289
553.11	0.05256563
553.314	0.05273938
553.517	0.05294216
553.72	0.05312606
553.923	0.05335915
554.127	0.0535742
554.33	0.0537599
554.533	0.05399158
554.736	0.05424823
554.939	0.05450989
555.142	0.05477949
555.345	0.05494619
555.549	0.05520315
555.752	0.0554724
555.955	0.0556707
556.158	0.05588758
556.361	0.05610784
556.564	0.05631271
556.767	0.05660149
556.97	0.05685697
557.173	0.05706778
557.376	0.05732956
557.579	0.0575494
557.782	0.0578023
557.984	0.05809384
558.187	0.05832198
558.39	0.05854219
558.593	0.05880792
558.796	0.05904874
558.999	0.05927185
559.202	0.05950603
559.404	0.05971024
559.607	0.0599311
559.81	0.06017528
560.013	0.06042605
560.216	0.06070151
560.418	0.060943
560.621	0.06116442
560.824	0.06137555
561.026	0.06166649
561.229	0.06188949
561.432	0.06209321
561.634	0.06228388
561.837	0.06252638
562.04	0.06277956
562.242	0.06308378
562.445	0.06328797
562.647	0.06355775
562.85	0.06382481
563.053	0.06411176
563.255	0.06442405
563.458	0.0646772
563.66	0.06492347
563.863	0.06516834
564.065	0.06540148
564.268	0.06567368
564.47	0.06595065
564.672	0.06615847
564.875	0.06643052
565.077	0.06663826
565.28	0.06690732
565.482	0.06716298
565.684	0.06739779
565.887	0.06755762
566.089	0.06778767
566.291	0.06802384
566.494	0.06827275
566.696	0.0685525
566.898	0.0687923
567.1	0.06904258
567.303	0.06935109
567.505	0.06962436
567.707	0.06986975
567.909	0.07017995
568.111	0.07040727
568.314	0.07066034
568.516	0.07088978
568.718	0.07114548
568.92	0.07141351
569.122	0.07166499
569.324	0.07192971
569.526	0.07214454
569.728	0.07244166
569.93	0.07273594
570.132	0.0730093
570.334	0.07324284
570.536	0.07345716
570.738	0.07368992
570.94	0.07396442
571.142	0.07423589
571.344	0.07446412
571.546	0.07469503
571.748	0.07498147
571.95	0.07525703
572.152	0.07547817
572.354	0.07576003
572.555	0.07597603
572.757	0.07628217
572.959	0.07652847
573.161	0.07676108
573.363	0.07701761
573.564	0.07733684
573.766	0.07756848
573.968	0.07782779
574.17	0.07803336
574.371	0.07830322
574.573	0.07857228
574.775	0.07887011
574.976	0.07908455
575.178	0.07928051
575.38	0.0795041
575.581	0.07974257
575.783	0.07991538
575.985	0.08019632
576.186	0.08042229
576.388	0.08068662
576.589	0.08101286
576.791	0.08128715
576.992	0.08159853
577.194	0.08194566
577.395	0.08214616
577.597	0.08238948
577.798	0.08264356
578	0.08288745
578.201	0.08320219
578.402	0.08342663
578.604	0.08366797
578.805	0.08392516
579.007	0.0841836
579.208	0.08442078
579.409	0.08463906
579.611	0.0848451
579.812	0.08506377
580.013	0.08533107
580.215	0.08556178
580.416	0.0858174
580.617	0.08604739
580.818	0.08636974
581.019	0.08661605
581.221	0.08688748
581.422	0.08712449
581.623	0.08743139
581.824	0.08766053
582.025	0.08796503
582.226	0.08816041
582.428	0.08842252
582.629	0.08867238
582.83	0.08893657
583.031	0.089141
583.232	0.08941905
583.433	0.0897063
583.634	0.0899334
583.835	0.0901708
584.036	0.09041202
584.237	0.09055055
584.438	0.09080923
584.639	0.09101631
584.84	0.09122343
585.041	0.09148363
585.242	0.09171789
585.442	0.09199158
585.643	0.09234426
585.844	0.09260117
586.045	0.09286758
586.246	0.09301871
586.447	0.09324824
586.647	0.09347892
586.848	0.09367532
587.049	0.09390484
587.25	0.09414602
587.45	0.09438611
587.651	0.09467627
587.852	0.09488044
588.053	0.09513932
588.253	0.09539527
588.454	0.09562483
588.655	0.09584605
588.855	0.09608384
589.056	0.09635573
589.256	0.09669992
589.457	0.09696583
589.658	0.09724908
589.858	0.0974707
590.059	0.09772137
590.259	0.09794002
590.46	0.09818642
590.66	0.09838481
590.861	0.09858897
591.061	0.09882368
591.262	0.09908308
591.462	0.09932996
591.662	0.09960308
591.863	0.09978958
592.063	0.09999739
592.264	0.10021295
592.464	0.10041611
592.664	0.10062517
592.865	0.10089688
593.065	0.10105611
593.265	0.10130804
593.465	0.1015313
593.666	0.10172813
593.866	0.10194356
594.066	0.10220091
594.266	0.10235089
594.467	0.10260765
594.667	0.10278805
594.867	0.10301792
595.067	0.10326962
595.267	0.10350181
595.467	0.1036916
595.668	0.10390435
595.868	0.10416406
596.068	0.10437226
596.268	0.10455046
596.468	0.10476395
596.668	0.10495004
596.868	0.1051487
597.068	0.10537392
597.268	0.10554407
597.468	0.10578318
597.668	0.1060116
597.868	0.10622864
598.068	0.10647155
598.268	0.10669512
598.467	0.10694804
598.667	0.10709538
598.867	0.1072732
599.067	0.10748052
599.267	0.10764703
599.467	0.10781806
599.667	0.10797889
599.866	0.10811129
600.066	0.10833212
600.266	0.1085165
600.466	0.10870338
600.665	0.10890624
600.865	0.10908952
601.065	0.10932852
601.264	0.10948807
601.464	0.10968092
601.664	0.10991656
601.863	0.11009873
602.063	0.11030103
602.263	0.11041486
602.462	0.11050748
602.662	0.11065634
602.861	0.11090012
603.061	0.11101095
603.26	0.11117691
603.46	0.11129926
603.659	0.11153816
603.859	0.11173969
604.058	0.11193822
604.258	0.11208802
604.457	0.11235206
604.657	0.1125173
604.856	0.11270064
605.056	0.11282926
605.255	0.1129582
605.454	0.11313866
605.654	0.11320266
605.853	0.1132685
606.052	0.11343065
606.252	0.11356251
606.451	0.11377365
606.65	0.11401672
606.849	0.11417125
607.049	0.1144078
607.248	0.11459525
607.447	0.11478678
607.646	0.11500139
607.845	0.11514965
608.045	0.11520514
608.244	0.11538323
608.443	0.1155358
608.642	0.11575158
608.841	0.11585313
609.04	0.11595864
609.239	0.11610126
609.438	0.11627199
609.637	0.11646356
609.836	0.11658238
610.035	0.11663483
610.234	0.11682701
610.433	0.11698276
610.632	0.11707642
610.831	0.1172831
611.03	0.11730451
611.229	0.1175046
611.428	0.11768388
611.627	0.11777393
611.826	0.11795698
612.025	0.11820818
612.224	0.1183605
612.422	0.11858442
612.621	0.11871857
612.82	0.11888824
613.019	0.119075
613.218	0.11919346
613.416	0.11925605
613.615	0.1193995
613.814	0.11953705
614.012	0.11960568
614.211	0.11968326
614.41	0.11980334
614.608	0.11990001
614.807	0.12002126
615.006	0.12016189
615.204	0.12030551
615.403	0.12049306
615.602	0.12067837
615.8	0.12087377
615.999	0.12100437
616.197	0.12114386
616.396	0.12126336
616.594	0.12126692
616.793	0.121388
616.991	0.12144155
617.19	0.12143003
617.388	0.12158315
617.586	0.12172825
617.785	0.12177894
617.983	0.12198265
618.182	0.12204357
618.38	0.12217216
618.578	0.12236228
618.777	0.122468
618.975	0.12251553
619.173	0.12263651
619.372	0.12271487
619.57	0.12282809
619.768	0.12295901
619.966	0.12305492
620.165	0.12313783
620.363	0.12329547
620.561	0.1233435
620.759	0.12344383
620.957	0.12356602
621.155	0.12366617
621.354	0.12371379
621.552	0.12387149
621.75	0.1239467
621.948	0.12414045
622.146	0.12428212
622.344	0.1243716
622.542	0.12445229
622.74	0.12461302
622.938	0.12464036
623.136	0.12478648
623.334	0.12490065
623.532	0.1248959
623.73	0.12497627
623.928	0.12509562
624.126	0.1251835
624.324	0.12531204
624.522	0.12527404
624.719	0.12529168
624.917	0.1254742
625.115	0.12551889
625.313	0.12560164
625.511	0.12569419
625.708	0.12565407
625.906	0.12581039
626.104	0.12591555
626.302	0.12601413
626.499	0.12612211
626.697	0.12616545
626.895	0.1261851
627.093	0.12633776
627.29	0.12642301
627.488	0.1264808
627.686	0.12649964
627.883	0.12654531
628.081	0.12654989
628.278	0.12673016
628.476	0.12675895
628.673	0.12682163
628.871	0.12686364
629.068	0.12692226
629.266	0.12705669
629.463	0.12712431
629.661	0.12714794
629.858	0.12721669
630.056	0.12722654
630.253	0.12727197
630.451	0.1273318
630.648	0.12734439
630.845	0.12741042
631.043	0.12742708
631.24	0.12758778
631.438	0.127688
631.635	0.12780826
631.832	0.12784174
632.029	0.12794658
632.227	0.12804092
632.424	0.12807155
632.621	0.12803891
632.818	0.12806137
633.016	0.12810543
633.213	0.1281498
633.41	0.1281942
633.607	0.12822557
633.804	0.12829938
634.001	0.12828235
634.199	0.12838366
634.396	0.12840684
634.593	0.128472
634.79	0.12847941
634.987	0.12856011
635.184	0.12859036
635.381	0.12872639
635.578	0.12879118
635.775	0.12884074
635.972	0.12887987
636.169	0.12895266
636.366	0.12894463
636.563	0.12898326
636.76	0.12896638
636.957	0.12896617
637.153	0.12892065
637.35	0.12896377
637.547	0.12895188
637.744	0.12901394
637.941	0.12906969
638.138	0.12913228
638.334	0.12910545
638.531	0.12919648
638.728	0.12923235
638.925	0.12930968
639.121	0.1293547
639.318	0.12933473
639.515	0.12933645
639.711	0.12943974
639.908	0.12944154
640.105	0.12942092
640.301	0.12942968
640.498	0.12941743
640.695	0.12946545
640.891	0.12948836
641.088	0.12945758
641.284	0.12951835
641.481	0.12958295
641.677	0.12957579
641.874	0.12959408
642.07	0.12970485
642.267	0.12977277
642.463	0.12979265
642.66	0.12985255
642.856	0.12985103
643.053	0.1298221
643.249	0.12985772
643.445	0.12979291
643.642	0.1298023
643.838	0.12980557
644.034	0.12973595
644.231	0.12973402
644.427	0.12978878
644.623	0.12981091
644.82	0.12985705
645.016	0.12983162
645.212	0.1298142
645.408	0.12985759
645.604	0.12993779
645.801	0.12996432
645.997	0.12993146
646.193	0.12987076
646.389	0.12995542
646.585	0.13002547
646.781	0.13006206
646.977	0.13004264
647.173	0.13006947
647.37	0.13010634
647.566	0.13015035
647.762	0.13007687
647.958	0.13010629
648.154	0.13006726
648.35	0.13008429
648.546	0.13006853
648.742	0.13012252
648.937	0.13005864
649.133	0.13009959
649.329	0.13012799
649.525	0.13021048
649.721	0.13018777
649.917	0.1302681
650.113	0.13023519
650.309	0.13036176
650.504	0.130345
650.7	0.13034806
650.896	0.13032633
651.092	0.13033753
651.287	0.13028831
651.483	0.1303316
651.679	0.13027841
651.875	0.13036165
652.07	0.13033336
652.266	0.13036367
652.462	0.13043652
652.657	0.13043528
652.853	0.13040058
653.048	0.13043594
653.244	0.13035067
653.44	0.13035791
653.635	0.13027053
653.831	0.13021549
654.026	0.13022427
654.222	0.13020281
654.417	0.13022451
654.613	0.13025134
654.808	0.13019837
655.004	0.13021099
655.199	0.13023558
655.394	0.13021691
655.59	0.13027722
655.785	0.1302127
655.98	0.13022508
656.176	0.13024604
656.371	0.13037451
656.566	0.13040569
656.762	0.13040812
656.957	0.13039182
657.152	0.13042814
657.348	0.13043168
657.543	0.13044072
657.738	0.13043775
657.933	0.13038244
658.128	0.13038443
658.324	0.13032521
658.519	0.13028988
658.714	0.13028256
658.909	0.13027333
659.104	0.13015212
659.299	0.13015398
659.494	0.13008825
659.689	0.13014405
659.884	0.13012055
660.079	0.13007762
660.274	0.13005755
660.469	0.13005159
660.664	0.13008001
660.859	0.13017961
661.054	0.13020058
661.249	0.13028399
661.444	0.13033091
661.639	0.13040031
661.834	0.13042683
662.029	0.13045636
662.224	0.13044319
662.418	0.13044296
662.613	0.13038657
662.808	0.13035856
663.003	0.13035397
663.198	0.13035789
663.392	0.13034679
663.587	0.13042009
663.782	0.13035525
663.977	0.13038576
664.171	0.13041173
664.366	0.13036287
664.561	0.13037738
664.755	0.13034632
664.95	0.13025788
665.144	0.13027113
665.339	0.130284
665.534	0.13032553
665.728	0.13035683
665.923	0.13038209
666.117	0.13037113
666.312	0.13038257
666.506	0.13047958
666.701	0.13044425
666.895	0.13039738
667.09	0.13037614
667.284	0.13038115
667.479	0.13036005
667.673	0.1303087
667.867	0.13028467
668.062	0.13032799
668.256	0.13037025
668.45	0.13044388
668.645	0.13043769
668.839	0.13048471
669.033	0.13054356
669.228	0.13050568
669.422	0.13052978
669.616	0.13045862
669.81	0.13046356
670.004	0.13040934
670.199	0.13040354
670.393	0.13037783
670.587	0.1303809
670.781	0.13030933
670.975	0.13035932
671.169	0.13028785
671.363	0.13032457
671.558	0.13030268
671.752	0.13030679
671.946	0.13029192
672.14	0.13032447
672.334	0.13028133
672.528	0.13041071
672.722	0.13041274
672.916	0.13043873
673.11	0.13045201
673.304	0.13051636
673.497	0.13051211
673.691	0.13059294
673.885	0.13050461
674.079	0.13057672
674.273	0.13056997
674.467	0.1306545
674.661	0.1306823
674.854	0.1307577
675.048	0.1307263
675.242	0.1307558
675.436	0.13074741
675.629	0.13080864
675.823	0.13076474
676.017	0.13076182
676.211	0.13071157
676.404	0.13077662
676.598	0.13086373
676.792	0.13088994
676.985	0.13090099
677.179	0.13091151
677.372	0.13092705
677.566	0.13100241
677.76	0.1310461
677.953	0.13103365
678.147	0.13105557
678.34	0.13113706
678.534	0.13117656
678.727	0.13125842
678.921	0.13131456
679.114	0.13132322
679.307	0.13135464
679.501	0.13140852
679.694	0.13140925
679.888	0.1314424
680.081	0.13137934
680.274	0.13135459
680.468	0.1313977
680.661	0.1314017
680.854	0.13148365
681.048	0.13152556
681.241	0.13156225
681.434	0.13161936
681.627	0.13168462
681.821	0.13168408
682.014	0.1317197
682.207	0.13161774
682.4	0.13163114
682.593	0.13171709
682.786	0.13172237
682.98	0.13173511
683.173	0.13180523
683.366	0.13181345
683.559	0.13189381
683.752	0.13189721
683.945	0.13186183
684.138	0.13196162
684.331	0.13199225
684.524	0.13200651
684.717	0.13201622
684.91	0.13204921
685.103	0.13206841
685.296	0.13213008
685.489	0.13210821
685.682	0.13208907
685.874	0.13213187
686.067	0.13218929
686.26	0.13225616
686.453	0.13229042
686.646	0.1323179
686.839	0.13241493
687.031	0.1324716
687.224	0.13245579
687.417	0.13252955
687.61	0.13250919
687.802	0.13255557
687.995	0.13260144
688.188	0.13262344
688.38	0.1326723
688.573	0.13276407
688.766	0.13278238
688.958	0.13280441
689.151	0.13282569
689.343	0.1329244
689.536	0.13299935
689.729	0.13304296
689.921	0.13307008
690.114	0.13307838
690.306	0.13315132
690.499	0.13326973
690.691	0.13330099
690.884	0.13331247
691.076	0.13338666
691.268	0.13347107
691.461	0.13351562
691.653	0.13362241
691.846	0.13371373
692.038	0.13372575
692.23	0.13377871
692.423	0.13384165
692.615	0.13388183
692.807	0.13399438
692.999	0.13402779
693.192	0.13397113
693.384	0.13407039
693.576	0.1340666
693.768	0.13409609
693.961	0.13403961
694.153	0.13402426
694.345	0.13403168
694.537	0.13412778
694.729	0.13415188
694.921	0.13420599
695.113	0.13431061
695.305	0.13440891
695.498	0.13447187
695.69	0.13456597
695.882	0.13458025
696.074	0.13460706
696.266	0.13468659
696.458	0.1347055
696.65	0.13481681
696.842	0.13492926
697.033	0.13499469
697.225	0.13508781
697.417	0.13518268
697.609	0.1352597
697.801	0.13533915
697.993	0.13538394
698.185	0.1354523
698.376	0.1355033
698.568	0.13550429
698.76	0.13551427
698.952	0.13557479
699.144	0.13559721
699.335	0.13568221
699.527	0.13569372
699.719	0.13575769
699.91	0.13590828
700.102	0.13601233
700.294	0.13609172
700.485	0.13617996
700.677	0.13624279
700.869	0.13637132
701.06	0.13649642
701.252	0.13655993
701.443	0.13664423
701.635	0.13671427
701.826	0.13682746
702.018	0.13693852
702.209	0.13697707
702.401	0.13697468
702.592	0.13701542
702.784	0.13705017
702.975	0.13709589
703.166	0.13711473
703.358	0.13713151
703.549	0.13724568
703.741	0.13732421
703.932	0.13742307
704.123	0.13752436
704.315	0.13763376
704.506	0.13771713
704.697	0.13779687
704.888	0.13783801
705.08	0.13793483
705.271	0.13801024
705.462	0.13801931
705.653	0.13808709
705.844	0.1381434
706.035	0.13820343
706.227	0.13828896
706.418	0.13831557
706.609	0.13838311
706.8	0.13852237
706.991	0.13853988
707.182	0.13863206
707.373	0.13868714
707.564	0.13876897
707.755	0.1388763
707.946	0.13894357
708.137	0.13901084
708.328	0.13909583
708.519	0.13918123
708.71	0.13930094
708.901	0.13935903
709.092	0.13947675
709.283	0.13952416
709.473	0.13960161
709.664	0.13976855
709.855	0.13981115
710.046	0.13987029
710.237	0.13994804
710.427	0.1399571
710.618	0.14010307
710.809	0.14016145
711	0.14019581
711.19	0.14027147
711.381	0.14042336
711.572	0.14049491
711.762	0.14060917
711.953	0.14065516
712.144	0.14078634
712.334	0.14083133
712.525	0.14094454
712.715	0.14095812
712.906	0.14102981
713.097	0.14110079
713.287	0.14121152
713.478	0.14125051
713.668	0.14137256
713.859	0.14146836
714.049	0.14157286
714.239	0.14174745
714.43	0.14187788
714.62	0.14192079
714.811	0.14201997
715.001	0.14212207
715.191	0.14221049
715.382	0.14227462
715.572	0.14230661
715.762	0.14233394
715.953	0.14241672
716.143	0.14254325
716.333	0.14266876
716.523	0.14278621
716.714	0.14292303
716.904	0.14303578
717.094	0.14319484
717.284	0.14331673
717.474	0.14341008
717.664	0.1434618
717.855	0.14350974
718.045	0.14353657
718.235	0.14364666
718.425	0.14373825
718.615	0.14384695
718.805	0.14394323
718.995	0.14406583
719.185	0.14424115
719.375	0.14442936
719.565	0.14453826
719.755	0.14460153
719.945	0.14467163
720.135	0.14475778
720.325	0.14481971
720.515	0.14487439
720.704	0.14494108
720.894	0.14500849
721.084	0.14513403
721.274	0.14524139
721.464	0.14536328
721.654	0.14550226
721.843	0.14558232
722.033	0.14569834
722.223	0.14580264
722.413	0.14589436
722.602	0.14606891
722.792	0.14613443
722.982	0.14618818
723.171	0.14628493
723.361	0.14637691
723.55	0.14646802
723.74	0.14657104
723.93	0.14661936
724.119	0.14672647
724.309	0.14686176
724.498	0.14699232
724.688	0.14709183
724.877	0.14723767
725.067	0.14730203
725.256	0.14735769
725.446	0.14742884
725.635	0.1474505
725.825	0.14747575
726.014	0.14750692
726.203	0.14750798
726.393	0.14762107
726.582	0.14773258
726.771	0.14781213
726.961	0.14791846
727.15	0.14802804
727.339	0.1480579
727.529	0.14815316
727.718	0.14814179
727.907	0.1481865
728.096	0.14823023
728.286	0.14830742
728.475	0.14836029
728.664	0.14849829
728.853	0.14854891
729.042	0.1486864
729.231	0.14881992
729.42	0.14891926
729.609	0.14895831
729.799	0.14901875
729.988	0.14910245
730.177	0.14913798
730.366	0.14916573
730.555	0.1491328
730.744	0.14916375
730.933	0.1492662
731.122	0.14934449
731.31	0.14938395
731.499	0.14948069
731.688	0.14954753
731.877	0.14965609
732.066	0.14976368
732.255	0.14975222
732.444	0.14978496
732.632	0.14982778
732.821	0.1498885
733.01	0.14997176
733.199	0.14994609
733.388	0.14998136
733.576	0.15008855
733.765	0.15020597
733.954	0.15027124
734.142	0.15030436
734.331	0.15034438
734.52	0.1504653
734.708	0.15053217
734.897	0.1505377
735.086	0.15059554
735.274	0.15060225
735.463	0.1506704
735.651	0.15071048
735.84	0.15080713
736.028	0.15087768
736.217	0.15100465
736.405	0.15101775
736.594	0.15117795
736.782	0.15120605
736.971	0.15126687
737.159	0.15130733
737.347	0.15137593
737.536	0.15146337
737.724	0.1515274
737.912	0.15154889
738.101	0.15166408
738.289	0.15178838
738.477	0.15182824
738.666	0.15185287
738.854	0.15184477
739.042	0.15190771
739.23	0.1519394
739.418	0.15199981
739.607	0.15200891
739.795	0.15209107
739.983	0.15211929
740.171	0.15222331
740.359	0.15230715
740.547	0.15237885
740.735	0.1523607
740.923	0.15237928
741.112	0.15236546
741.3	0.15244721
741.488	0.15245692
741.676	0.15248195
741.864	0.15247998
742.052	0.15259597
742.239	0.15272067
742.427	0.15282738
742.615	0.15282038
742.803	0.1528729
742.991	0.15285367
743.179	0.15295635
743.367	0.15299298
743.555	0.15301005
743.742	0.15301594
743.93	0.15316207
744.118	0.15319615
744.306	0.15327544
744.494	0.15332124
744.681	0.15338326
744.869	0.1534264
745.057	0.15353361
745.244	0.15351094
745.432	0.15359153
745.62	0.15363852
745.807	0.15368566
745.995	0.15371967
746.182	0.15375169
746.37	0.15376271
746.558	0.15378293
746.745	0.15380753
746.933	0.15386074
747.12	0.15386871
747.308	0.15393321
747.495	0.15398746
747.683	0.15401151
747.87	0.1540806
748.057	0.15408908
748.245	0.15408898
748.432	0.15413619
748.62	0.15412938
748.807	0.15414218
748.994	0.15418649
749.182	0.15422651
749.369	0.1542378
749.556	0.15435322
749.743	0.15440782
749.931	0.15443229
750.118	0.15446414
750.305	0.15451468
750.492	0.1545179
750.68	0.15455946
750.867	0.15449574
751.054	0.1545416
751.241	0.15459416
751.428	0.15463391
751.615	0.1546561
751.802	0.15473946
751.989	0.15479251
752.176	0.15491858
752.363	0.15494436
752.55	0.15494658
752.737	0.15496739
752.924	0.15497939
753.111	0.15498439
753.298	0.15500307
753.485	0.15497809
753.672	0.1549427
753.859	0.15498488
754.046	0.15501539
754.233	0.15498173
754.42	0.15496955
754.606	0.15497592
754.793	0.15497644
754.98	0.15503888
755.167	0.15500227
755.353	0.15498432
755.54	0.15503412
755.727	0.15504102
755.914	0.15505226
756.1	0.15509705
756.287	0.15506857
756.474	0.15513136
756.66	0.15517078
756.847	0.15520026
757.033	0.15519341
757.22	0.1552463
757.407	0.15526755
757.593	0.15533134
757.78	0.15531148
757.966	0.15532505
758.153	0.15531799
758.339	0.15532263
758.526	0.15526989
758.712	0.15519151
758.898	0.15515364
759.085	0.15518214
759.271	0.15518106
759.458	0.15520026
759.644	0.1552417
759.83	0.1552564
760.017	0.15535071
760.203	0.15537124
760.389	0.15535753
760.576	0.15532945
760.762	0.15530122
760.948	0.15528586
761.134	0.15531061
761.32	0.15526017
761.507	0.15522949
761.693	0.15519929
761.879	0.15519759
762.065	0.15522269
762.251	0.15525708
762.437	0.15526972
762.623	0.15527064
762.809	0.15524826
762.995	0.15523361
763.181	0.15522772
763.367	0.15520111
763.553	0.15515972
763.739	0.15515738
763.925	0.15510544
764.111	0.15510941
764.297	0.15513869
764.483	0.15507357
764.669	0.15499228
764.855	0.15497269
765.041	0.15488786
765.227	0.15481439
765.412	0.15474853
765.598	0.15468202
765.784	0.15471152
765.97	0.15474628
766.156	0.15471394
766.341	0.15470468
766.527	0.15474587
766.713	0.15474236
766.898	0.15478955
767.084	0.15474801
767.27	0.15469337
767.455	0.15463198
767.641	0.154662
767.827	0.15464133
768.012	0.15464144
768.198	0.15459223
768.383	0.15455682
768.569	0.15453254
768.754	0.15451643
768.94	0.15439687
769.125	0.15434137
769.311	0.15423947
769.496	0.15411768
769.682	0.15410798
769.867	0.15409817
770.052	0.15406383
770.238	0.15407762
770.423	0.15412479
770.608	0.15415072
770.794	0.15414132
770.979	0.15405769
771.164	0.15398544
771.35	0.1539575
771.535	0.1538523
771.72	0.15375952
771.905	0.15371361
772.09	0.15369829
772.276	0.15370615
772.461	0.15368649
772.646	0.15365668
772.831	0.15363444
773.016	0.15357589
773.201	0.15350787
773.386	0.1534685
773.571	0.15339016
773.756	0.15333178
773.941	0.15323589
774.126	0.15325854
774.311	0.153179
774.496	0.15310301
774.681	0.15300795
774.866	0.152918
775.051	0.15280541
775.236	0.15275554
775.421	0.15265154
775.606	0.15260783
775.791	0.15254824
775.976	0.15247812
776.16	0.15246087
776.345	0.15247769
776.53	0.15243163
776.715	0.15236607
776.899	0.15234356
777.084	0.15230362
777.269	0.15223249
777.454	0.15215851
777.638	0.15200895
777.823	0.15194826
778.008	0.1518276
778.192	0.15176741
778.377	0.15167775
778.561	0.15159693
778.746	0.15152424
778.931	0.15153078
779.115	0.15145394
779.3	0.15140847
779.484	0.15122792
779.669	0.15117037
779.853	0.15108307
780.037	0.15100195
780.222	0.15093941
780.406	0.15085478
780.591	0.15077418
780.775	0.15070618
780.959	0.15063317
781.144	0.15059447
781.328	0.15042118
781.512	0.15022553
781.697	0.15007376
781.881	0.14998194
782.065	0.14991025
782.249	0.1497636
782.434	0.14969275
782.618	0.14973002
782.802	0.14971494
782.986	0.14969173
783.17	0.1495943
783.354	0.14956684
783.539	0.14955375
783.723	0.14939885
783.907	0.14919295
784.091	0.14906492
784.275	0.14892199
784.459	0.14883209
784.643	0.14868365
784.827	0.14856404
785.011	0.14852364
785.195	0.14843843
785.379	0.14831729
785.563	0.14818659
785.747	0.14804636
785.93	0.14797079
786.114	0.14777791
786.298	0.14766399
786.482	0.14756936
786.666	0.14747898
786.85	0.147394
787.033	0.14735474
787.217	0.14720685
787.401	0.14718234
787.585	0.14702513
787.768	0.14693825
787.952	0.14680961
788.136	0.14672208
788.319	0.14654511
788.503	0.14638287
788.687	0.14622185
788.87	0.14607426
789.054	0.1459444
789.237	0.14581836
789.421	0.14569881
789.605	0.14563693
789.788	0.14551856
789.972	0.14542694
790.155	0.14532665
790.338	0.14520636
790.522	0.14510711
790.705	0.1449494
790.889	0.14472979
791.072	0.14467931
791.256	0.14451256
791.439	0.14447154
791.622	0.14437699
791.806	0.14430314
791.989	0.14421684
792.172	0.14415159
792.355	0.14401901
792.539	0.14396486
792.722	0.14380787
792.905	0.14366473
793.088	0.14352209
793.271	0.14343369
793.455	0.14329087
793.638	0.14320257
793.821	0.14307409
794.004	0.14300638
794.187	0.14290091
794.37	0.1427362
794.553	0.14256742
794.736	0.14243657
794.919	0.14224472
795.102	0.14214695
795.285	0.14198837
795.468	0.14180107
795.651	0.14170813
795.834	0.14169199
796.017	0.14162813
796.2	0.1415132
796.383	0.14136846
796.566	0.14125053
796.749	0.14113856
796.931	0.1410139
797.114	0.14077094
797.297	0.14061117
797.48	0.14048444
797.663	0.14032508
797.845	0.14020913
798.028	0.14012456
798.211	0.13994286
798.393	0.13978141
798.576	0.13959755
798.759	0.13945998
798.941	0.13926856
799.124	0.13899928
799.307	0.13878691
799.489	0.13863997
799.672	0.13844174
799.854	0.13830335
800.037	0.13809237
800.219	0.13789668
800.402	0.13785483
800.584	0.13777242
800.767	0.13761098
800.949	0.13749961
801.132	0.13738686
801.314	0.13721736
801.496	0.13708423
801.679	0.13682096
801.861	0.1366153
802.043	0.13646902
802.226	0.13634507
802.408	0.13617861
802.59	0.13605084
802.772	0.13591502
802.955	0.13583242
803.137	0.13566536
803.319	0.13550898
803.501	0.13532912
803.684	0.13512655
803.866	0.13495531
804.048	0.13479162
804.23	0.13460894
804.412	0.13449124
804.594	0.13429438
804.776	0.13421402
804.958	0.13407504
805.14	0.13397009
805.322	0.13385642
805.504	0.13366138
805.686	0.13347387
805.868	0.13333308
806.05	0.1331001
806.232	0.13292374
806.414	0.13278139
806.596	0.13261669
806.778	0.13247546
806.96	0.13233202
807.141	0.13214861
807.323	0.13201475
807.505	0.13187529
807.687	0.13166612
807.869	0.1314833
808.05	0.13134539
808.232	0.13114773
808.414	0.13101144
808.595	0.13079006
808.777	0.13055752
808.959	0.13041025
809.14	0.13026758
809.322	0.13011937
809.504	0.12999247
809.685	0.12989351
809.867	0.12980139
810.048	0.12971534
810.23	0.12950662
810.411	0.12928744
810.593	0.12906407
810.774	0.12887685
810.956	0.12866051
811.137	0.12842422
811.319	0.12822021
811.5	0.12805043
811.681	0.12787673
811.863	0.1276878
812.044	0.12741615
812.225	0.12724404
812.407	0.12706601
812.588	0.12694004
812.769	0.12677749
812.951	0.12660509
813.132	0.12638101
813.313	0.12632977
813.494	0.1261719
813.675	0.12605229
813.857	0.12579443
814.038	0.12568229
814.219	0.12548489
814.4	0.12539019
814.581	0.125159
814.762	0.12489663
814.943	0.12468375
815.124	0.12448649
815.305	0.12418002
815.486	0.12394488
815.667	0.12373081
815.848	0.12354908
816.029	0.12330293
816.21	0.12308777
816.391	0.1229231
816.572	0.12277062
816.753	0.12265401
816.934	0.12242528
817.115	0.12223314
817.295	0.12213746
817.476	0.12193752
817.657	0.12172156
817.838	0.12150608
818.019	0.12132039
818.199	0.12115057
818.38	0.12096852
818.561	0.12072563
818.741	0.12055314
818.922	0.12036783
819.103	0.12025696
819.283	0.12012124
819.464	0.11994971
819.645	0.11969835
819.825	0.11952452
820.006	0.11928514
820.186	0.11914527
820.367	0.11891252
820.547	0.11862685
820.728	0.11832885
820.908	0.11819167
821.089	0.1180508
821.269	0.11785841
821.45	0.11768534
821.63	0.11743588
821.81	0.11727348
821.991	0.11714953
822.171	0.11696796
822.351	0.11668794
822.532	0.11650807
822.712	0.11619181
822.892	0.11601025
823.072	0.11576641
823.253	0.11554159
823.433	0.11525077
823.613	0.1151054
823.793	0.11484429
823.973	0.11466654
824.154	0.11454219
824.334	0.11435307
824.514	0.11423989
824.694	0.11410434
824.874	0.11384309
825.054	0.11370232
825.234	0.11349799
825.414	0.11321864
825.594	0.11306156
825.774	0.11285019
825.954	0.11264768
826.134	0.11252981
826.314	0.11242533
826.494	0.1123037
826.674	0.11210525
826.854	0.11188138
827.033	0.11159959
827.213	0.11136804
827.393	0.11110399
827.573	0.11078419
827.753	0.11058119
827.932	0.11039121
828.112	0.11020653
828.292	0.11001875
828.472	0.10981914
828.651	0.10965589
828.831	0.10948801
829.011	0.10925119
829.19	0.10910135
829.37	0.10887047
829.549	0.1086542
829.729	0.10844041
829.909	0.10813586
830.088	0.10789585
830.268	0.10761926
830.447	0.10737299
830.627	0.10714037
830.806	0.10699304
830.986	0.10682166
831.165	0.10668167
831.344	0.10659644
831.524	0.10644117
831.703	0.10621458
831.883	0.1059508
832.062	0.10570135
832.241	0.10545497
832.421	0.1052563
832.6	0.10494205
832.779	0.10467646
832.958	0.10451435
833.138	0.10437212
833.317	0.10422535
833.496	0.10401102
833.675	0.10378542
833.854	0.10368832
834.034	0.10356718
834.213	0.10331337
834.392	0.10309449
834.571	0.10275925
834.75	0.10255114
834.929	0.1022843
835.108	0.10181154
835.287	0.10145657
835.466	0.10125899
835.645	0.1010913
835.824	0.10092599
836.003	0.10076771
836.182	0.10063666
836.361	0.10056129
836.54	0.10047599
836.719	0.10024724
836.897	0.10000263
837.076	0.09981377
837.255	0.09954526
837.434	0.09922436
837.613	0.09900306
837.791	0.09876853
837.97	0.09858484
838.149	0.09839696
838.328	0.09826968
838.506	0.09811862
838.685	0.09803187
838.864	0.09786751
839.042	0.0975828
839.221	0.09734293
839.4	0.09707912
839.578	0.09671842
839.757	0.09646421
839.935	0.09623963
840.114	0.09607211
840.292	0.09593983
840.471	0.09577458
840.649	0.09558045
840.828	0.09543969
841.006	0.09525711
841.185	0.09497047
841.363	0.09461376
841.541	0.09436808
841.72	0.09410906
841.898	0.09389625
842.076	0.09367765
842.255	0.09347515
842.433	0.09330027
842.611	0.09315024
842.789	0.09301037
842.968	0.09286256
843.146	0.09270347
843.324	0.09253056
843.502	0.09233555
843.68	0.09222202
843.859	0.09209563
844.037	0.09182347
844.215	0.09155555
844.393	0.09127478
844.571	0.09108638
844.749	0.09083781
844.927	0.09054188
845.105	0.09026012
845.283	0.09009221
845.461	0.08985832
845.639	0.08976263
845.817	0.0895284
845.995	0.08938405
846.173	0.08915762
846.351	0.08895281
846.529	0.08871858
846.706	0.08848025
846.884	0.08824569
847.062	0.08803893
847.24	0.0877635
847.418	0.08745667
847.595	0.08724129
847.773	0.08706352
847.951	0.08685172
848.129	0.08668225
848.306	0.08647324
848.484	0.08627735
848.662	0.08613661
848.839	0.08595349
849.017	0.08583049
849.194	0.08570292
849.372	0.08539164
849.549	0.08517439
849.727	0.08492149
849.905	0.08477601
850.082	0.084535
850.26	0.08417627
850.437	0.08390805
850.614	0.08372546
850.792	0.08348719
850.969	0.08329853
851.147	0.08310475
851.324	0.08295632
851.501	0.08283968
851.679	0.08271411
851.856	0.08247726
852.033	0.08225673
852.211	0.08201578
852.388	0.08169427
852.565	0.08139712
852.742	0.08115137
852.92	0.0808593
853.097	0.08062476
853.274	0.08044698
853.451	0.08025931
853.628	0.08020165
853.805	0.08011227
853.982	0.07989513
854.159	0.07963791
854.336	0.07939797
854.514	0.07914517
854.691	0.07888704
854.868	0.07859922
855.045	0.07827626
855.221	0.07800589
855.398	0.0778824
855.575	0.07768368
855.752	0.07757495
855.929	0.07751413
856.106	0.07736326
856.283	0.07722327
856.46	0.07705785
856.637	0.07695821
856.813	0.07683293
856.99	0.07650103
857.167	0.07617625
857.344	0.07587622
857.52	0.07564182
857.697	0.07536395
857.874	0.07509327
858.05	0.07489649
858.227	0.07470407
858.404	0.07456947
858.58	0.07445591
858.757	0.07433431
858.933	0.07424868
859.11	0.07397002
859.287	0.07372332
859.463	0.07362247
859.64	0.07333669
859.816	0.0730485
859.993	0.07268553
860.169	0.07246015
860.345	0.0723059
860.522	0.07216242
860.698	0.0719216
860.875	0.07183839
861.051	0.07166494
861.227	0.07160975
861.404	0.0714856
861.58	0.07131768
861.756	0.07115695
861.932	0.07101816
862.109	0.07078029
862.285	0.07064502
862.461	0.07038944
862.637	0.07011354
862.813	0.06994982
862.99	0.06963188
863.166	0.06932851
863.342	0.06913626
863.518	0.06893127
863.694	0.0688038
863.87	0.06867326
864.046	0.0684226
864.222	0.06834539
864.398	0.06833618
864.574	0.06818608
864.75	0.06807298
864.926	0.06782035
865.102	0.06761859
865.278	0.06738614
865.454	0.06719292
865.63	0.06683848
865.805	0.06667761
865.981	0.06643948
866.157	0.06628933
866.333	0.06606053
866.509	0.06602706
866.684	0.06576823
866.86	0.06568837
867.036	0.06552013
867.212	0.06532914
867.387	0.06514552
867.563	0.06489819
867.739	0.06461546
867.914	0.06450632
868.09	0.06418895
868.265	0.06393187
868.441	0.06381143
868.617	0.06368006
868.792	0.06365457
868.968	0.063501
869.143	0.06331973
869.319	0.06328191
869.494	0.06309608
869.67	0.06291935
869.845	0.06272198
870.02	0.06245795
870.196	0.06229755
870.371	0.06200571
870.546	0.06174299
870.722	0.06158094
870.897	0.06119294
871.072	0.06093586
871.248	0.06083726
871.423	0.06056189
871.598	0.06047103
871.773	0.06029127
871.949	0.06004034
872.124	0.05997513
872.299	0.05987508
872.474	0.05959965
872.649	0.05946096
872.824	0.05925647
872.999	0.05907745
873.174	0.05889612
873.349	0.05879426
873.524	0.05856665
873.699	0.058322
873.874	0.05811937
874.049	0.05796817
874.224	0.05777639
874.399	0.05764227
874.574	0.05729765
874.749	0.05716648
874.924	0.05710049
875.099	0.05707559
875.274	0.05694976
875.449	0.056728
875.623	0.05649788
875.798	0.05637716
875.973	0.05622178
876.148	0.05600253
876.322	0.05576493
876.497	0.05558598
876.672	0.05549523
876.846	0.05539115
877.021	0.05528284
877.196	0.05509074
877.37	0.05501899
877.545	0.05484662
877.72	0.05465895
877.894	0.05457851
878.069	0.05439015
878.243	0.05415698
878.418	0.0539906
878.592	0.0536979
878.767	0.05339282
878.941	0.05310927
879.116	0.05276645
879.29	0.05256475
879.464	0.05237251
879.639	0.05204963
879.813	0.05190314
879.987	0.05176438
880.162	0.05174233
880.336	0.05159433
880.51	0.05156953
880.685	0.05153272
880.859	0.05156359
881.033	0.05147431
881.207	0.05134944
881.381	0.05110618
881.556	0.0510221
881.73	0.05080921
881.904	0.05055336
882.078	0.05026644
882.252	0.05005568
882.426	0.04979441
882.6	0.04961556
882.774	0.04941623
882.948	0.04924746
883.122	0.04916328
883.296	0.04905511
883.47	0.04893544
883.644	0.04887873
883.818	0.04866479
883.992	0.0485263
884.166	0.04830551
884.34	0.04814768
884.514	0.0478692
884.687	0.0477326
884.861	0.04750484
885.035	0.04746462
885.209	0.04733768
885.382	0.04725981
885.556	0.04712449
885.73	0.04715956
885.904	0.04705277
886.077	0.04702797
886.251	0.04680462
886.425	0.04660737
886.598	0.04647041
886.772	0.04624974
886.945	0.04600121
887.119	0.04574402
887.292	0.04555379
887.466	0.04534885
887.64	0.04509917
887.813	0.04490408
887.986	0.04477521
888.16	0.04464274
888.333	0.04447217
888.507	0.04435805
888.68	0.04437353
888.854	0.04433238
889.027	0.04410605
889.2	0.04389869
889.374	0.04374845
889.547	0.04360901
889.72	0.04351456
889.893	0.04328075
890.067	0.04314563
890.24	0.04303638
890.413	0.04302841
890.586	0.04287797
890.759	0.04278479
890.933	0.04260838
891.106	0.04257436
891.279	0.04259067
891.452	0.04239226
891.625	0.04215659
891.798	0.042045
891.971	0.04189661
892.144	0.04171813
892.317	0.04139914
892.49	0.04102164
892.663	0.04093641
892.836	0.04084086
893.009	0.04082855
893.182	0.04065835
893.355	0.04044787
893.527	0.04036808
893.7	0.04037917
893.873	0.04020543
894.046	0.03997504
894.219	0.03980793
894.391	0.03970045
894.564	0.03955508
894.737	0.03936952
894.91	0.03918199
895.082	0.03913032
895.255	0.03903236
895.428	0.03880068
895.6	0.03859073
895.773	0.03853073
895.945	0.03848268
896.118	0.03843665
896.291	0.03828949
896.463	0.03820173
896.636	0.03810557
896.808	0.03805688
896.981	0.03796443
897.153	0.03781189
897.326	0.03764912
897.498	0.03751643
897.67	0.0372027
897.843	0.03708738
898.015	0.03694421
898.187	0.03673522
898.36	0.03659652
898.532	0.03641894
898.704	0.03633302
898.877	0.03639152
899.049	0.03626404
899.221	0.03616694
899.393	0.03615488
899.566	0.03605613
899.738	0.0359535
899.91	0.03580159
900.082	0.0356581
900.254	0.03552434
900.426	0.0352831
900.598	0.03518719
900.77	0.03502648
900.942	0.03484533
901.114	0.03463791
901.286	0.03448027
901.458	0.03424615
901.63	0.03414785
901.802	0.0339665
901.974	0.03388412
902.146	0.03378843
902.318	0.03367986
902.49	0.03357027
902.662	0.03353914
902.834	0.03352871
903.005	0.03336533
903.177	0.03315673
903.349	0.0330191
903.521	0.03290608
903.693	0.03270966
903.864	0.03253068
904.036	0.03232079
904.208	0.03223798
904.379	0.03218926
904.551	0.03204881
904.723	0.03204142
904.894	0.03194129
905.066	0.03181846
905.237	0.031728
905.409	0.03153982
905.58	0.03139787
905.752	0.03136743
905.923	0.03114235
906.095	0.0310362
906.266	0.03091556
906.438	0.03073332
906.609	0.03056806
906.78	0.03044213
906.952	0.03015034
907.123	0.03010554
907.295	0.03008606
907.466	0.02997021
907.637	0.02994851
907.808	0.02997488
907.98	0.02994891
908.151	0.02987071
908.322	0.02975012
908.493	0.02959865
908.665	0.02953335
908.836	0.02943181
909.007	0.02923777
909.178	0.02911969
909.349	0.02899899
909.52	0.02884409
909.691	0.02869106
909.862	0.02854705
910.033	0.02837835
910.204	0.02827713
910.375	0.02824209
910.546	0.02821087
910.717	0.02818252
910.888	0.02828404
911.059	0.02837263
911.23	0.02836928
911.401	0.02828803
911.572	0.02815277
911.742	0.02808102
911.913	0.0278907
912.084	0.02768304
912.255	0.02738849
912.426	0.02711336
912.596	0.02701731
912.767	0.02671593
912.938	0.02648443
913.108	0.02641599
913.279	0.02629453
913.45	0.02636242
913.62	0.02642068
913.791	0.026384
913.962	0.02643127
914.132	0.026507
914.303	0.0264161
914.473	0.02628693
914.644	0.02608407
914.814	0.02595431
914.985	0.02581808
915.155	0.02557873
915.326	0.02546344
915.496	0.02535176
915.666	0.02532045
915.837	0.02522451
916.007	0.02502411
916.177	0.02500378
916.348	0.02498545
916.518	0.02493227
916.688	0.02497224
916.858	0.02487367
917.029	0.0247591
917.199	0.02473499
917.369	0.02448155
917.539	0.02432936
917.709	0.02419813
917.88	0.02402879
918.05	0.0238024
918.22	0.0237461
918.39	0.02362563
918.56	0.02348259
918.73	0.0235178
918.9	0.02329336
919.07	0.02292563
919.24	0.02295201
919.41	0.02282985
919.58	0.02283869
919.75	0.02282344
919.92	0.02282645
920.09	0.02287499
920.26	0.0230957
920.429	0.02295028
920.599	0.02303965
920.769	0.02298696
920.939	0.02299666
921.109	0.02281706
921.278	0.02253848
921.448	0.02225748
921.618	0.02226441
921.787	0.0219402
921.957	0.02182452
922.127	0.02166295
922.296	0.02150843
922.466	0.02149847
922.636	0.02154783
922.805	0.02145814
922.975	0.02144327
923.144	0.02127907
923.314	0.02117264
923.483	0.02112256
923.653	0.02109866
923.822	0.0210097
923.992	0.02091348
924.161	0.02084055
924.331	0.02075754
924.5	0.02069742
924.669	0.02068814
924.839	0.02058239
925.008	0.0205424
925.177	0.02038785
925.347	0.02023936
925.516	0.02020392
925.685	0.02025332
925.854	0.02019431
926.023	0.02042386
926.193	0.02045913
926.362	0.02046432
926.531	0.02057689
926.7	0.02057634
926.869	0.02044408
927.038	0.02033425
927.207	0.0201258
927.376	0.02004452
927.545	0.01998181
927.715	0.01983025
927.884	0.01961368
928.052	0.01947997
928.221	0.01937362
928.39	0.01916037
928.559	0.01899436
928.728	0.01883315
928.897	0.01888502
929.066	0.01888635
929.235	0.01878733
929.404	0.01870056
929.572	0.01877346
929.741	0.01871855
929.91	0.01876101
930.079	0.01856795
930.247	0.01860402
930.416	0.0186813
930.585	0.01867536
930.753	0.01860405
930.922	0.0185033
931.091	0.01848632
931.259	0.0184597
931.428	0.0184048
931.596	0.01826117
931.765	0.01842497
931.934	0.01840558
932.102	0.01812047
932.27	0.01794837
932.439	0.01792024
932.607	0.01781535
932.776	0.01769679
932.944	0.01748499
933.113	0.01737256
933.281	0.01749119
933.449	0.01728101
933.618	0.01707725
933.786	0.01697789
933.954	0.0168631
934.123	0.0167245
934.291	0.01666932
934.459	0.016746
934.627	0.01692421
934.795	0.01686491
934.964	0.01678412
935.132	0.01695878
935.3	0.01690737
935.468	0.01693542
935.636	0.01688785
935.804	0.01683028
935.972	0.01650519
936.14	0.01648349
936.308	0.01637418
936.476	0.01666689
936.644	0.01675703
936.812	0.01664669
936.98	0.01669597
937.148	0.01729206
937.316	0.01742396
937.484	0.01718027
937.652	0.01676559
937.82	0.01658284
937.987	0.0168828
938.155	0.01673368
938.323	0.01696383
938.491	0.01704822
938.658	0.01761234
938.826	0.0176834
938.994	0.01748936
939.162	0.01769211
939.329	0.01775417
939.497	0.01771431
939.665	0.01779378
939.832	0.0174788
940	0.0175652
940.167	0.01813417
940.335	0.01767832
940.502	0.01769078
940.67	0.01693929
940.837	0.01710468
941.005	0.01757154
941.172	0.01772848
941.34	0.01836888
941.507	0.01864416
941.674	0.01945316
941.842	0.02050869
942.009	0.02026866
942.177	0.0207913
942.344	0.02145166
942.511	0.02038589
942.678	0.02040732
942.846	0.02052292
943.013	0.02079636
943.18	0.02143067
943.347	0.02085627
943.514	0.02062544
943.682	0.02154501
943.849	0.02198941
944.016	0.02167388
944.183	0.02085899
944.35	0.02074444
944.517	0.02082427
944.684	0.02049644
944.851	0.01969368
945.018	0.01941679
945.185	0.01971267
945.352	0.01895292
945.519	0.01814523
945.686	0.01877374
945.853	0.01895884
946.02	0.01810971
946.187	0.01797352
946.353	0.01735823
946.52	0.01776489
946.687	0.01821081
946.854	0.01776217
947.021	0.01839768
947.187	0.01869386
947.354	0.01853331
947.521	0.01871333
947.687	0.01909484
947.854	0.01936237
948.021	0.01922612
948.187	0.01821586
948.354	0.01841534
948.52	0.01834115
948.687	0.01878834
948.854	0.01809262
949.02	0.01714471
949.187	0.01714702
949.353	0.01685768
949.52	0.0169473
949.686	0.0165646
949.852	0.01570992
950.019	0.01594916
950.185	0.01640297
950.352	0.01581836
950.518	0.01572108
950.684	0.01537646
950.851	0.01528391
951.017	0.01546091
951.183	0.01542007
951.349	0.01471182
951.516	0.01430998
951.682	0.01412189
951.848	0.01383028
952.014	0.01345219
952.18	0.01341401
952.346	0.01331398
952.512	0.01373189
952.679	0.01386123
952.845	0.01447616
953.011	0.01431312
953.177	0.01494564
953.343	0.0149871
953.509	0.01461418
953.675	0.01424513
953.841	0.01421218
954.007	0.01306449
954.172	0.01312464
954.338	0.01224579
954.504	0.01195824
954.67	0.0120817
954.836	0.0118047
955.002	0.01197753
955.167	0.01233509
955.333	0.01244949
955.499	0.01258202
955.665	0.01230932
955.83	0.01216316
955.996	0.01210328
956.162	0.01207057
956.327	0.0123136
956.493	0.01209423
956.659	0.01199611
956.824	0.01198857
956.99	0.01196469
957.155	0.01196819
957.321	0.0112677
957.486	0.01092607
957.652	0.01065753
957.817	0.01101331
957.983	0.01099417
958.148	0.0109263
958.314	0.01092142
958.479	0.01096117
958.644	0.01079587
958.81	0.01105109
958.975	0.01062925
959.14	0.01047531
959.306	0.01046798
959.471	0.01029484
959.636	0.01048129
959.801	0.01027308
959.967	0.00976819
960.132	0.00954688
960.297	0.00955278
960.462	0.00973241
960.627	0.00967633
960.792	0.00974571
960.957	0.00988364
961.123	0.01034735
961.288	0.01041012
961.453	0.01051893
961.618	0.01001844
961.783	0.01039409
961.948	0.01018427
962.113	0.01010772
962.277	0.00978917
962.442	0.00980781
962.607	0.00968102
962.772	0.00977911
962.937	0.00923367
963.102	0.0094203
963.267	0.00970177
963.431	0.00978065
963.596	0.00976842
963.761	0.00978337
963.926	0.00969939
964.09	0.00988938
964.255	0.00972352
964.42	0.00973687
964.584	0.00954502
964.749	0.00945428
964.914	0.00899037
965.078	0.00876846
965.243	0.00838767
965.407	0.00812251
965.572	0.00772431
965.736	0.00758891
965.901	0.00775354
966.065	0.00791265
966.23	0.00774465
966.394	0.00781865
966.559	0.00772406
966.723	0.00812847
966.887	0.00813543
967.052	0.00809209
967.216	0.00801697
967.38	0.00841201
967.545	0.0086929
967.709	0.00901448
967.873	0.00886598
968.037	0.00916187
968.202	0.00878777
968.366	0.0085201
968.53	0.00856469
968.694	0.00853278
968.858	0.00823772
969.022	0.0080802
969.187	0.00788322
969.351	0.00777613
969.515	0.00814753
969.679	0.00766796
969.843	0.00742153
970.007	0.00714574
970.171	0.00699904
970.335	0.00690818
970.499	0.00713779
970.662	0.00694832
970.826	0.00717411
970.99	0.00753157
971.154	0.00754944
971.318	0.008018
971.482	0.00780484
971.645	0.00792409
971.809	0.00784969
971.973	0.0081189
972.137	0.00792916
972.3	0.00802239
972.464	0.00746424
972.628	0.00748911
972.791	0.00743676
972.955	0.00761064
973.119	0.00746294
973.282	0.00741387
973.446	0.00753048
973.609	0.00774934
973.773	0.00806029
973.936	0.00816222
974.1	0.00803531
974.263	0.00767371
974.427	0.00779924
974.59	0.00753824
974.754	0.00733172
974.917	0.00708499
975.08	0.00693593
975.244	0.00718548
975.407	0.00766746
975.57	0.00729108
975.734	0.00750691
975.897	0.00773256
976.06	0.00792204
976.223	0.00824276
976.387	0.00760716
976.55	0.00737093
976.713	0.00734935
976.876	0.00742066
977.039	0.00732974
977.202	0.00707846
977.365	0.00660546
977.528	0.00711154
977.692	0.00679402
977.855	0.00724663
978.018	0.00739723
978.181	0.00737107
978.344	0.00767289
978.506	0.00808284
978.669	0.00756884
978.832	0.00736239
978.995	0.006802
979.158	0.00660381
979.321	0.0063792
979.484	0.00591235
979.646	0.00554072
979.809	0.00617538
979.972	0.00653996
980.135	0.0068224
980.297	0.00662699
980.46	0.00700484
980.623	0.00774931
980.786	0.00751458
980.948	0.00718602
981.111	0.00750421
981.273	0.00788643
981.436	0.00821945
981.599	0.00814195
981.761	0.00753042
981.924	0.00794494
982.086	0.00789118
982.249	0.00759112
982.411	0.00729971
982.573	0.00677813
982.736	0.00709529
982.898	0.00699701
983.061	0.00661188
983.223	0.00657591
983.385	0.00621081
983.548	0.00551662
983.71	0.00566444
983.872	0.00528886
984.034	0.00565893
984.197	0.0059202
984.359	0.00600224
984.521	0.00654025
984.683	0.00701266
984.845	0.00674206
985.008	0.00630872
985.17	0.00598953
985.332	0.00623233
985.494	0.00615364
985.656	0.00596011
985.818	0.00586169
985.98	0.00663758
986.142	0.00688327
986.304	0.00638138
986.466	0.00593812
986.628	0.00615834
986.79	0.00588278
986.952	0.00625453
987.113	0.00547283
987.275	0.00545517
987.437	0.00586788
987.599	0.00585683
987.761	0.00567304
987.922	0.00587226
988.084	0.00516159
988.246	0.0054094
988.408	0.00515357
988.569	0.00546384
988.731	0.00544133
988.893	0.0051938
989.054	0.00518495
989.216	0.00585777
989.377	0.00597964
989.539	0.00634478
989.701	0.00585596
989.862	0.00575029
990.024	0.00577856
990.185	0.00552318
990.347	0.00478338
990.508	0.00486333
990.669	0.00438319
990.831	0.00443356
990.992	0.00464206
991.154	0.00464163
991.315	0.00504646
991.476	0.00579321
991.638	0.00592065
991.799	0.0065986
991.96	0.00685821
992.121	0.00706979
992.283	0.00719206
992.444	0.00711409
992.605	0.0064766
992.766	0.00639852
992.927	0.00584234
993.088	0.00586722
993.249	0.00581099
993.41	0.00552236
993.572	0.00530296
993.733	0.00559047
993.894	0.00558746
994.055	0.00562946
994.216	0.00585812
994.376	0.0048799
994.537	0.0053155
994.698	0.00510606
994.859	0.005282
995.02	0.00500469
995.181	0.00490532
995.342	0.0043497
995.503	0.00495096
995.663	0.00505293
995.824	0.00536768
995.985	0.00526914
996.146	0.00518102
996.306	0.00553723
996.467	0.005325
996.628	0.00544838
996.788	0.00511574
996.949	0.00579454
997.11	0.00603863
997.27	0.00651149
997.431	0.00696863
997.591	0.00739479
997.752	0.00749819
997.912	0.00734963
998.073	0.00656569
998.233	0.00605596
998.394	0.00590949
998.554	0.00492646
998.714	0.00506788
998.875	0.0055919
999.035	0.00661086
999.196	0.00697764
999.356	0.00687738
999.516	0.00701204
999.676	0.00729463
999.837	0.0074706
999.997	0.00721447
1000.157	0.00609478
1000.317	0.00598208
1000.477	0.00670364
1000.638	0.00645895
1000.798	0.00711697
1000.958	0.00725738
1001.118	0.00669224
1001.278	0.00683512
1001.438	0.00702887
1001.598	0.00686306
1001.758	0.00612924
1001.918	0.00562473
1002.078	0.00503172
1002.238	0.00545635
1002.398	0.00611432
1002.558	0.00566745
1002.718	0.00538602
1002.878	0.00649877
1003.037	0.00665184
1003.197	0.00710031
1003.357	0.00696413
1003.517	0.00588781
1003.677	0.00558045
1003.836	0.0060825
1003.996	0.00565858
1004.156	0.00560436
1004.315	0.00534422
1004.475	0.00559722
1004.635	0.00648163
1004.794	0.00750414
1004.954	0.00762112
1005.114	0.00736513
1005.273	0.00827264
1005.433	0.0083876
1005.592	0.00855735
1005.752	0.00799456
1005.911	0.00695173
1006.071	0.00672715
1006.23	0.00799737
1006.389	0.00770218
1006.549	0.0077748
1006.708	0.00660071
1006.868	0.00708944
1007.027	0.00842902
1007.186	0.00894115
1007.345	0.00845745
1007.505	0.00727993
1007.664	0.00797013
1007.823	0.00904231
1007.982	0.00889846
1008.142	0.00956969
1008.301	0.00780697
1008.46	0.00794591
1008.619	0.0096544
1008.778	0.00871312
1008.937	0.0094769
1009.096	0.01023812
1009.255	0.00958472
1009.414	0.01038543
1009.573	0.00914003
1009.732	0.00734599
1009.891	0.00790565
1010.05	0.0071165
1010.209	0.00721333
1010.368	0.0062867
1010.527	0.00598704
1010.686	0.00757693
1010.845	0.00756164
1011.003	0.00718065
1011.162	0.00528508
1011.321	0.00425316
1011.48	0.0042272
1011.638	0.00443566
1011.797	0.0054103
1011.956	0.00671897
1012.115	0.00623702
1012.273	0.00729499
1012.432	0.00683648
1012.59	0.00766428
1012.749	0.00886432
1012.908	0.00885587
1013.066	0.00958582
1013.225	0.01048488
1013.383	0.01206609
1013.542	0.01334097
1013.7	0.01492794
1013.859	0.0142747
1014.017	0.01253214
1014.175	0.01069483
1014.334	0.01113273
1014.492	0.0115946
1014.65	0.01296265
1014.809	0.01062183
1014.967	0.00993863
1015.125	0.01115301
1015.284	0.0117263
1015.442	0.01140395
1015.6	0.00965543
1015.758	0.0085944
1015.916	0.01145517
1016.075	0.01174673
1016.233	0.0121448
1016.391	0.01152536
1016.549	0.01196696
1016.707	0.013191
1016.865	0.0165165
1017.023	0.01408189
1017.181	0.0158648
1017.339	0.01628103
1017.497	0.01678662
1017.655	0.0172247
1017.813	0.01710155
1017.971	0.01361268
1018.129	0.01470089
1018.286	0.01484432
1018.444	0.01461627
1018.602	0.01430399
1018.76	0.01316188
1018.918	0.0142439
1019.075	0.01355844
1019.233	0.01360863
1019.391	0.01262651
1019.549	0.013683
1019.706	0.01407115
1019.864	0.01507821
1020.022	0.01454073
1020.179	0.01784038
1020.337	0.01616546
1020.494	0.01650264
1020.652	0.01434015
1020.809	0.01523078
1020.967	0.01432346
1021.124	0.01497495
1021.282	0.01435613
1021.439	0.01469401
1021.597	0.01428402
1021.754	0.01398763
1021.911	0.01639141
1022.069	0.01604014
1022.226	0.01783452
1022.384	0.01732962
1022.541	0.0177735
1022.698	0.01582825
1022.855	0.01534721
1023.013	0.01391171
1023.17	0.01457157
1023.327	0.01459577
1023.484	0.01605709
1023.641	0.01401212
1023.798	0.01735249
1023.956	0.02195433
1024.113	0.02261024
1024.27	0.02216945
1024.427	0.01505744
1024.584	0.01444237
1024.741	0.01519657
1024.898	0.01784028
1025.055	0.01284663
1025.212	0.00996688
1025.369	0.00920921
1025.525	0.01480876
1025.682	0.01508347
1025.839	0.01878401
1025.996	0.01402648
1026.153	0.01556361
1026.31	0.02172577
1026.466	0.02216624
1026.623	0.02049448
1026.78	0.02214438
1026.937	0.02062102
1027.093	0.02509396
1027.25	0.02710225
1027.407	0.0215782
1027.563	0.0239025
1027.72	0.02313732
1027.876	0.01551486
1028.033	0.0148578
1028.19	0.01296312
1028.346	0.01034419
1028.503	0.00846245
1028.659	0.00900862
1028.816	0.00707779
1028.972	0.01257673
1029.128	0.01827143
1029.285	0.02055362
1029.441	0.0240101
1029.598	0.02660274
1029.754	0.02441624
1029.91	0.03397949
1030.067	0.03266425
1030.223	0.03044238
1030.379	0.02467967
1030.535	0.02312174
1030.691	0.02467247
1030.848	0.02968127
1031.004	0.0196695
1031.16	0.02237609
1031.316	0.02218752
1031.472	0.02960809
1031.628	0.03395891
1031.784	0.03515892
1031.94	0.0389872
1032.096	0.04296059
1032.252	0.04071556
1032.408	0.03695923
1032.564	0.0339985
1032.72	0.03207712
1032.876	0.03316583
1033.032	0.02870385
1033.188	0.02074245
1033.344	0.02243212
1033.5	0.02798477
1033.655	0.02928736
1033.811	0.03025698
1033.967	0.02717845
