Data from 0_1_mm_pl_20pc_Absorbance__0__18-07-29-571.txt Node

Date: Wed Mar 01 18:07:29 CET 2023
User: Ange
Spectrometer: FLMT08341
Trigger mode: 0
Integration Time (sec): 1.000000E-2
Scans to average: 400
Electric dark correction enabled: true
Nonlinearity correction enabled: false
Boxcar width: 3
XAxis mode: Wavelengths
Number of Pixels in Spectrum: 3648
>>>>>Begin Spectral Data<<<<<
345.271	0.0187029
345.487	0.01021035
345.704	0.01734164
345.921	0.00759649
346.137	-0.00193222
346.354	0.01243992
346.571	0.00733083
346.787	-0.10469505
347.004	0.06809499
347.22	0.07772246
347.437	-0.06190445
347.653	-0.0546265
347.87	-0.05744568
348.086	-0
348.303	-0.31242742
348.519	0.09926105
348.736	0.06927398
348.952	0.05959677
349.169	0.06645889
349.385	0.06666798
349.601	0.06457008
349.818	0.06228343
350.034	0.06098275
350.251	0.06199936
350.467	0.06399739
350.683	0.06135063
350.9	0.06138182
351.116	0.06101621
351.332	0.06219035
351.549	0.06407148
351.765	0.0650832
351.981	0.0655215
352.197	0.0666408
352.414	0.0660078
352.63	0.06972065
352.846	0.06955206
353.062	0.06687994
353.278	0.06461207
353.495	0.06493239
353.711	0.06713441
353.927	0.07015094
354.143	0.06784418
354.359	0.06857904
354.575	0.07109606
354.792	0.07398325
355.008	0.07328348
355.224	0.07348593
355.44	0.07091073
355.656	0.07190268
355.872	0.07250009
356.088	0.07446844
356.304	0.07549627
356.52	0.077313
356.736	0.07708618
356.952	0.07899141
357.168	0.07929885
357.384	0.08006164
357.6	0.07834978
357.816	0.07731275
358.032	0.07779282
358.248	0.07789161
358.464	0.07906554
358.679	0.08058765
358.895	0.0809147
359.111	0.08244755
359.327	0.08246259
359.543	0.08244492
359.759	0.08384094
359.974	0.08277533
360.19	0.08282921
360.406	0.08251823
360.622	0.08221801
360.838	0.08287507
361.053	0.08345523
361.269	0.08417524
361.485	0.08505554
361.701	0.08583057
361.916	0.08690536
362.132	0.08663945
362.348	0.08737075
362.563	0.0877478
362.779	0.08744756
362.995	0.08791159
363.21	0.08867249
363.426	0.0887556
363.641	0.08988657
363.857	0.09000778
364.073	0.09052247
364.288	0.08949722
364.504	0.09084022
364.719	0.09130994
364.935	0.09098204
365.15	0.09090966
365.366	0.09253887
365.581	0.09363663
365.797	0.0945847
366.012	0.0945148
366.228	0.0931777
366.443	0.0949264
366.658	0.09513367
366.874	0.09365307
367.089	0.09283565
367.305	0.09374344
367.52	0.09375169
367.735	0.09423648
367.951	0.09375531
368.166	0.0935357
368.381	0.09544717
368.597	0.09610006
368.812	0.09611049
369.027	0.09643094
369.243	0.09734697
369.458	0.09869014
369.673	0.09980313
369.888	0.09916591
370.104	0.09942037
370.319	0.09984909
370.534	0.10066911
370.749	0.10115222
370.964	0.10103704
371.179	0.10078306
371.395	0.10057067
371.61	0.10099478
371.825	0.10112613
372.04	0.1012272
372.255	0.1005905
372.47	0.10056654
372.685	0.10038653
372.9	0.10104128
373.115	0.10128002
373.33	0.10179058
373.545	0.10231963
373.76	0.10379082
373.975	0.10388615
374.19	0.10408506
374.405	0.10491018
374.62	0.1055473
374.835	0.10644693
375.05	0.10669694
375.265	0.10654983
375.48	0.10734825
375.695	0.1096741
375.91	0.10898571
376.125	0.10922865
376.339	0.10864556
376.554	0.10921739
376.769	0.10901586
376.984	0.10917262
377.199	0.10955822
377.414	0.10966575
377.628	0.11043921
377.843	0.11119576
378.058	0.11109009
378.273	0.11197899
378.487	0.11289676
378.702	0.11301804
378.917	0.11424277
379.131	0.11456845
379.346	0.11426807
379.561	0.11388022
379.775	0.11419131
379.99	0.11343999
380.205	0.11244929
380.419	0.11206956
380.634	0.11107931
380.848	0.11262846
381.063	0.11395402
381.278	0.11509962
381.492	0.11528233
381.707	0.11622978
381.921	0.1165151
382.136	0.11800715
382.35	0.11736121
382.565	0.11723996
382.779	0.11727809
382.994	0.11771818
383.208	0.1180928
383.422	0.11997304
383.637	0.12005417
383.851	0.12172124
384.066	0.12278979
384.28	0.12316527
384.494	0.1236443
384.709	0.12386719
384.923	0.12402125
385.137	0.12350844
385.352	0.12310816
385.566	0.12274945
385.78	0.12288606
385.995	0.1226766
386.209	0.12254723
386.423	0.12262313
386.637	0.12360443
386.852	0.1234871
387.066	0.12397554
387.28	0.12331685
387.494	0.12402328
387.708	0.12478491
387.923	0.12486952
388.137	0.12579718
388.351	0.12622656
388.565	0.12688032
388.779	0.12850284
388.993	0.12958637
389.207	0.12984235
389.421	0.13035827
389.635	0.12982497
389.85	0.12979466
390.064	0.12981731
390.278	0.1296344
390.492	0.12980722
390.706	0.13050101
390.92	0.13038326
391.134	0.13117571
391.348	0.13223348
391.561	0.13246484
391.775	0.13255677
391.989	0.13237964
392.203	0.13321535
392.417	0.13407828
392.631	0.13489783
392.845	0.13498314
393.059	0.13558682
393.273	0.13570908
393.486	0.13549838
393.7	0.13484507
393.914	0.13514046
394.128	0.13441475
394.342	0.13434068
394.555	0.13421543
394.769	0.13460002
394.983	0.13496241
395.197	0.13545306
395.41	0.13510531
395.624	0.13576487
395.838	0.13580271
396.051	0.13620057
396.265	0.13581276
396.479	0.13651804
396.692	0.13672312
396.906	0.13692799
397.12	0.1372942
397.333	0.13844303
397.547	0.13855617
397.76	0.13965172
397.974	0.13988051
398.187	0.14028021
398.401	0.14047214
398.614	0.14040856
398.828	0.13990784
399.041	0.13989363
399.255	0.13965695
399.468	0.13962374
399.682	0.13976281
399.895	0.14050054
400.109	0.14065137
400.322	0.14070901
400.536	0.14074159
400.749	0.14108486
400.962	0.14109248
401.176	0.14090642
401.389	0.14042397
401.602	0.14024529
401.816	0.14051556
402.029	0.14075728
402.242	0.14134667
402.456	0.14117894
402.669	0.14125174
402.882	0.1410328
403.095	0.14130459
403.309	0.14148024
403.522	0.14168006
403.735	0.14090856
403.948	0.14129757
404.161	0.14184396
404.375	0.14219673
404.588	0.14222045
404.801	0.14198053
405.014	0.14183117
405.227	0.14243323
405.44	0.14285019
405.653	0.14299269
405.866	0.14287212
406.079	0.14286559
406.293	0.1429454
406.506	0.14298398
406.719	0.14268883
406.932	0.14210436
407.145	0.14146514
407.358	0.14193219
407.571	0.14153337
407.784	0.14177476
407.996	0.14212122
408.209	0.14187875
408.422	0.14199003
408.635	0.14213404
408.848	0.142092
409.061	0.14217417
409.274	0.14193331
409.487	0.14140778
409.7	0.14141846
409.912	0.14194506
410.125	0.14190294
410.338	0.14166773
410.551	0.14156159
410.764	0.14170889
410.976	0.14181864
411.189	0.14158799
411.402	0.14084445
411.615	0.14083182
411.827	0.14072296
412.04	0.1406103
412.253	0.14028308
412.465	0.1398898
412.678	0.14016006
412.891	0.14038818
413.103	0.14010766
413.316	0.13961584
413.529	0.13974601
413.741	0.13972691
413.954	0.13974052
414.166	0.13939492
414.379	0.13899464
414.591	0.13881409
414.804	0.13882105
415.016	0.13863543
415.229	0.13797511
415.441	0.13760545
415.654	0.13759356
415.866	0.13760072
416.079	0.13758411
416.291	0.1372458
416.504	0.13704132
416.716	0.13726087
416.928	0.13699138
417.141	0.13675575
417.353	0.13611587
417.566	0.1354828
417.778	0.13528908
417.99	0.13473988
418.203	0.13432275
418.415	0.13443622
418.627	0.13390607
418.839	0.13403594
419.052	0.13416217
419.264	0.13386838
419.476	0.1339467
419.688	0.13380032
419.901	0.13327748
420.113	0.13306738
420.325	0.13248628
420.537	0.13176743
420.749	0.13178907
420.961	0.13138789
421.174	0.13098713
421.386	0.13081862
421.598	0.13026605
421.81	0.13010039
422.022	0.12985956
422.234	0.12938952
422.446	0.12886217
422.658	0.12844641
422.87	0.12786311
423.082	0.1276375
423.294	0.1269609
423.506	0.12671747
423.718	0.1261686
423.93	0.12582909
424.142	0.12538983
424.354	0.12504954
424.566	0.12479439
424.778	0.12464727
424.99	0.12421363
425.202	0.1238953
425.414	0.12358974
425.625	0.12333854
425.837	0.12297633
426.049	0.12264626
426.261	0.1222667
426.473	0.12181962
426.684	0.12136595
426.896	0.12092087
427.108	0.12025951
427.32	0.11980473
427.531	0.11935081
427.743	0.11896753
427.955	0.11889566
428.167	0.11849957
428.378	0.11805199
428.59	0.1176411
428.802	0.11732873
429.013	0.11668481
429.225	0.11597604
429.436	0.11518048
429.648	0.11469396
429.86	0.11421039
430.071	0.11377218
430.283	0.11315149
430.494	0.11283789
430.706	0.11251151
430.917	0.11201587
431.129	0.11173068
431.34	0.11113681
431.552	0.1108963
431.763	0.11044163
431.975	0.11001446
432.186	0.10942164
432.398	0.10890212
432.609	0.10799794
432.821	0.1077098
433.032	0.10698815
433.243	0.10645958
433.455	0.1058771
433.666	0.10544609
433.877	0.10519191
434.089	0.10473105
434.3	0.10422472
434.511	0.10389878
434.723	0.10336871
434.934	0.10304761
435.145	0.10258497
435.356	0.10182483
435.568	0.10155387
435.779	0.10103455
435.99	0.10039049
436.201	0.09988062
436.412	0.09910436
436.624	0.09876191
436.835	0.09835999
437.046	0.09797782
437.257	0.09732496
437.468	0.09703168
437.679	0.09657154
437.89	0.09627148
438.101	0.09571764
438.312	0.09534883
438.523	0.0947775
438.734	0.09456551
438.945	0.0939557
439.156	0.09357842
439.367	0.09307445
439.578	0.0925259
439.789	0.0917922
440	0.09143993
440.211	0.09075676
440.422	0.09023265
440.633	0.08978341
440.844	0.08907899
441.055	0.08840791
441.266	0.0879981
441.477	0.08708813
441.687	0.08654545
441.898	0.08589584
442.109	0.08522248
442.32	0.08467551
442.531	0.08418755
442.741	0.08347639
442.952	0.08305301
443.163	0.0825576
443.374	0.08208724
443.584	0.08150905
443.795	0.08092458
444.006	0.0803666
444.216	0.07984328
444.427	0.0791043
444.638	0.07833302
444.848	0.07776889
445.059	0.07721097
445.27	0.07664382
445.48	0.07606669
445.691	0.07571224
445.901	0.07523205
446.112	0.07477602
446.323	0.07425451
446.533	0.07362698
446.744	0.07305092
446.954	0.07247151
447.165	0.07181174
447.375	0.07145775
447.586	0.07112291
447.796	0.07054106
448.006	0.07011772
448.217	0.06974091
448.427	0.06937676
448.638	0.06883414
448.848	0.06811
449.058	0.06754553
449.269	0.06700197
449.479	0.06646712
449.689	0.06585238
449.9	0.06526525
450.11	0.06459668
450.32	0.06431636
450.531	0.06373765
450.741	0.06335855
450.951	0.06284133
451.161	0.06241128
451.372	0.06182519
451.582	0.06161256
451.792	0.06092481
452.002	0.06051702
452.212	0.0599103
452.422	0.05935804
452.633	0.05885039
452.843	0.05850175
453.053	0.05777849
453.263	0.05755754
453.473	0.05694553
453.683	0.05654874
453.893	0.05618266
454.103	0.05571241
454.313	0.05523397
454.523	0.05489987
454.733	0.05429257
454.943	0.05392784
455.153	0.05351081
455.363	0.05310443
455.573	0.05268133
455.783	0.05228366
455.993	0.05186283
456.203	0.05143492
456.413	0.05089607
456.623	0.05056828
456.833	0.05015822
457.042	0.04986559
457.252	0.04936328
457.462	0.04893414
457.672	0.04858156
457.882	0.04833077
458.091	0.04778448
458.301	0.04738603
458.511	0.04694356
458.721	0.04655559
458.931	0.04613253
459.14	0.04570426
459.35	0.04539277
459.56	0.04497952
459.769	0.04463884
459.979	0.04416472
460.189	0.04398726
460.398	0.04366785
460.608	0.04343147
460.817	0.04291851
461.027	0.04269108
461.237	0.04231627
461.446	0.04201874
461.656	0.04157947
461.865	0.04131084
462.075	0.0408724
462.284	0.04057515
462.494	0.0402568
462.703	0.03979558
462.913	0.03942767
463.122	0.03907423
463.332	0.03875165
463.541	0.03854242
463.751	0.03822415
463.96	0.03790621
464.169	0.03768421
464.379	0.03753601
464.588	0.03730381
464.797	0.03703402
465.007	0.03665078
465.216	0.0364208
465.425	0.03611119
465.635	0.03575661
465.844	0.03552038
466.053	0.03516095
466.263	0.03484916
466.472	0.03464897
466.681	0.03439753
466.89	0.03407125
467.099	0.03396918
467.309	0.03359656
467.518	0.03335478
467.727	0.0330608
467.936	0.03269209
468.145	0.03246672
468.354	0.0322817
468.563	0.03197377
468.772	0.03170874
468.982	0.03150767
469.191	0.03131253
469.4	0.03118387
469.609	0.03101373
469.818	0.03079628
470.027	0.03052812
470.236	0.03021419
470.445	0.02994838
470.654	0.02969329
470.863	0.02941865
471.072	0.02917433
471.28	0.0289495
471.489	0.0286906
471.698	0.02861079
471.907	0.028448
472.116	0.02837561
472.325	0.02815211
472.534	0.02787141
472.743	0.02782731
472.951	0.02771643
473.16	0.02757966
473.369	0.02743653
473.578	0.02724389
473.786	0.02718106
473.995	0.02703835
474.204	0.02671561
474.413	0.02658346
474.621	0.02631586
474.83	0.0261766
475.039	0.0258808
475.247	0.02569044
475.456	0.02554839
475.665	0.02548164
475.873	0.02536007
476.082	0.02523058
476.291	0.02507444
476.499	0.02501033
476.708	0.02482367
476.916	0.02468016
477.125	0.0245411
477.333	0.02439932
477.542	0.02428321
477.75	0.02412534
477.959	0.0239509
478.167	0.02387226
478.376	0.023768
478.584	0.02358964
478.793	0.02354144
479.001	0.02342639
479.209	0.02329402
479.418	0.02317902
479.626	0.02301042
479.834	0.02284417
480.043	0.02274384
480.251	0.02253897
480.459	0.02244379
480.668	0.02240393
480.876	0.02242855
481.084	0.02239867
481.293	0.02238315
481.501	0.02226654
481.709	0.02221986
481.917	0.0221065
482.125	0.02206608
482.334	0.0219329
482.542	0.02183417
482.75	0.02181636
482.958	0.02175732
483.166	0.02173905
483.374	0.02171492
483.583	0.02167051
483.791	0.02160681
483.999	0.02165456
484.207	0.02152947
484.415	0.02145539
484.623	0.02144092
484.831	0.02136897
485.039	0.02136932
485.247	0.02131227
485.455	0.02117154
485.663	0.02109835
485.871	0.02107523
486.079	0.02093092
486.287	0.02087182
486.495	0.02075244
486.702	0.02075615
486.91	0.02073654
487.118	0.02072017
487.326	0.02069132
487.534	0.02064205
487.742	0.02069694
487.95	0.020634
488.157	0.02054516
488.365	0.02054032
488.573	0.02050332
488.781	0.02057073
488.988	0.02058293
489.196	0.0204936
489.404	0.02045494
489.612	0.02046335
489.819	0.02051841
490.027	0.02054702
490.235	0.02052851
490.442	0.02055533
490.65	0.0205475
490.857	0.02059216
491.065	0.02060318
491.273	0.02056672
491.48	0.02061705
491.688	0.02056854
491.895	0.02053114
492.103	0.02064314
492.31	0.02066441
492.518	0.02070265
492.725	0.02068824
492.933	0.0206372
493.14	0.02067396
493.348	0.02064869
493.555	0.02065139
493.763	0.0206576
493.97	0.02065393
494.177	0.02068694
494.385	0.02069937
494.592	0.02069681
494.8	0.02080255
495.007	0.0207652
495.214	0.02080786
495.422	0.02083835
495.629	0.02090458
495.836	0.02099498
496.043	0.02109082
496.251	0.02114029
496.458	0.02125887
496.665	0.02125672
496.872	0.02135284
497.08	0.02130514
497.287	0.02133309
497.494	0.02138533
497.701	0.02137399
497.908	0.02136139
498.115	0.0214632
498.322	0.02148711
498.53	0.0215453
498.737	0.02161353
498.944	0.02164522
499.151	0.02171725
499.358	0.02180519
499.565	0.02182591
499.772	0.02188511
499.979	0.02198439
500.186	0.02205557
500.393	0.02204957
500.6	0.02212359
500.807	0.02218562
501.014	0.02225952
501.221	0.02234028
501.427	0.02241668
501.634	0.02244482
501.841	0.02257679
502.048	0.02263
502.255	0.02266745
502.462	0.02278439
502.669	0.02281247
502.875	0.02289772
503.082	0.02298174
503.289	0.02305565
503.496	0.02313996
503.702	0.02325595
503.909	0.02325254
504.116	0.02332761
504.323	0.02338548
504.529	0.02344997
504.736	0.02348651
504.943	0.02354767
505.149	0.02359904
505.356	0.02368449
505.563	0.02379365
505.769	0.02383474
505.976	0.02382439
506.182	0.02396831
506.389	0.02402872
506.595	0.0240659
506.802	0.0242355
507.008	0.02433902
507.215	0.0245102
507.421	0.02471129
507.628	0.02477856
507.834	0.02494075
508.041	0.02505491
508.247	0.02510274
508.454	0.02519992
508.66	0.02522724
508.866	0.0253037
509.073	0.02540849
509.279	0.02550601
509.486	0.0256464
509.692	0.02574038
509.898	0.02586105
510.105	0.02595404
510.311	0.02605172
510.517	0.02615439
510.723	0.02620146
510.93	0.02627932
511.136	0.02639082
511.342	0.02647339
511.548	0.02660721
511.754	0.02669483
511.961	0.02681666
512.167	0.02700218
512.373	0.02710927
512.579	0.02723956
512.785	0.02739529
512.991	0.02754314
513.197	0.02768655
513.404	0.02780419
513.61	0.02791269
513.816	0.02807022
514.022	0.02822656
514.228	0.02828729
514.434	0.02839277
514.64	0.02856283
514.846	0.02865579
515.052	0.02875351
515.258	0.02885961
515.464	0.02894629
515.669	0.02908288
515.875	0.02921657
516.081	0.02932339
516.287	0.02949235
516.493	0.02966165
516.699	0.02974269
516.905	0.02985879
517.111	0.02996764
517.316	0.03007764
517.522	0.03022369
517.728	0.03035149
517.934	0.0304264
518.139	0.03060649
518.345	0.03074841
518.551	0.03091386
518.757	0.03104838
518.962	0.03113991
519.168	0.03123102
519.374	0.03140901
519.579	0.03151709
519.785	0.03166303
519.991	0.03184453
520.196	0.03199385
520.402	0.0321871
520.607	0.03235073
520.813	0.0324944
521.018	0.03267745
521.224	0.0328034
521.429	0.03291544
521.635	0.03307593
521.84	0.03316607
522.046	0.03334713
522.251	0.03351354
522.457	0.03369838
522.662	0.0338995
522.868	0.03409001
523.073	0.03423111
523.279	0.03447356
523.484	0.03460453
523.689	0.03473065
523.895	0.03488594
524.1	0.03498812
524.305	0.03514499
524.511	0.03530799
524.716	0.03542505
524.921	0.03562016
525.126	0.03582615
525.332	0.03598697
525.537	0.03625272
525.742	0.03638345
525.947	0.03657184
526.153	0.0367458
526.358	0.0369188
526.563	0.03703746
526.768	0.03714404
526.973	0.03724523
527.178	0.03741408
527.383	0.03760687
527.588	0.03777788
527.794	0.03791986
527.999	0.03810371
528.204	0.03831174
528.409	0.03845013
528.614	0.03861874
528.819	0.03875873
529.024	0.0389432
529.229	0.03912609
529.434	0.03931769
529.639	0.03945984
529.843	0.03966585
530.048	0.03985078
530.253	0.03999469
530.458	0.04014993
530.663	0.04025985
530.868	0.04043706
531.073	0.04067932
531.278	0.04087472
531.482	0.04101389
531.687	0.04123123
531.892	0.04141657
532.097	0.04166934
532.302	0.04186243
532.506	0.04207965
532.711	0.04226169
532.916	0.04246108
533.12	0.04262306
533.325	0.04279322
533.53	0.04297997
533.734	0.04321451
533.939	0.04337255
534.144	0.04357016
534.348	0.04376893
534.553	0.04398469
534.757	0.04417418
534.962	0.04437203
535.167	0.04451235
535.371	0.04471187
535.576	0.04489549
535.78	0.04513193
535.985	0.04531829
536.189	0.04555167
536.394	0.0457289
536.598	0.04592234
536.803	0.04611024
537.007	0.04631112
537.211	0.04649216
537.416	0.0467141
537.62	0.04692634
537.825	0.04715633
538.029	0.04742711
538.233	0.04760955
538.438	0.04780259
538.642	0.04798454
538.846	0.04815805
539.05	0.04831012
539.255	0.04852004
539.459	0.04868398
539.663	0.04889742
539.867	0.04912681
540.072	0.04939989
540.276	0.0496597
540.48	0.04989218
540.684	0.0500656
540.888	0.05029758
541.092	0.0505179
541.297	0.05070968
541.501	0.05085648
541.705	0.05105207
541.909	0.05126845
542.113	0.05148104
542.317	0.05164629
542.521	0.05190126
542.725	0.05213438
542.929	0.05239953
543.133	0.05263995
543.337	0.0528857
543.541	0.05314811
543.745	0.05338527
543.949	0.05355805
544.153	0.05375191
544.357	0.05393507
544.56	0.05412646
544.764	0.05434876
544.968	0.05454484
545.172	0.05474817
545.376	0.05498873
545.58	0.05520041
545.783	0.0554633
545.987	0.05570438
546.191	0.05594176
546.395	0.05619232
546.598	0.05640764
546.802	0.05665793
547.006	0.05691744
547.21	0.05709525
547.413	0.05730963
547.617	0.05751611
547.821	0.05768617
548.024	0.05792804
548.228	0.05810865
548.431	0.05831235
548.635	0.05857911
548.839	0.05880187
549.042	0.05899793
549.246	0.05924136
549.449	0.05944451
549.653	0.05965897
549.856	0.05995126
550.06	0.06013327
550.263	0.06038363
550.467	0.06065035
550.67	0.06091949
550.874	0.061155
551.077	0.06142738
551.28	0.06159067
551.484	0.06184692
551.687	0.06204197
551.891	0.06227334
552.094	0.06245491
552.297	0.06272178
552.501	0.06294164
552.704	0.06317493
552.907	0.06339792
553.11	0.06361457
553.314	0.06381203
553.517	0.06404124
553.72	0.06423321
553.923	0.06450715
554.127	0.06475145
554.33	0.06499068
554.533	0.06525738
554.736	0.0655115
554.939	0.06578764
555.142	0.06607796
555.345	0.0662482
555.549	0.06652088
555.752	0.06676005
555.955	0.06699091
556.158	0.06723699
556.361	0.06746955
556.564	0.06769195
556.767	0.06798768
556.97	0.06822586
557.173	0.06844777
557.376	0.06869877
557.579	0.06890255
557.782	0.06911476
557.984	0.06936067
558.187	0.0696037
558.39	0.06981349
558.593	0.07007799
558.796	0.07030904
558.999	0.07055235
559.202	0.07084169
559.404	0.0710888
559.607	0.07124607
559.81	0.0715403
560.013	0.07178732
560.216	0.07205745
560.418	0.07230107
560.621	0.07247875
560.824	0.07269118
561.026	0.07295395
561.229	0.07315149
561.432	0.07338498
561.634	0.07355804
561.837	0.07380247
562.04	0.07404978
562.242	0.07427806
562.445	0.07452021
562.647	0.07474804
562.85	0.07497284
563.053	0.07525101
563.255	0.0754969
563.458	0.07575436
563.66	0.07600097
563.863	0.0762571
564.065	0.07646362
564.268	0.07670693
564.47	0.07698649
564.672	0.07721195
564.875	0.0774739
565.077	0.07767927
565.28	0.07789163
565.482	0.07817634
565.684	0.07840894
565.887	0.07858028
566.089	0.07881846
566.291	0.07902297
566.494	0.07931836
566.696	0.07961955
566.898	0.07982696
567.1	0.08003841
567.303	0.08032278
567.505	0.08057166
567.707	0.08081148
567.909	0.08099566
568.111	0.08120785
568.314	0.08146285
568.516	0.08168062
568.718	0.08191996
568.92	0.08220322
569.122	0.0824168
569.324	0.08269042
569.526	0.08289981
569.728	0.08316824
569.93	0.08343599
570.132	0.08364047
570.334	0.0838473
570.536	0.08405575
570.738	0.08429555
570.94	0.08449948
571.142	0.08474551
571.344	0.08495573
571.546	0.08518942
571.748	0.08546685
571.95	0.0856789
572.152	0.08588429
572.354	0.08617506
572.555	0.08636204
572.757	0.08660424
572.959	0.08682535
573.161	0.08697294
573.363	0.08725831
573.564	0.08753724
573.766	0.08770287
573.968	0.08793099
574.17	0.08813042
574.371	0.0883217
574.573	0.08854001
574.775	0.08873775
574.976	0.0889083
575.178	0.0891363
575.38	0.08932679
575.581	0.08957708
575.783	0.08978321
575.985	0.09001878
576.186	0.09025859
576.388	0.090477
576.589	0.09067424
576.791	0.09092719
576.992	0.09118581
577.194	0.0914617
577.395	0.09166943
577.597	0.09188855
577.798	0.09209707
578	0.09232508
578.201	0.09259239
578.402	0.09274715
578.604	0.09294943
578.805	0.09319621
579.007	0.09339866
579.208	0.09366429
579.409	0.09384195
579.611	0.09396047
579.812	0.09415492
580.013	0.09436224
580.215	0.09452855
580.416	0.09473925
580.617	0.09489332
580.818	0.09514189
581.019	0.0953891
581.221	0.0956245
581.422	0.09578788
581.623	0.09595707
581.824	0.09616549
582.025	0.0964035
582.226	0.09658892
582.428	0.09679433
582.629	0.09697836
582.83	0.09722986
583.031	0.09745339
583.232	0.09767196
583.433	0.09788294
583.634	0.09811817
583.835	0.09829111
584.036	0.09847707
584.237	0.09862928
584.438	0.09881649
584.639	0.09899123
584.84	0.09917147
585.041	0.09933154
585.242	0.09953238
585.442	0.09976513
585.643	0.09997807
585.844	0.10022342
586.045	0.10042038
586.246	0.10054168
586.447	0.10067357
586.647	0.10085116
586.848	0.10100995
587.049	0.1012153
587.25	0.10135155
587.45	0.1015306
587.651	0.10173266
587.852	0.10196791
588.053	0.10217284
588.253	0.10234678
588.454	0.10249585
588.655	0.10266662
588.855	0.10284103
589.056	0.10305325
589.256	0.10324497
589.457	0.10342272
589.658	0.10360391
589.858	0.10376959
590.059	0.10394827
590.259	0.10411485
590.46	0.10426426
590.66	0.1044019
590.861	0.10453223
591.061	0.104681
591.262	0.10486835
591.462	0.1050666
591.662	0.1052178
591.863	0.10537386
592.063	0.10553361
592.264	0.10569875
592.464	0.10588123
592.664	0.10606153
592.865	0.10624121
593.065	0.10635778
593.265	0.10652293
593.465	0.10671062
593.666	0.10685213
593.866	0.10700053
594.066	0.10713492
594.266	0.10722415
594.467	0.10736472
594.667	0.10749323
594.867	0.10765263
595.067	0.10781885
595.267	0.10797402
595.467	0.1081174
595.668	0.10821888
595.868	0.10839593
596.068	0.10848401
596.268	0.10855683
596.468	0.10869472
596.668	0.10878675
596.868	0.10891066
597.068	0.10909026
597.268	0.1092308
597.468	0.10940626
597.668	0.1095743
597.868	0.10967059
598.068	0.10983391
598.268	0.10995353
598.467	0.11015379
598.667	0.11020359
598.867	0.11030891
599.067	0.11040949
599.267	0.1105055
599.467	0.11060813
599.667	0.11068144
599.866	0.11070215
600.066	0.11082701
600.266	0.11089814
600.466	0.11101129
600.665	0.11113219
600.865	0.11119381
601.065	0.11134149
601.264	0.11143258
601.464	0.11151765
601.664	0.11170744
601.863	0.11176638
602.063	0.11187595
602.263	0.11196436
602.462	0.1120288
602.662	0.11210777
602.861	0.1122753
603.061	0.11232859
603.26	0.11242824
603.46	0.11250307
603.659	0.11260166
603.859	0.11265255
604.058	0.11271674
604.258	0.1127862
604.457	0.11290029
604.657	0.11295908
604.856	0.11299262
605.056	0.11309368
605.255	0.11317916
605.454	0.11330807
605.654	0.11330411
605.853	0.11330276
606.052	0.11340323
606.252	0.11352738
606.451	0.11360993
606.65	0.11373621
606.849	0.11375878
607.049	0.11389221
607.248	0.11395878
607.447	0.11405484
607.646	0.11414938
607.845	0.11419541
608.045	0.11414637
608.244	0.11424833
608.443	0.11430087
608.642	0.11444478
608.841	0.11441632
609.04	0.11439627
609.239	0.114456
609.438	0.11450569
609.637	0.11457374
609.836	0.11457933
610.035	0.11454117
610.234	0.11464108
610.433	0.1147267
610.632	0.11472438
610.831	0.11485505
611.03	0.11484769
611.229	0.1149778
611.428	0.11505259
611.627	0.11509835
611.826	0.11519888
612.025	0.11535478
612.224	0.11542129
612.422	0.1154992
612.621	0.11552308
612.82	0.11557981
613.019	0.11565806
613.218	0.11563306
613.416	0.11557559
613.615	0.11559206
613.814	0.11561783
614.012	0.11560225
614.211	0.11558929
614.41	0.11556014
614.608	0.11553238
614.807	0.11559535
615.006	0.11563509
615.204	0.11564694
615.403	0.11571343
615.602	0.11578989
615.8	0.11588149
615.999	0.11593133
616.197	0.1159273
616.396	0.11598633
616.594	0.11593423
616.793	0.11598316
616.991	0.11594631
617.19	0.11587388
617.388	0.1159217
617.586	0.11595793
617.785	0.11589201
617.983	0.1159516
618.182	0.11591759
618.38	0.11597066
618.578	0.11600828
618.777	0.11601284
618.975	0.11596487
619.173	0.11595125
619.372	0.11595511
619.57	0.11592733
619.768	0.11594214
619.966	0.11598415
620.165	0.11594774
620.363	0.11603215
620.561	0.11597934
620.759	0.11597598
620.957	0.11601332
621.155	0.11596605
621.354	0.1158996
621.552	0.11594166
621.75	0.11585172
621.948	0.11594169
622.146	0.11595297
622.344	0.11592748
622.542	0.1159307
622.74	0.11594614
622.938	0.11587931
623.136	0.11596581
623.334	0.11592
623.532	0.11580878
623.73	0.11576305
623.928	0.11573759
624.126	0.11570117
624.324	0.11574416
624.522	0.11560234
624.719	0.11558203
624.917	0.11563476
625.115	0.11560533
625.313	0.11560389
625.511	0.11563302
625.708	0.11548786
625.906	0.1154963
626.104	0.11545305
626.302	0.11546678
626.499	0.11539994
626.697	0.11535498
626.895	0.11523255
627.093	0.11526069
627.29	0.11524124
627.488	0.11518585
627.686	0.11510056
627.883	0.11506515
628.081	0.11494144
628.278	0.11498483
628.476	0.11489632
628.673	0.11481861
628.871	0.11478896
629.068	0.1146973
629.266	0.11471684
629.463	0.11465625
629.661	0.1145894
629.858	0.114538
630.056	0.11448161
630.253	0.11441365
630.451	0.11445744
630.648	0.11434216
630.845	0.11430311
631.043	0.11424712
631.24	0.1142614
631.438	0.1142533
631.635	0.11425084
631.832	0.11410603
632.029	0.11407754
632.227	0.11406368
632.424	0.11398569
632.621	0.11389395
632.818	0.11378626
633.016	0.11373683
633.213	0.11368719
633.41	0.11369131
633.607	0.11361811
633.804	0.11354796
634.001	0.11343497
634.199	0.1134092
634.396	0.11327336
634.593	0.11317608
634.79	0.11304536
634.987	0.11295857
635.184	0.11289907
635.381	0.1128918
635.578	0.11282448
635.775	0.11277113
635.972	0.11274859
636.169	0.11269487
636.366	0.1126065
636.563	0.11250585
636.76	0.1123694
636.957	0.11230093
637.153	0.11218972
637.35	0.11211314
637.547	0.11201063
637.744	0.11195993
637.941	0.11188866
638.138	0.1118406
638.334	0.11167849
638.531	0.11163667
638.728	0.11152513
638.925	0.11148106
639.121	0.11137758
639.318	0.11129713
639.515	0.11121229
639.711	0.11118819
639.908	0.1110779
640.105	0.11099284
640.301	0.11083153
640.498	0.11073541
640.695	0.11065425
640.891	0.11057691
641.088	0.11045707
641.284	0.11035871
641.481	0.11027713
641.677	0.11025678
641.874	0.11016497
642.07	0.11008721
642.267	0.1100144
642.463	0.10990526
642.66	0.1098587
642.856	0.10974846
643.053	0.10953022
643.249	0.10942534
643.445	0.10932897
643.642	0.10921753
643.838	0.10912676
644.034	0.108994
644.231	0.10887729
644.427	0.1088654
644.623	0.10879727
644.82	0.10869766
645.016	0.1085598
645.212	0.10843104
645.408	0.10830197
645.604	0.10829053
645.801	0.10816522
645.997	0.10801354
646.193	0.10781886
646.389	0.10774273
646.585	0.10764363
646.781	0.10759256
646.977	0.10743678
647.173	0.10734772
647.37	0.10724481
647.566	0.10717348
647.762	0.10700288
647.958	0.1069678
648.154	0.10680672
648.35	0.10666972
648.546	0.106536
648.742	0.10647206
648.937	0.10630537
649.133	0.10625273
649.329	0.10615246
649.525	0.10606079
649.721	0.10597172
649.917	0.10592628
650.113	0.10576655
650.309	0.10576084
650.504	0.10563379
650.7	0.10544025
650.896	0.10532979
651.092	0.10519004
651.287	0.10502313
651.483	0.10498744
651.679	0.10481482
651.875	0.10473373
652.07	0.10463049
652.266	0.10456739
652.462	0.10447125
652.657	0.10434207
652.853	0.10417685
653.048	0.10406315
653.244	0.10387633
653.44	0.1037895
653.635	0.10357233
653.831	0.10349139
654.026	0.10336524
654.222	0.10320912
654.417	0.10313397
654.613	0.10303284
654.808	0.10287089
655.004	0.10276385
655.199	0.10258983
655.394	0.10249017
655.59	0.1024407
655.785	0.10225528
655.98	0.10217171
656.176	0.10206041
656.371	0.10202731
656.566	0.101969
656.762	0.10180795
656.957	0.10164084
657.152	0.10153395
657.348	0.10141049
657.543	0.10126542
657.738	0.10110329
657.933	0.10089932
658.128	0.10075791
658.324	0.10059831
658.519	0.10047262
658.714	0.10031373
658.909	0.10016295
659.104	0.09999864
659.299	0.09986426
659.494	0.09972557
659.689	0.09959563
659.884	0.09949256
660.079	0.09932381
660.274	0.09921479
660.469	0.09907352
660.664	0.09900668
660.859	0.09892892
661.054	0.09885217
661.249	0.09878069
661.444	0.09866862
661.639	0.09855798
661.834	0.09844112
662.029	0.0983119
662.224	0.09819106
662.418	0.09808204
662.613	0.09787083
662.808	0.09773403
663.003	0.09762254
663.198	0.09752766
663.392	0.09739362
663.587	0.09731136
663.782	0.09712393
663.977	0.09699532
664.171	0.09690665
664.366	0.09674689
664.561	0.0965864
664.755	0.09646791
664.95	0.09626784
665.144	0.09614473
665.339	0.09603212
665.534	0.09591825
665.728	0.09579036
665.923	0.09564923
666.117	0.09548299
666.312	0.09537039
666.506	0.09528922
666.701	0.09516494
666.895	0.0950257
667.09	0.09490994
667.284	0.09484127
667.479	0.09468435
667.673	0.09455702
667.867	0.09443336
668.062	0.09432393
668.256	0.09420387
668.45	0.09410705
668.645	0.09395642
668.839	0.09391869
669.033	0.09380181
669.228	0.09365052
669.422	0.09354116
669.616	0.09339895
669.81	0.09328017
670.004	0.09309974
670.199	0.09291806
670.393	0.0927532
670.587	0.09260146
670.781	0.09241966
670.975	0.09232344
671.169	0.09216453
671.363	0.09205095
671.558	0.0919314
671.752	0.09183309
671.946	0.09171118
672.14	0.09161204
672.334	0.09144404
672.528	0.09141199
672.722	0.09129195
672.916	0.09112921
673.11	0.09099907
673.304	0.09093016
673.497	0.09075879
673.691	0.09068365
673.885	0.0904477
674.079	0.09036583
674.273	0.09025623
674.467	0.0901559
674.661	0.09004329
674.854	0.08999368
675.048	0.0898308
675.242	0.08973396
675.436	0.08957618
675.629	0.08950468
675.823	0.08935187
676.017	0.08922641
676.211	0.08904866
676.404	0.08897018
676.598	0.08890248
676.792	0.08882602
676.985	0.08870497
677.179	0.08860291
677.372	0.0884479
677.566	0.08837139
677.76	0.08827465
677.953	0.08812907
678.147	0.08805874
678.34	0.08796742
678.534	0.08786154
678.727	0.0877988
678.921	0.08773048
679.114	0.0875578
679.307	0.0874183
679.501	0.08727262
679.694	0.08717841
679.888	0.08707151
680.081	0.08692229
680.274	0.08673806
680.468	0.08667344
680.661	0.08661552
680.854	0.0865475
681.048	0.08643631
681.241	0.08634877
681.434	0.08625884
681.627	0.0861443
681.821	0.08600251
682.014	0.08589658
682.207	0.08566663
682.4	0.08552026
682.593	0.08540446
682.786	0.08528253
682.98	0.08519067
683.173	0.08510847
683.366	0.08496149
683.559	0.08487725
683.752	0.08476152
683.945	0.08462391
684.138	0.08456088
684.331	0.08447179
684.524	0.08437282
684.717	0.08422935
684.91	0.08416848
685.103	0.08405355
685.296	0.08394913
685.489	0.08379804
685.682	0.0836537
685.874	0.08353059
686.067	0.08346792
686.26	0.08336618
686.453	0.08324688
686.646	0.0831593
686.839	0.08309764
687.031	0.08302816
687.224	0.08287152
687.417	0.08280275
687.61	0.08267495
687.802	0.08258316
687.995	0.08246655
688.188	0.08235844
688.38	0.08224207
688.573	0.08222075
688.766	0.08209033
688.958	0.08200126
689.151	0.08188308
689.343	0.08183538
689.536	0.0817189
689.729	0.08164908
689.921	0.08157302
690.114	0.08144377
690.306	0.08135105
690.499	0.08132612
690.691	0.08123741
690.884	0.08118877
691.076	0.0810878
691.268	0.08094376
691.461	0.08087162
691.653	0.08084421
691.846	0.0807462
692.038	0.08063344
692.23	0.08049509
692.423	0.08040449
692.615	0.08033264
692.807	0.08028346
692.999	0.08013951
693.192	0.08003829
693.384	0.07994324
693.576	0.07983488
693.768	0.07977932
693.961	0.07963841
694.153	0.0794943
694.345	0.07942099
694.537	0.07932113
694.729	0.07922183
694.921	0.07916067
695.113	0.07907463
695.305	0.0790096
695.498	0.07891529
695.69	0.07883907
695.882	0.07872999
696.074	0.07867951
696.266	0.07857539
696.458	0.07845086
696.65	0.07837572
696.842	0.07836272
697.033	0.07826742
697.225	0.07823872
697.417	0.07816128
697.609	0.07810744
697.801	0.0780855
697.993	0.07806594
698.185	0.07799574
698.376	0.0779564
698.568	0.07782992
698.76	0.07779282
698.952	0.07773697
699.144	0.07760602
699.335	0.07750977
699.527	0.07742498
699.719	0.0773469
699.91	0.07737949
700.102	0.07725345
700.294	0.07714609
700.485	0.07710657
700.677	0.0770513
700.869	0.07701529
701.06	0.0769908
701.252	0.07689807
701.443	0.07683084
701.635	0.07674653
701.826	0.0767066
702.018	0.07664336
702.209	0.07656903
702.401	0.07642278
702.592	0.07634501
702.784	0.07629149
702.975	0.07623413
703.166	0.07614684
703.358	0.07604226
703.549	0.07596642
703.741	0.07590215
703.932	0.07582307
704.123	0.07577976
704.315	0.07575786
704.506	0.0756966
704.697	0.07565339
704.888	0.07555613
705.08	0.0754958
705.271	0.07539893
705.462	0.07528297
705.653	0.0752355
705.844	0.07515277
706.035	0.07503388
706.227	0.07499197
706.418	0.07494963
706.609	0.07489037
706.8	0.07485508
706.991	0.07470932
707.182	0.07470676
707.373	0.07468947
707.564	0.07461004
707.755	0.07455004
707.946	0.07454995
708.137	0.07453288
708.328	0.07452219
708.519	0.07445022
708.71	0.07443615
708.901	0.07440961
709.092	0.07435681
709.283	0.07425958
709.473	0.07415014
709.664	0.07415575
709.855	0.074048
710.046	0.07398164
710.237	0.07392036
710.427	0.07384572
710.618	0.07381182
710.809	0.07377703
711	0.07368886
711.19	0.07364031
711.381	0.07365276
711.572	0.07361682
711.762	0.07362124
711.953	0.07359758
712.144	0.07356565
712.334	0.07352294
712.525	0.07349669
712.715	0.07340151
712.906	0.07334433
713.097	0.07326723
713.287	0.0732283
713.478	0.07319147
713.668	0.07317348
713.859	0.07317319
714.049	0.07314035
714.239	0.07317097
714.43	0.07315788
714.62	0.07307813
714.811	0.07305165
715.001	0.07297145
715.191	0.07289847
715.382	0.0728314
715.572	0.07271613
715.762	0.07264513
715.953	0.07260589
716.143	0.0725341
716.333	0.07249973
716.523	0.0724886
716.714	0.07245919
716.904	0.07244418
717.094	0.07244641
717.284	0.07244763
717.474	0.07245993
717.664	0.07247857
717.855	0.07243349
718.045	0.0724242
718.235	0.07240779
718.425	0.07236741
718.615	0.07230223
718.805	0.07226113
718.995	0.07221947
719.185	0.07225387
719.375	0.07225745
719.565	0.07223121
719.755	0.07219589
719.945	0.07217358
720.135	0.07212173
720.325	0.07210739
720.515	0.07205597
720.704	0.07198962
720.894	0.07196541
721.084	0.07196827
721.274	0.07195192
721.464	0.0719459
721.654	0.07194013
721.843	0.07187227
722.033	0.07186979
722.223	0.07181587
722.413	0.07179967
722.602	0.0718539
722.792	0.07182867
722.982	0.07175338
723.171	0.07177775
723.361	0.07174257
723.55	0.07173575
723.74	0.07170626
723.93	0.07164646
724.119	0.07166492
724.309	0.07169835
724.498	0.07168061
724.688	0.07164535
724.877	0.07168177
725.067	0.07166544
725.256	0.07160045
725.446	0.07152773
725.635	0.07141438
725.825	0.07134049
726.014	0.07131442
726.203	0.07123515
726.393	0.0711892
726.582	0.07118302
726.771	0.07118979
726.961	0.07120546
727.15	0.0712099
727.339	0.07112698
727.529	0.07109916
727.718	0.07105076
727.907	0.07100918
728.096	0.07092057
728.286	0.07093172
728.475	0.07086985
728.664	0.07088266
728.853	0.0707988
729.042	0.07076899
729.231	0.07079896
729.42	0.07077792
729.609	0.0706729
729.799	0.07062149
729.988	0.07058638
730.177	0.07060889
730.366	0.07058684
730.555	0.07047424
730.744	0.07045877
730.933	0.07046006
731.122	0.0704669
731.31	0.07044794
731.499	0.07039812
731.688	0.07035482
731.877	0.07034723
732.066	0.07032445
732.255	0.07028637
732.444	0.0702199
732.632	0.07016395
732.821	0.07015616
733.01	0.07016128
733.199	0.07012274
733.388	0.07006218
733.576	0.07002517
733.765	0.07001991
733.954	0.07003235
734.142	0.06996692
734.331	0.06990306
734.52	0.06990836
734.708	0.06990335
734.897	0.06984658
735.086	0.06988048
735.274	0.06979808
735.463	0.0697929
735.651	0.06974912
735.84	0.06968333
736.028	0.0696515
736.217	0.06967898
736.405	0.06961079
736.594	0.06966404
736.782	0.06963245
736.971	0.06962776
737.159	0.06962317
737.347	0.06962832
737.536	0.06962138
737.724	0.06959378
737.912	0.06953532
738.101	0.0695403
738.289	0.06951805
738.477	0.06950359
738.666	0.06948739
738.854	0.06946148
739.042	0.06943045
739.23	0.06940601
739.418	0.06938756
739.607	0.06939191
739.795	0.06936248
739.983	0.06933557
740.171	0.06931013
740.359	0.06929437
740.547	0.0693297
740.735	0.06929173
740.923	0.06923041
741.112	0.06916677
741.3	0.06913852
741.488	0.06909152
741.676	0.06907945
741.864	0.06903102
742.052	0.06901258
742.239	0.06907135
742.427	0.06909851
742.615	0.06906845
742.803	0.06908034
742.991	0.06901911
743.179	0.06899244
743.367	0.06899947
743.555	0.0689471
743.742	0.06895413
743.93	0.06895181
744.118	0.0688971
744.306	0.06893018
744.494	0.06890632
744.681	0.06888538
744.869	0.06888021
745.057	0.06885932
745.244	0.06885218
745.432	0.06887507
745.62	0.06883748
745.807	0.06886489
745.995	0.06880397
746.182	0.06877045
746.37	0.06874485
746.558	0.06867201
746.745	0.06866047
746.933	0.06862724
747.12	0.06854003
747.308	0.06858449
747.495	0.06858685
747.683	0.06855027
747.87	0.0686065
748.057	0.0685645
748.245	0.06855614
748.432	0.06855512
748.62	0.06852898
748.807	0.06848857
748.994	0.06848979
749.182	0.06844266
749.369	0.06840789
749.556	0.06840931
749.743	0.06844097
749.931	0.06840614
750.118	0.06841886
750.305	0.06842097
750.492	0.06840891
750.68	0.06840056
750.867	0.06833306
751.054	0.06827807
751.241	0.06828744
751.428	0.068261
751.615	0.06824522
751.802	0.06824536
751.989	0.06825982
752.176	0.06832054
752.363	0.06831491
752.55	0.06827317
752.737	0.06824133
752.924	0.06821084
753.111	0.06821089
753.298	0.06818186
753.485	0.06814147
753.672	0.06810258
753.859	0.06809206
754.046	0.06806599
754.233	0.06798867
754.42	0.06790972
754.606	0.06785799
754.793	0.06783984
754.98	0.06784421
755.167	0.06779786
755.353	0.06775933
755.54	0.06777573
755.727	0.06779628
755.914	0.06776456
756.1	0.06776116
756.287	0.06772826
756.474	0.06771544
756.66	0.06768569
756.847	0.06766164
757.033	0.06760131
757.22	0.06761157
757.407	0.06760281
757.593	0.06760924
757.78	0.06761137
757.966	0.06767086
758.153	0.06770658
758.339	0.06766115
758.526	0.06762467
758.712	0.06757428
758.898	0.06754469
759.085	0.06755338
759.271	0.06750055
759.458	0.06747176
759.644	0.06751994
759.83	0.06756566
760.017	0.06757353
760.203	0.06750294
760.389	0.06740231
760.576	0.06732787
760.762	0.0672379
760.948	0.06719824
761.134	0.06713854
761.32	0.06708471
761.507	0.06706077
761.693	0.06702474
761.879	0.06703474
762.065	0.06702528
762.251	0.06702583
762.437	0.06701728
762.623	0.06696555
762.809	0.06695844
762.995	0.06697321
763.181	0.06694346
763.367	0.06697115
763.553	0.066925
763.739	0.06689499
763.925	0.06684198
764.111	0.0667819
764.297	0.06674143
764.483	0.06668611
764.669	0.06655133
764.855	0.06649497
765.041	0.06641767
765.227	0.06636868
765.412	0.0663245
765.598	0.06627278
765.784	0.06625805
765.97	0.0662873
766.156	0.06626886
766.341	0.0662175
766.527	0.06625023
766.713	0.06627877
766.898	0.06629095
767.084	0.0662503
767.27	0.06619053
767.455	0.06616797
767.641	0.06620562
767.827	0.06616282
768.012	0.06609616
768.198	0.06606525
768.383	0.06602446
768.569	0.06602214
768.754	0.06598062
768.94	0.06591574
769.125	0.06581089
769.311	0.06578811
769.496	0.06571952
769.682	0.06571905
769.867	0.06571057
770.052	0.06568972
770.238	0.06569793
770.423	0.06578665
770.608	0.06576795
770.794	0.06577607
770.979	0.06573293
771.164	0.06564144
771.35	0.06559469
771.535	0.06551275
771.72	0.06545485
771.905	0.06542425
772.09	0.06537391
772.276	0.06538056
772.461	0.06540247
772.646	0.06535428
772.831	0.06533873
773.016	0.06530327
773.201	0.06524206
773.386	0.06522855
773.571	0.065174
773.756	0.06517056
773.941	0.06518655
774.126	0.0651527
774.311	0.0650776
774.496	0.06505213
774.681	0.06500569
774.866	0.06493528
775.051	0.06484636
775.236	0.06473254
775.421	0.06465967
775.606	0.06464484
775.791	0.06462062
775.976	0.06457216
776.16	0.06454324
776.345	0.06455069
776.53	0.06456479
776.715	0.06451741
776.899	0.06450951
777.084	0.06448486
777.269	0.06442648
777.454	0.06441327
777.638	0.06432425
777.823	0.06427962
778.008	0.06428695
778.192	0.06428094
778.377	0.06425027
778.561	0.06420472
778.746	0.06412765
778.931	0.06410263
779.115	0.06402114
779.3	0.06395474
779.484	0.06381649
779.669	0.06376258
779.853	0.06367266
780.037	0.06364053
780.222	0.06356098
780.406	0.06355462
780.591	0.06352675
780.775	0.06350073
780.959	0.06342739
781.144	0.06344354
781.328	0.06339376
781.512	0.06334516
781.697	0.06321071
781.881	0.06311622
782.065	0.06308337
782.249	0.06303624
782.434	0.06297562
782.618	0.06294263
782.802	0.06295259
782.986	0.06300144
783.17	0.0630129
783.354	0.06302171
783.539	0.06299727
783.723	0.06293145
783.907	0.06286409
784.091	0.06271667
784.275	0.0626058
784.459	0.06247911
784.643	0.06235493
784.827	0.06233062
785.011	0.06230403
785.195	0.0622436
785.379	0.06225399
785.563	0.06222415
785.747	0.06221796
785.93	0.06219879
786.114	0.06211604
786.298	0.0620956
786.482	0.06201053
786.666	0.06194843
786.85	0.06191854
787.033	0.06191254
787.217	0.06183
787.401	0.06179629
787.585	0.06171125
787.768	0.06173099
787.952	0.06168623
788.136	0.06160107
788.319	0.06151635
788.503	0.06144103
788.687	0.06135539
788.87	0.06131361
789.054	0.06116793
789.237	0.06108016
789.421	0.06103054
789.605	0.06097525
789.788	0.06092228
789.972	0.06084431
790.155	0.0607642
790.338	0.06076249
790.522	0.06070015
790.705	0.06060823
790.889	0.06049083
791.072	0.06044727
791.256	0.06036573
791.439	0.06030399
791.622	0.06027755
791.806	0.06030286
791.989	0.06027825
792.172	0.06027109
792.355	0.06021734
792.539	0.06019571
792.722	0.06010541
792.905	0.06002955
793.088	0.05993337
793.271	0.05992747
793.455	0.05986885
793.638	0.05983497
793.821	0.05979532
794.004	0.05983778
794.187	0.05979081
794.37	0.05972715
794.553	0.05967084
794.736	0.05957376
794.919	0.05950473
795.102	0.05944277
795.285	0.05932703
795.468	0.05923086
795.651	0.05915609
795.834	0.05911114
796.017	0.05910711
796.2	0.05901492
796.383	0.05898108
796.566	0.05897125
796.749	0.05887469
796.931	0.05884578
797.114	0.05871398
797.297	0.05863553
797.48	0.05854674
797.663	0.05845534
797.845	0.05833217
798.028	0.05836414
798.211	0.05828883
798.393	0.05822604
798.576	0.05811321
798.759	0.05807195
798.941	0.05795563
799.124	0.05786144
799.307	0.05773198
799.489	0.05763026
799.672	0.05753254
799.854	0.05750141
800.037	0.0574559
800.219	0.05739075
800.402	0.05741038
800.584	0.05741197
800.767	0.05740764
800.949	0.0573734
801.132	0.05727391
801.314	0.05713241
801.496	0.05707906
801.679	0.05693662
801.861	0.05678229
802.043	0.05666756
802.226	0.05658981
802.408	0.056588
802.59	0.05659731
802.772	0.05652482
802.955	0.05651645
803.137	0.05650958
803.319	0.05638497
803.501	0.056255
803.684	0.0561191
803.866	0.05602025
804.048	0.05591108
804.23	0.05572645
804.412	0.0556299
804.594	0.05553759
804.776	0.05554043
804.958	0.05552204
805.14	0.05546846
805.322	0.05546794
805.504	0.05552649
805.686	0.0554633
805.868	0.0554736
806.05	0.05538204
806.232	0.0552577
806.414	0.05518398
806.596	0.05510063
806.778	0.05496759
806.96	0.0548653
807.141	0.0547722
807.323	0.05471835
807.505	0.05466794
807.687	0.05455583
807.869	0.05450094
808.05	0.05447793
808.232	0.05433156
808.414	0.0542334
808.595	0.0541065
808.777	0.05401001
808.959	0.05395726
809.14	0.05386582
809.322	0.05380259
809.504	0.05383771
809.685	0.05381702
809.867	0.05380954
810.048	0.05381511
810.23	0.05376
810.411	0.05362315
810.593	0.05348418
810.774	0.05339591
810.956	0.05329193
811.137	0.05321385
811.319	0.05309855
811.5	0.05303063
811.681	0.05299446
811.863	0.05288493
812.044	0.05273083
812.225	0.05270063
812.407	0.05257453
812.588	0.05250538
812.769	0.05247668
812.951	0.05238726
813.132	0.05228087
813.313	0.05231825
813.494	0.05221276
813.675	0.05220673
813.857	0.05209722
814.038	0.05201195
814.219	0.05196563
814.4	0.05201659
814.581	0.05185979
814.762	0.05176638
814.943	0.05169965
815.124	0.05164251
815.305	0.05150484
815.486	0.0514174
815.667	0.0512755
815.848	0.05117731
816.029	0.05106737
816.21	0.05087672
816.391	0.05075083
816.572	0.05062065
816.753	0.050499
816.934	0.05041123
817.115	0.05032713
817.295	0.05024059
817.476	0.0502001
817.657	0.05012098
817.838	0.0500548
818.019	0.04996183
818.199	0.04986413
818.38	0.04987365
818.561	0.04976274
818.741	0.04970364
818.922	0.04962501
819.103	0.04956385
819.283	0.04954515
819.464	0.04949491
819.645	0.04934789
819.825	0.04930606
820.006	0.04920539
820.186	0.04914472
820.367	0.04911744
820.547	0.04902077
820.728	0.04890943
820.908	0.04888805
821.089	0.04880668
821.269	0.04872512
821.45	0.04868317
821.63	0.04858923
821.81	0.04847513
821.991	0.04839948
822.171	0.04834335
822.351	0.04824318
822.532	0.0481542
822.712	0.04801338
822.892	0.04789336
823.072	0.04777391
823.253	0.04767706
823.433	0.04752273
823.613	0.04746714
823.793	0.04740834
823.973	0.04736315
824.154	0.04732567
824.334	0.04729454
824.514	0.04729714
824.694	0.04722493
824.874	0.04716798
825.054	0.04707271
825.234	0.04692517
825.414	0.04680455
825.594	0.04671701
825.774	0.04658724
825.954	0.04654107
826.134	0.04646073
826.314	0.04638792
826.494	0.04638053
826.674	0.04629543
826.854	0.04624982
827.033	0.04605791
827.213	0.04589559
827.393	0.04577263
827.573	0.04561087
827.753	0.04545246
827.932	0.04532801
828.112	0.04521466
828.292	0.04514809
828.472	0.04503957
828.651	0.04502734
828.831	0.04499529
829.011	0.0449618
829.19	0.04497039
829.37	0.04493824
829.549	0.04494947
829.729	0.0449349
829.909	0.04476254
830.088	0.04466654
830.268	0.04452594
830.447	0.04437101
830.627	0.044225
830.806	0.04412765
830.986	0.04399542
831.165	0.04393888
831.344	0.04392582
831.524	0.0438995
831.703	0.04383029
831.883	0.04373773
832.062	0.04358791
832.241	0.04349689
832.421	0.04336297
832.6	0.04315493
832.779	0.04298585
832.958	0.0428437
833.138	0.04270358
833.317	0.04271009
833.496	0.04259523
833.675	0.04255905
833.854	0.04259859
834.034	0.0425447
834.213	0.04241454
834.392	0.0423807
834.571	0.04216286
834.75	0.04211486
834.929	0.04195003
835.108	0.04168256
835.287	0.04153255
835.466	0.0415031
835.645	0.04140422
835.824	0.04132228
836.003	0.04118536
836.182	0.04118396
836.361	0.04115436
836.54	0.04112809
836.719	0.04100458
836.897	0.0409548
837.076	0.04090781
837.255	0.04087056
837.434	0.0406439
837.613	0.04054025
837.791	0.04053464
837.97	0.04048391
838.149	0.04039596
838.328	0.04042451
838.506	0.04033642
838.685	0.04031814
838.864	0.04024552
839.042	0.04004213
839.221	0.03992188
839.4	0.0397406
839.578	0.0394464
839.757	0.03932109
839.935	0.03926059
840.114	0.03919747
840.292	0.03915965
840.471	0.03912752
840.649	0.03909284
840.828	0.0390589
841.006	0.03907188
841.185	0.03895267
841.363	0.03881409
841.541	0.03866542
841.72	0.03850311
841.898	0.03841238
842.076	0.03837241
842.255	0.03809461
842.433	0.03797243
842.611	0.03796001
842.789	0.03793113
842.968	0.0379289
843.146	0.03793932
843.324	0.03789201
843.502	0.03795354
843.68	0.03796863
843.859	0.03793519
844.037	0.03780962
844.215	0.03768527
844.393	0.03748945
844.571	0.03735975
844.749	0.03723351
844.927	0.03707663
845.105	0.03689997
845.283	0.03685336
845.461	0.03678517
845.639	0.03678581
845.817	0.03674548
845.995	0.03670514
846.173	0.03667724
846.351	0.03662597
846.529	0.0364972
846.706	0.03638258
846.884	0.0362221
847.062	0.03605648
847.24	0.03593081
847.418	0.03572525
847.595	0.03565534
847.773	0.035537
847.951	0.03554253
848.129	0.03548039
848.306	0.0354852
848.484	0.03545858
848.662	0.03546067
848.839	0.03537594
849.017	0.03540923
849.194	0.03530132
849.372	0.0352621
849.549	0.03514154
849.727	0.03499094
849.905	0.03489976
850.082	0.03476328
850.26	0.03463231
850.437	0.03447139
850.614	0.03440138
850.792	0.0342759
850.969	0.03427319
851.147	0.03418468
851.324	0.03406104
851.501	0.03401286
851.679	0.03395594
851.856	0.03376037
852.033	0.03363169
852.211	0.03347479
852.388	0.03336408
852.565	0.03329317
852.742	0.03314382
852.92	0.03307176
853.097	0.03298065
853.274	0.03297559
853.451	0.03289109
853.628	0.03285977
853.805	0.03286397
853.982	0.0328064
854.159	0.03263645
854.336	0.03255844
854.514	0.032417
854.691	0.03225592
854.868	0.03209792
855.045	0.03197068
855.221	0.03181342
855.398	0.03179275
855.575	0.03167005
855.752	0.03163428
855.929	0.03168746
856.106	0.03168827
856.283	0.03159766
856.46	0.0315335
856.637	0.03147941
856.813	0.03145837
856.99	0.03133593
857.167	0.031151
857.344	0.03097003
857.52	0.03080429
857.697	0.03070852
857.874	0.03056268
858.05	0.03047169
858.227	0.03034797
858.404	0.03027293
858.58	0.03025934
858.757	0.0303681
858.933	0.03037356
859.11	0.03034978
859.287	0.03029974
859.463	0.03033243
859.64	0.03024003
859.816	0.03009864
859.993	0.02981036
860.169	0.02971321
860.345	0.02956267
860.522	0.029421
860.698	0.02925753
860.875	0.0292381
861.051	0.02914016
861.227	0.02918825
861.404	0.02905462
861.58	0.02903974
861.756	0.02904723
861.932	0.0289773
862.109	0.02887107
862.285	0.02881702
862.461	0.02862891
862.637	0.02853595
862.813	0.02837235
862.99	0.02816807
863.166	0.02804096
863.342	0.02792557
863.518	0.02785541
863.694	0.02782678
863.87	0.02776406
864.046	0.02769198
864.222	0.02766608
864.398	0.02763428
864.574	0.02753768
864.75	0.02753571
864.926	0.02742503
865.102	0.02733747
865.278	0.02725032
865.454	0.02720408
865.63	0.02709487
865.805	0.02710689
865.981	0.02698925
866.157	0.02698059
866.333	0.02687911
866.509	0.02690979
866.684	0.02680572
866.86	0.02681936
867.036	0.02673639
867.212	0.02660662
867.387	0.02651917
867.563	0.02645629
867.739	0.02629673
867.914	0.02627155
868.09	0.02613934
868.265	0.02598574
868.441	0.02596809
868.617	0.02595592
868.792	0.02595316
868.968	0.0259641
869.143	0.02586235
869.319	0.02585938
869.494	0.02588841
869.67	0.025788
869.845	0.02564456
870.02	0.02553834
870.196	0.02542964
870.371	0.02523309
870.546	0.02505608
870.722	0.02486736
870.897	0.02475903
871.072	0.0246182
871.248	0.02450347
871.423	0.02437106
871.598	0.0244405
871.773	0.02440186
871.949	0.02431096
872.124	0.02426737
872.299	0.02433158
872.474	0.02427577
872.649	0.02424549
872.824	0.02417353
872.999	0.02414081
873.174	0.02407466
873.349	0.02401682
873.524	0.02387811
873.699	0.02372699
873.874	0.02355742
874.049	0.0234005
874.224	0.02327698
874.399	0.02324439
874.574	0.02310762
874.749	0.0231109
874.924	0.02311775
875.099	0.02316384
875.274	0.02318265
875.449	0.02308954
875.623	0.02306169
875.798	0.02308857
875.973	0.02295663
876.148	0.02286647
876.322	0.02282946
876.497	0.02266132
876.672	0.02258542
876.846	0.02246892
877.021	0.02238119
877.196	0.02232072
877.37	0.02233578
877.545	0.02220857
877.72	0.02228208
877.894	0.02234531
878.069	0.02226819
878.243	0.02215015
878.418	0.02205849
878.592	0.02190138
878.767	0.02169456
878.941	0.02148032
879.116	0.02129754
879.29	0.02124571
879.464	0.02119164
879.639	0.02109504
879.813	0.02104869
879.987	0.02107441
880.162	0.02107782
880.336	0.02101135
880.51	0.02106171
880.685	0.02099689
880.859	0.02092768
881.033	0.02089358
881.207	0.02082266
881.381	0.02072076
881.556	0.02061662
881.73	0.02044217
881.904	0.02029945
882.078	0.02023922
882.252	0.02006794
882.426	0.02002478
882.6	0.01999849
882.774	0.01995072
882.948	0.0199508
883.122	0.01998003
883.296	0.01992695
883.47	0.01991026
883.644	0.01985498
883.818	0.01971384
883.992	0.01963664
884.166	0.01942917
884.34	0.01930919
884.514	0.01919437
884.687	0.01915028
884.861	0.01892831
885.035	0.01890669
885.209	0.01891379
885.382	0.01896465
885.556	0.01902849
885.73	0.01911037
885.904	0.01911916
886.077	0.01937303
886.251	0.01931448
886.425	0.01922116
886.598	0.01917903
886.772	0.01904817
886.945	0.01889471
887.119	0.01872551
887.292	0.01850118
887.466	0.01842835
887.64	0.0183629
887.813	0.01831781
887.986	0.01829867
888.16	0.01821018
888.333	0.01820329
888.507	0.01815173
888.68	0.01814366
888.854	0.01803816
889.027	0.01782334
889.2	0.0176414
889.374	0.01763198
889.547	0.01754468
889.72	0.01749112
889.893	0.01733908
890.067	0.01731974
890.24	0.01732456
890.413	0.01725329
890.586	0.01717258
890.759	0.01719621
890.933	0.01714903
891.106	0.01725004
891.279	0.01728139
891.452	0.01722602
891.625	0.01727198
891.798	0.01723768
891.971	0.01717019
892.144	0.01707374
892.317	0.01689542
892.49	0.01666957
892.663	0.01654598
892.836	0.01643369
893.009	0.01642071
893.182	0.01623945
893.355	0.01617317
893.527	0.01607788
893.7	0.01619549
893.873	0.01619735
894.046	0.01613375
894.219	0.01602704
894.391	0.01604158
894.564	0.0160133
894.737	0.01593412
894.91	0.01572786
895.082	0.01564618
895.255	0.01557501
895.428	0.01549703
895.6	0.01536878
895.773	0.01528019
895.945	0.01530913
896.118	0.01537814
896.291	0.01540258
896.463	0.0154343
896.636	0.01539192
896.808	0.01548507
896.981	0.01548905
897.153	0.01544276
897.326	0.01537305
897.498	0.01523746
897.67	0.01507083
897.843	0.01506974
898.015	0.01491536
898.187	0.01476587
898.36	0.0147644
898.532	0.01468173
898.704	0.01472109
898.877	0.01469027
899.049	0.01469689
899.221	0.01471597
899.393	0.01477113
899.566	0.01474846
899.738	0.01476888
899.91	0.01466533
900.082	0.01464935
900.254	0.0144593
900.426	0.01426164
900.598	0.01417896
900.77	0.01400843
900.942	0.01387071
901.114	0.01375581
901.286	0.01372402
901.458	0.01364118
901.63	0.01362596
901.802	0.01352138
901.974	0.01345773
902.146	0.0135078
902.318	0.01353222
902.49	0.01342689
902.662	0.01348419
902.834	0.0135792
903.005	0.01350974
903.177	0.01338081
903.349	0.01311374
903.521	0.01300215
903.693	0.01290082
903.864	0.01272845
904.036	0.01249591
904.208	0.01254977
904.379	0.01268214
904.551	0.01275152
904.723	0.01279958
904.894	0.01284875
905.066	0.01282653
905.237	0.01293023
905.409	0.01287165
905.58	0.01272851
905.752	0.01266701
905.923	0.01246691
906.095	0.0123426
906.266	0.01222435
906.438	0.01207488
906.609	0.01191573
906.78	0.01190315
906.952	0.01177668
907.123	0.01183994
907.295	0.01189926
907.466	0.01188754
907.637	0.01182517
907.808	0.01185939
907.98	0.01177541
908.151	0.01176708
908.322	0.01169321
908.493	0.01147841
908.665	0.01142427
908.836	0.01145735
909.007	0.01137892
909.178	0.01131069
909.349	0.01116677
909.52	0.01103633
909.691	0.01106582
909.862	0.01104958
910.033	0.01093457
910.204	0.01088387
910.375	0.01095661
910.546	0.01113206
910.717	0.01125478
910.888	0.01139112
911.059	0.0114682
911.23	0.0115108
911.401	0.01156391
911.572	0.01159029
911.742	0.01153358
911.913	0.01139638
912.084	0.01123371
912.255	0.01106647
912.426	0.01085217
912.596	0.01069707
912.767	0.01046109
912.938	0.01031602
913.108	0.01022836
913.279	0.01020912
913.45	0.0103195
913.62	0.01044486
913.791	0.01046859
913.962	0.01055065
914.132	0.01054696
914.303	0.01069796
914.473	0.01064891
914.644	0.01053951
914.814	0.01043708
914.985	0.01033292
915.155	0.01013627
915.326	0.01005236
915.496	0.00985107
915.666	0.00981793
915.837	0.00969931
916.007	0.00959063
916.177	0.00961644
916.348	0.00971943
916.518	0.00976955
916.688	0.00992409
916.858	0.00990608
917.029	0.00996233
917.199	0.01006261
917.369	0.01003425
917.539	0.00990949
917.709	0.00991814
917.88	0.00978418
918.05	0.0096309
918.22	0.00951188
918.39	0.00941884
918.56	0.00933768
918.73	0.00935612
918.9	0.00912206
919.07	0.00888557
919.24	0.00894549
919.41	0.00900598
919.58	0.00904467
919.75	0.00900964
919.92	0.00904382
920.09	0.00929045
920.26	0.0094019
920.429	0.00932373
920.599	0.00936021
920.769	0.00938503
920.939	0.00933711
921.109	0.00914192
921.278	0.00883804
921.448	0.00876914
921.618	0.00870967
921.787	0.00851775
921.957	0.00845685
922.127	0.00836308
922.296	0.00836504
922.466	0.00843862
922.636	0.00846304
922.805	0.00845502
922.975	0.00849523
923.144	0.00841197
923.314	0.00849017
923.483	0.0085092
923.653	0.00834389
923.822	0.00821194
923.992	0.008234
924.161	0.00819081
924.331	0.00817716
924.5	0.00809322
924.669	0.00807355
924.839	0.00812078
925.008	0.00822994
925.177	0.00815864
925.347	0.00800837
925.516	0.00790591
925.685	0.0080339
925.854	0.00808032
926.023	0.0081204
926.193	0.0081341
926.362	0.00818157
926.531	0.00836742
926.7	0.00843514
926.869	0.00831256
927.038	0.00821062
927.207	0.00827367
927.376	0.00823459
927.545	0.00812254
927.715	0.00780838
927.884	0.00773408
928.052	0.00767968
928.221	0.00761998
928.39	0.00734954
928.559	0.00722008
928.728	0.0070979
928.897	0.00729103
929.066	0.00725843
929.235	0.00730968
929.404	0.00729707
929.572	0.00744263
929.741	0.00747325
929.91	0.00754972
930.079	0.00748945
930.247	0.00743966
930.416	0.00733047
930.585	0.00727623
930.753	0.00726162
930.922	0.00700411
931.091	0.00697014
931.259	0.0070797
931.428	0.00702037
931.596	0.00704631
931.765	0.00710382
931.934	0.00707524
932.102	0.00712277
932.27	0.00715818
932.439	0.00710382
932.607	0.0071757
932.776	0.00709919
932.944	0.00704722
933.113	0.00699722
933.281	0.00719445
933.449	0.00712174
933.618	0.00696406
933.786	0.00696238
933.954	0.00693898
934.123	0.00682167
934.291	0.00675216
934.459	0.00672599
934.627	0.00677623
934.795	0.0067801
934.964	0.0066708
935.132	0.00676531
935.3	0.00691928
935.468	0.00707189
935.636	0.00719842
935.804	0.00727632
935.972	0.00709873
936.14	0.00687902
936.308	0.00694007
936.476	0.00700795
936.644	0.00697003
936.812	0.00666945
936.98	0.00676287
937.148	0.00689239
937.316	0.00735853
937.484	0.00713284
937.652	0.00716573
937.82	0.00708711
937.987	0.00711633
938.155	0.0070463
938.323	0.00733164
938.491	0.00740859
938.658	0.0074879
938.826	0.0074417
938.994	0.00749801
939.162	0.00803433
939.329	0.00782401
939.497	0.00863507
939.665	0.00890079
939.832	0.0094067
940	0.00971909
940.167	0.01058758
940.335	0.01072636
940.502	0.0111161
940.67	0.01013471
940.837	0.01001242
941.005	0.01020894
941.172	0.00972513
941.34	0.00952621
941.507	0.00907009
941.674	0.00950157
941.842	0.00994222
942.009	0.01065584
942.177	0.01050872
942.344	0.01163391
942.511	0.01131675
942.678	0.0117752
942.846	0.01229493
943.013	0.01184241
943.18	0.01112724
943.347	0.01203084
943.514	0.01143695
943.682	0.01149689
943.849	0.01178509
944.016	0.01138212
944.183	0.01166477
944.35	0.01174203
944.517	0.01089248
944.684	0.0105624
944.851	0.01021849
945.018	0.01006383
945.185	0.00980581
945.352	0.00885773
945.519	0.00842306
945.686	0.00879962
945.853	0.00863637
946.02	0.00860318
946.187	0.00837315
946.353	0.00801542
946.52	0.00884025
946.687	0.0091738
946.854	0.00843632
947.021	0.00889209
947.187	0.0096917
947.354	0.01038341
947.521	0.01016035
947.687	0.01028583
947.854	0.01054763
948.021	0.01048893
948.187	0.01067054
948.354	0.01062648
948.52	0.01011091
948.687	0.01052876
948.854	0.01016231
949.02	0.01029748
949.187	0.01110019
949.353	0.01072726
949.52	0.01029614
949.686	0.00995568
949.852	0.00980519
950.019	0.01012064
950.185	0.00983571
950.352	0.00889523
950.518	0.00862324
950.684	0.00886507
950.851	0.00831861
951.017	0.00798418
951.183	0.00805418
951.349	0.00781008
951.516	0.00802949
951.682	0.00747322
951.848	0.00699816
952.014	0.00703832
952.18	0.00714431
952.346	0.00631524
952.512	0.00603788
952.679	0.00561685
952.845	0.00642206
953.011	0.00600927
953.177	0.006373
953.343	0.00647658
953.509	0.00643723
953.675	0.00601596
953.841	0.0062144
954.007	0.00551838
954.172	0.0054999
954.338	0.00481086
954.504	0.00481218
954.67	0.00515754
954.836	0.0055987
955.002	0.00550141
955.167	0.00523973
955.333	0.00565813
955.499	0.00603615
955.665	0.00620371
955.83	0.00598985
955.996	0.00595078
956.162	0.00567549
956.327	0.00638836
956.493	0.00613209
956.659	0.00551935
956.824	0.00507038
956.99	0.00530746
957.155	0.00504486
957.321	0.00459816
957.486	0.00451609
957.652	0.00457405
957.817	0.00517325
957.983	0.00500457
958.148	0.00498721
958.314	0.00485756
958.479	0.00526388
958.644	0.00495092
958.81	0.00481963
958.975	0.00463175
959.14	0.00461771
959.306	0.00455999
959.471	0.00488551
959.636	0.00467757
959.801	0.00447917
959.967	0.00423829
960.132	0.00415206
960.297	0.00399168
960.462	0.00417322
960.627	0.00402487
960.792	0.00429484
960.957	0.0045386
961.123	0.00483165
961.288	0.0047733
961.453	0.00542068
961.618	0.00446799
961.783	0.0044348
961.948	0.0044651
962.113	0.00429854
962.277	0.00428543
962.442	0.00441052
962.607	0.00408815
962.772	0.00477899
962.937	0.00445675
963.102	0.00436128
963.267	0.00459832
963.431	0.00458704
963.596	0.00423998
963.761	0.00397794
963.926	0.00383137
964.09	0.00398602
964.255	0.00422578
964.42	0.00429601
964.584	0.00388095
964.749	0.00400388
964.914	0.00409252
965.078	0.00362622
965.243	0.00382883
965.407	0.00348325
965.572	0.00290192
965.736	0.003344
965.901	0.00360404
966.065	0.00350675
966.23	0.00394761
966.394	0.00358692
966.559	0.00361351
966.723	0.00398957
966.887	0.00384714
967.052	0.00361784
967.216	0.00363435
967.38	0.00377664
967.545	0.00411101
967.709	0.00397643
967.873	0.00396829
968.037	0.00413157
968.202	0.00391312
968.366	0.00376313
968.53	0.00365587
968.694	0.00373598
968.858	0.00375867
969.022	0.00371358
969.187	0.00306855
969.351	0.00347926
969.515	0.0034558
969.679	0.00287141
969.843	0.00277392
970.007	0.00307179
970.171	0.00318475
970.335	0.00356605
970.499	0.00348437
970.662	0.00367634
970.826	0.00398387
970.99	0.00388613
971.154	0.00351106
971.318	0.00355727
971.482	0.0034557
971.645	0.00345981
971.809	0.00322958
971.973	0.00355316
972.137	0.00370909
972.3	0.00391923
972.464	0.00364731
972.628	0.00376914
972.791	0.00371823
972.955	0.00392138
973.119	0.0037783
973.282	0.00365242
973.446	0.00362311
973.609	0.00382541
973.773	0.00392226
973.936	0.00439469
974.1	0.00420074
974.263	0.0045104
974.427	0.00461517
974.59	0.00411396
974.754	0.0043569
974.917	0.00435834
975.08	0.00372632
975.244	0.0037499
975.407	0.00360018
975.57	0.0033412
975.734	0.00368252
975.897	0.00326253
976.06	0.00316534
976.223	0.00378591
976.387	0.0037244
976.55	0.00348571
976.713	0.00347424
976.876	0.00344836
977.039	0.00348967
977.202	0.00318948
977.365	0.00264804
977.528	0.00321864
977.692	0.0033825
977.855	0.00378057
978.018	0.00407847
978.181	0.00406245
978.344	0.00450392
978.506	0.00483963
978.669	0.00426842
978.832	0.00375783
978.995	0.00325797
979.158	0.00295199
979.321	0.00297773
979.484	0.00273441
979.646	0.00219049
979.809	0.00251788
979.972	0.00290368
980.135	0.00297498
980.297	0.00285138
980.46	0.00250585
980.623	0.00285727
980.786	0.00308569
980.948	0.00289028
981.111	0.00255267
981.273	0.00300943
981.436	0.00368094
981.599	0.00376376
981.761	0.00348547
981.924	0.00332557
982.086	0.00345157
982.249	0.00397898
982.411	0.0037777
982.573	0.00325444
982.736	0.00356031
982.898	0.00353635
983.061	0.00357367
983.223	0.00315516
983.385	0.00256177
983.548	0.00198878
983.71	0.00185951
983.872	0.00156046
984.034	0.00184398
984.197	0.0018642
984.359	0.00224771
984.521	0.00275755
984.683	0.00298339
984.845	0.00301526
985.008	0.00294263
985.17	0.00250926
985.332	0.00286958
985.494	0.0028025
985.656	0.00300952
985.818	0.00307157
985.98	0.00348506
986.142	0.00402205
986.304	0.00391877
986.466	0.00357261
986.628	0.00382882
986.79	0.00299786
986.952	0.00301622
987.113	0.00280357
987.275	0.00245158
987.437	0.00217351
987.599	0.00224752
987.761	0.00204788
987.922	0.00231594
988.084	0.00256358
988.246	0.00255549
988.408	0.00232243
988.569	0.00296292
988.731	0.00283241
988.893	0.00279892
989.054	0.00344234
989.216	0.0034206
989.377	0.00301279
989.539	0.00342365
989.701	0.00342029
989.862	0.00321629
990.024	0.00321077
990.185	0.00282376
990.347	0.00242543
990.508	0.00295422
990.669	0.00267994
990.831	0.00180094
990.992	0.00241451
991.154	0.00237061
991.315	0.00215741
991.476	0.00263417
991.638	0.00225473
991.799	0.00253048
991.96	0.00349473
992.121	0.00338673
992.283	0.00370187
992.444	0.00384123
992.605	0.00372396
992.766	0.00378503
992.927	0.00358359
993.088	0.00352909
993.249	0.00339853
993.41	0.00318101
993.572	0.00317682
993.733	0.00317456
993.894	0.00351673
994.055	0.00375807
994.216	0.0036516
994.376	0.00284847
994.537	0.00276145
994.698	0.00268801
994.859	0.00255102
995.02	0.00233569
995.181	0.0026569
995.342	0.00264035
995.503	0.00363047
995.663	0.00387297
995.824	0.00349905
995.985	0.00315031
996.146	0.00381124
996.306	0.00346534
996.467	0.00307299
996.628	0.0035678
996.788	0.004069
996.949	0.00498638
997.11	0.00582143
997.27	0.0052368
997.431	0.00624959
997.591	0.00718764
997.752	0.00643527
997.912	0.00561206
998.073	0.00493644
998.233	0.00472738
998.394	0.00427971
998.554	0.00317382
998.714	0.0029278
998.875	0.00303992
999.035	0.00395257
999.196	0.00394625
999.356	0.00341831
999.516	0.0039846
999.676	0.00305905
999.837	0.00288198
999.997	0.00299679
1000.157	0.001689
1000.317	0.00218355
1000.477	0.00329604
1000.638	0.00345652
1000.798	0.00507814
1000.958	0.00603794
1001.118	0.00598138
1001.278	0.00625325
1001.438	0.00626653
1001.598	0.00625175
1001.758	0.00542165
1001.918	0.00534117
1002.078	0.0037642
1002.238	0.00366285
1002.398	0.00435695
1002.558	0.00421664
1002.718	0.00375095
1002.878	0.0039967
1003.037	0.00382699
1003.197	0.00433676
1003.357	0.00380307
1003.517	0.0031885
1003.677	0.00200683
1003.836	0.00214103
1003.996	0.00193803
1004.156	0.00168077
1004.315	0.0018874
1004.475	0.00240586
1004.635	0.00237024
1004.794	0.0036772
1004.954	0.00361421
1005.114	0.00468945
1005.273	0.00480204
1005.433	0.0050226
1005.592	0.00519104
1005.752	0.00444974
1005.911	0.00406773
1006.071	0.00384555
1006.23	0.00353687
1006.389	0.00392398
1006.549	0.00324593
1006.708	0.00326629
1006.868	0.00428974
1007.027	0.00481436
1007.186	0.00437663
1007.345	0.00368335
1007.505	0.00367332
1007.664	0.00504643
1007.823	0.00459321
1007.982	0.00531864
1008.142	0.00702227
1008.301	0.00791963
1008.46	0.0087897
1008.619	0.00875927
1008.778	0.00751082
1008.937	0.00917942
1009.096	0.00885487
1009.255	0.00853669
1009.414	0.00679135
1009.573	0.00592961
1009.732	0.00604247
1009.891	0.00617034
1010.05	0.00459604
1010.209	0.00532182
1010.368	0.00329144
1010.527	0.00464117
1010.686	0.00410747
1010.845	0.00308836
1011.003	0.00481858
1011.162	0.00404426
1011.321	0.00319715
1011.48	0.00323958
1011.638	0.00347094
1011.797	0.00621565
1011.956	0.00679683
1012.115	0.00537383
1012.273	0.00734118
1012.432	0.00670355
1012.59	0.00683575
1012.749	0.00566806
1012.908	0.00648949
1013.066	0.00715063
1013.225	0.00634833
1013.383	0.00613156
1013.542	0.00759941
1013.7	0.00877877
1013.859	0.01036811
1014.017	0.0086738
1014.175	0.00770954
1014.334	0.0091159
1014.492	0.01065755
1014.65	0.01098568
1014.809	0.0124711
1014.967	0.01086466
1015.125	0.01042149
1015.284	0.01024384
1015.442	0.00903069
1015.6	0.00723802
1015.758	0.00646113
1015.916	0.00625541
1016.075	0.0072593
1016.233	0.00646338
1016.391	0.00624976
1016.549	0.00837023
1016.707	0.00921052
1016.865	0.01004502
1017.023	0.00837727
1017.181	0.00789859
1017.339	0.00827734
1017.497	0.0088254
1017.655	0.0081409
1017.813	0.0075917
1017.971	0.00521944
1018.129	0.0055448
1018.286	0.00903817
1018.444	0.01112615
1018.602	0.01065506
1018.76	0.01002417
1018.918	0.01127982
1019.075	0.01264663
1019.233	0.01343371
1019.391	0.00945802
1019.549	0.00917762
1019.706	0.01168949
1019.864	0.01285695
1020.022	0.01167044
1020.179	0.01159267
1020.337	0.01102334
1020.494	0.01032298
1020.652	0.01161386
1020.809	0.00976603
1020.967	0.00848493
1021.124	0.01077603
1021.282	0.00956317
1021.439	0.0098124
1021.597	0.01163146
1021.754	0.00890079
1021.911	0.00920011
1022.069	0.00992146
1022.226	0.0107394
1022.384	0.01253649
1022.541	0.0095253
1022.698	0.00955933
1022.855	0.00977001
1023.013	0.01197379
1023.17	0.00869839
1023.327	0.00872751
1023.484	0.01085556
1023.641	0.01250376
1023.798	0.0155557
1023.956	0.01965458
1024.113	0.01938728
1024.27	0.02238486
1024.427	0.0182276
1024.584	0.01579481
1024.741	0.01485738
1024.898	0.01490005
1025.055	0.00964535
1025.212	0.00418896
1025.369	0.0050086
1025.525	0.00553866
1025.682	0.00687594
1025.839	0.00952764
1025.996	0.0063561
1026.153	0.00684201
1026.31	0.00917859
1026.466	0.01170682
1026.623	0.01308982
1026.78	0.0149033
1026.937	0.01418881
1027.093	0.02066586
1027.25	0.02010353
1027.407	0.02560939
1027.563	0.02198235
1027.72	0.01832061
1027.876	0.01174861
1028.033	0.01235875
1028.19	0.00928625
1028.346	0.01268817
1028.503	0.01031583
1028.659	0.00874184
1028.816	0.00975161
1028.972	0.01705127
1029.128	0.02270895
1029.285	0.02150036
1029.441	0.0223601
1029.598	0.02106806
1029.754	0.02490638
1029.91	0.03064124
1030.067	0.02889768
1030.223	0.02339584
1030.379	0.02183763
1030.535	0.02044101
1030.691	0.02182801
1030.848	0.02405228
1031.004	0.01628317
1031.16	0.01271134
1031.316	0.01494952
1031.472	0.01731178
1031.628	0.02188743
1031.784	0.02327168
1031.94	0.0281134
1032.096	0.02923145
1032.252	0.03609666
1032.408	0.03064881
1032.564	0.02988665
1032.72	0.02655859
1032.876	0.02786311
1033.032	0.01900952
1033.188	0.01626836
1033.344	0.0136292
1033.5	0.01951836
1033.655	0.01975099
1033.811	0.01945023
1033.967	0.01416561
