Data from 0_1_mm_pl_90pc_Absorbance__0__15-55-36-546.txt Node

Date: Fri Feb 24 15:55:36 CET 2023
User: Ange
Spectrometer: FLMT08341
Trigger mode: 0
Integration Time (sec): 1.000000E-2
Scans to average: 400
Electric dark correction enabled: true
Nonlinearity correction enabled: false
Boxcar width: 3
XAxis mode: Wavelengths
Number of Pixels in Spectrum: 3648
>>>>>Begin Spectral Data<<<<<
345.271	0.04170298
345.487	0.04116925
345.704	0.01286966
345.921	0.01916323
346.137	-0.00195801
346.354	0.00492779
346.571	0.01602758
346.787	-0.0078379
347.004	-0.05440458
347.22	-0.18811769
347.437	-0.14659397
347.653	-0.49978681
347.87	0.49593015
348.086	0.0692892
348.303	-0
348.519	0.43571114
348.736	0.41647206
348.952	0.40882754
349.169	0.41726644
349.385	0.43751567
349.601	0.43558172
349.818	0.42787333
350.034	0.41942428
350.251	0.416703
350.467	0.4240051
350.683	0.41405117
350.9	0.41542656
351.116	0.41641379
351.332	0.41542991
351.549	0.42964989
351.765	0.44402269
351.981	0.44770869
352.197	0.46499725
352.414	0.48223177
352.63	0.49129337
352.846	0.50577518
353.062	0.50012685
353.278	0.48938207
353.495	0.50799787
353.711	0.51252371
353.927	0.51348604
354.143	0.51237298
354.359	0.50573545
354.575	0.50652009
354.792	0.52560613
355.008	0.51271695
355.224	0.50569173
355.44	0.50192388
355.656	0.50287516
355.872	0.51451882
356.088	0.54597767
356.304	0.54415391
356.52	0.55096053
356.736	0.55848393
356.952	0.56476305
357.168	0.56932476
357.384	0.57573363
357.6	0.55641837
357.816	0.56925774
358.032	0.57916333
358.248	0.59802661
358.464	0.59956459
358.679	0.60962745
358.895	0.61043414
359.111	0.62455381
359.327	0.61371493
359.543	0.61917157
359.759	0.62178925
359.974	0.62297159
360.19	0.61781696
360.406	0.61840016
360.622	0.6140007
360.838	0.6131967
361.053	0.6197416
361.269	0.620264
361.485	0.62941362
361.701	0.64036681
361.916	0.63597896
362.132	0.63836604
362.348	0.64610096
362.563	0.64472793
362.779	0.64331637
362.995	0.64649348
363.21	0.6545269
363.426	0.66225238
363.641	0.66779558
363.857	0.67596741
364.073	0.67641549
364.288	0.67227025
364.504	0.68554995
364.719	0.68578822
364.935	0.68650967
365.15	0.68946094
365.366	0.69176726
365.581	0.70357264
365.797	0.71080339
366.012	0.6988207
366.228	0.69267815
366.443	0.70916352
366.658	0.71268081
366.874	0.70665471
367.089	0.71242583
367.305	0.71895408
367.52	0.72709622
367.735	0.73083872
367.951	0.7222552
368.166	0.72568864
368.381	0.74174475
368.597	0.73486962
368.812	0.74139789
369.027	0.74754136
369.243	0.75419317
369.458	0.77460988
369.673	0.77915006
369.888	0.77842701
370.104	0.77577944
370.319	0.78251366
370.534	0.77921193
370.749	0.78101411
370.964	0.78026266
371.179	0.77932574
371.395	0.77513956
371.61	0.78698832
371.825	0.77525099
372.04	0.78146912
372.255	0.78045449
372.47	0.77517678
372.685	0.7710942
372.9	0.77416742
373.115	0.76919704
373.33	0.77965812
373.545	0.77940593
373.76	0.78437693
373.975	0.78281697
374.19	0.78344509
374.405	0.79010282
374.62	0.80165634
374.835	0.81246788
375.05	0.81647249
375.265	0.81826203
375.48	0.8266214
375.695	0.84990942
375.91	0.84612093
376.125	0.83454801
376.339	0.81856632
376.554	0.82441525
376.769	0.82894869
376.984	0.82834519
377.199	0.83036204
377.414	0.82732098
377.628	0.84266347
377.843	0.85629808
378.058	0.8585097
378.273	0.86769219
378.487	0.87187046
378.702	0.87110537
378.917	0.8806711
379.131	0.87459028
379.346	0.86334253
379.561	0.85611316
379.775	0.84974341
379.99	0.83967374
380.205	0.82944174
380.419	0.82340739
380.634	0.81401869
380.848	0.82479501
381.063	0.82965561
381.278	0.84060912
381.492	0.83984382
381.707	0.85238295
381.921	0.85556848
382.136	0.87365239
382.35	0.86894958
382.565	0.86392559
382.779	0.86272532
382.994	0.87083024
383.208	0.86130339
383.422	0.87296477
383.637	0.86984504
383.851	0.88043607
384.066	0.89113847
384.28	0.89454667
384.494	0.8964037
384.709	0.90716088
384.923	0.90378112
385.137	0.89801241
385.352	0.89392084
385.566	0.89873295
385.78	0.89630169
385.995	0.8933602
386.209	0.88818789
386.423	0.89540811
386.637	0.90354518
386.852	0.89707788
387.066	0.89342528
387.28	0.88518886
387.494	0.89671893
387.708	0.8997684
387.923	0.89336738
388.137	0.89712924
388.351	0.90464436
388.565	0.91142774
388.779	0.92074908
388.993	0.92738649
389.207	0.93124566
389.421	0.93757986
389.635	0.93088874
389.85	0.92877938
390.064	0.92122126
390.278	0.92316729
390.492	0.9211548
390.706	0.92033662
390.92	0.91617279
391.134	0.92554827
391.348	0.9407546
391.561	0.94080914
391.775	0.93289412
391.989	0.92216275
392.203	0.92416004
392.417	0.92771533
392.631	0.93090266
392.845	0.91920186
393.059	0.92538966
393.273	0.92508569
393.486	0.92199506
393.7	0.91274343
393.914	0.91517079
394.128	0.90721826
394.342	0.90207092
394.555	0.8899933
394.769	0.89115473
394.983	0.89524631
395.197	0.90130832
395.41	0.89929327
395.624	0.90227961
395.838	0.90274869
396.051	0.91692895
396.265	0.91068106
396.479	0.91170389
396.692	0.90989834
396.906	0.90266468
397.12	0.8985514
397.333	0.90202817
397.547	0.89320397
397.76	0.89910753
397.974	0.89706203
398.187	0.89634972
398.401	0.90080391
398.614	0.90013199
398.828	0.89906095
399.041	0.89863521
399.255	0.89561443
399.468	0.89388264
399.682	0.89143143
399.895	0.89145179
400.109	0.88827146
400.322	0.88253323
400.536	0.87463156
400.749	0.87842876
400.962	0.87763424
401.176	0.87486088
401.389	0.87018397
401.602	0.86129464
401.816	0.86314875
402.029	0.86776207
402.242	0.86123894
402.456	0.85755736
402.669	0.85092516
402.882	0.84185808
403.095	0.84830303
403.309	0.84443399
403.522	0.84271088
403.735	0.83782082
403.948	0.83588462
404.161	0.8446709
404.375	0.84743845
404.588	0.84371323
404.801	0.84309477
405.014	0.83741243
405.227	0.84110219
405.44	0.84071969
405.653	0.83754863
405.866	0.83197011
406.079	0.82922554
406.293	0.82539893
406.506	0.82502706
406.719	0.81947329
406.932	0.81537803
407.145	0.8084385
407.358	0.81263288
407.571	0.80889112
407.784	0.80753445
407.996	0.80602797
408.209	0.8008172
408.422	0.79672322
408.635	0.79557532
408.848	0.7919882
409.061	0.78589869
409.274	0.78180745
409.487	0.77733053
409.7	0.77717163
409.912	0.77739904
410.125	0.77458651
410.338	0.77052603
410.551	0.76954433
410.764	0.76704495
410.976	0.76524233
411.189	0.76141841
411.402	0.75553989
411.615	0.75418934
411.827	0.75268926
412.04	0.75128147
412.253	0.74800868
412.465	0.7437337
412.678	0.74085574
412.891	0.7405244
413.103	0.7332207
413.316	0.72940423
413.529	0.72899302
413.741	0.72873545
413.954	0.72724657
414.166	0.72547475
414.379	0.72206435
414.591	0.72316773
414.804	0.71896204
415.016	0.71512915
415.229	0.71077015
415.441	0.70642161
415.654	0.70511568
415.866	0.7030764
416.079	0.70050319
416.291	0.69817958
416.504	0.69774544
416.716	0.69600194
416.928	0.69462068
417.141	0.69050577
417.353	0.68895989
417.566	0.6838614
417.778	0.68268583
417.99	0.67561343
418.203	0.6716176
418.415	0.66893053
418.627	0.66701758
418.839	0.66355399
419.052	0.66498637
419.264	0.66210829
419.476	0.66161065
419.688	0.66017844
419.901	0.6582872
420.113	0.65488131
420.325	0.65194601
420.537	0.64665501
420.749	0.6451561
420.961	0.64360548
421.174	0.64037341
421.386	0.63624477
421.598	0.63422904
421.81	0.63151073
422.022	0.62835455
422.234	0.62502656
422.446	0.6212291
422.658	0.61877724
422.87	0.61733886
423.082	0.61460062
423.294	0.61226245
423.506	0.61108975
423.718	0.60897662
423.93	0.60571445
424.142	0.60294642
424.354	0.60020217
424.566	0.59743697
424.778	0.59546924
424.99	0.59262025
425.202	0.58885618
425.414	0.58740477
425.625	0.58580333
425.837	0.58272523
426.049	0.5814769
426.261	0.57870619
426.473	0.57573147
426.684	0.5741805
426.896	0.57252301
427.108	0.56949129
427.32	0.56832966
427.531	0.56544762
427.743	0.56346356
427.955	0.56266755
428.167	0.56029263
428.378	0.5575149
428.59	0.55586431
428.802	0.55319996
429.013	0.5507841
429.225	0.5480575
429.436	0.54496589
429.648	0.54323123
429.86	0.54160139
430.071	0.53950036
430.283	0.53776726
430.494	0.53570656
430.706	0.53406678
430.917	0.53217963
431.129	0.53024609
431.34	0.52757013
431.552	0.52570719
431.763	0.52332725
431.975	0.52211189
432.186	0.51918149
432.398	0.51735648
432.609	0.51388842
432.821	0.51196094
433.032	0.50979309
433.243	0.50761019
433.455	0.5049283
433.666	0.50381984
433.877	0.50236154
434.089	0.50047127
434.3	0.49840363
434.511	0.49577173
434.723	0.49401829
434.934	0.49166904
435.145	0.48869312
435.356	0.48597751
435.568	0.48420856
435.779	0.48197605
435.99	0.47950296
436.201	0.47715566
436.412	0.47513565
436.624	0.47393907
436.835	0.47235605
437.046	0.47111837
437.257	0.46928903
437.468	0.46846066
437.679	0.46707486
437.89	0.4654327
438.101	0.46383175
438.312	0.46203125
438.523	0.45986221
438.734	0.45798587
438.945	0.4559787
439.156	0.45371587
439.367	0.45207097
439.578	0.45040503
439.789	0.44781442
440	0.44623707
440.211	0.4444408
440.422	0.44286232
440.633	0.44120147
440.844	0.43886155
441.055	0.43669532
441.266	0.43559241
441.477	0.43336697
441.687	0.43173742
441.898	0.42988773
442.109	0.42804808
442.32	0.42667852
442.531	0.42455677
442.741	0.42200938
442.952	0.42059868
443.163	0.4188726
443.374	0.41677549
443.584	0.41487715
443.795	0.41332464
444.006	0.41192717
444.216	0.41042004
444.427	0.40798103
444.638	0.40620865
444.848	0.40453233
445.059	0.40279853
445.27	0.40087432
445.48	0.39902216
445.691	0.39762197
445.901	0.39642415
446.112	0.39477609
446.323	0.39272671
446.533	0.3911339
446.744	0.38904916
446.954	0.38722762
447.165	0.38554012
447.375	0.38405815
447.586	0.3826151
447.796	0.38143467
448.006	0.37975298
448.217	0.37872416
448.427	0.37720308
448.638	0.37551878
448.848	0.3735331
449.058	0.37158094
449.269	0.36995201
449.479	0.36839529
449.689	0.36661477
449.9	0.36521928
450.11	0.3635523
450.32	0.3624697
450.531	0.36087602
450.741	0.35919621
450.951	0.35783804
451.161	0.35633951
451.372	0.35484101
451.582	0.35411717
451.792	0.35229209
452.002	0.35083772
452.212	0.34941001
452.422	0.34786357
452.633	0.34615627
452.843	0.34481182
453.053	0.34266428
453.263	0.34127432
453.473	0.34001831
453.683	0.33869003
453.893	0.33703368
454.103	0.33596273
454.313	0.33449424
454.523	0.33293785
454.733	0.3317754
454.943	0.33047566
455.153	0.32915391
455.363	0.32791369
455.573	0.32650469
455.783	0.32510136
455.993	0.32387294
456.203	0.32255299
456.413	0.32115467
456.623	0.31978978
456.833	0.31881713
457.042	0.31743246
457.252	0.31612548
457.462	0.31471723
457.672	0.31345035
457.882	0.31214156
458.091	0.31073419
458.301	0.30896158
458.511	0.30734782
458.721	0.30607919
458.931	0.30465066
459.14	0.30321938
459.35	0.30212199
459.56	0.30092583
459.769	0.2999632
459.979	0.29866304
460.189	0.29733133
460.398	0.29627839
460.608	0.29516001
460.817	0.29376813
461.027	0.29257331
461.237	0.29118321
461.446	0.29003573
461.656	0.28895963
461.865	0.28776974
462.075	0.28647394
462.284	0.28533859
462.494	0.28407051
462.703	0.28275374
462.913	0.28176488
463.122	0.28042344
463.332	0.2790819
463.541	0.27800718
463.751	0.27676035
463.96	0.27568296
464.169	0.2745971
464.379	0.27359318
464.588	0.27251414
464.797	0.27147886
465.007	0.2703091
465.216	0.26923334
465.425	0.2681555
465.635	0.26719961
465.844	0.2659578
466.053	0.26486025
466.263	0.26386915
466.472	0.26282349
466.681	0.26183727
466.89	0.2607919
467.099	0.25978056
467.309	0.25893112
467.518	0.25804061
467.727	0.25706812
467.936	0.25608679
468.145	0.25510765
468.354	0.25428212
468.563	0.2532396
468.772	0.25218531
468.982	0.25115366
469.191	0.25033652
469.4	0.24928498
469.609	0.24834141
469.818	0.24742448
470.027	0.2464068
470.236	0.24539034
470.445	0.24441803
470.654	0.24321239
470.863	0.24222694
471.072	0.24117852
471.28	0.23996487
471.489	0.23921846
471.698	0.23818148
471.907	0.23734626
472.116	0.23659079
472.325	0.23569245
472.534	0.23495229
472.743	0.23406749
472.951	0.23335519
473.16	0.23270093
473.369	0.23184819
473.578	0.23092634
473.786	0.2301914
473.995	0.22928189
474.204	0.22854054
474.413	0.22738868
474.621	0.22649781
474.83	0.22572345
475.039	0.22491514
475.247	0.22419903
475.456	0.22354945
475.665	0.22267531
475.873	0.22193405
476.082	0.22108781
476.291	0.22032712
476.499	0.21960808
476.708	0.21865712
476.916	0.21774866
477.125	0.2170895
477.333	0.21632496
477.542	0.2155385
477.75	0.21474265
477.959	0.2139943
478.167	0.21327124
478.376	0.21241035
478.584	0.21162497
478.793	0.2108968
479.001	0.21027283
479.209	0.20945498
479.418	0.20876141
479.626	0.20803963
479.834	0.2074065
480.043	0.20680938
480.251	0.20614056
480.459	0.2054685
480.668	0.20488571
480.876	0.20420859
481.084	0.20364272
481.293	0.20301644
481.501	0.20227118
481.709	0.20176496
481.917	0.20111278
482.125	0.20057115
482.334	0.19994343
482.542	0.19929669
482.75	0.19873697
482.958	0.19828063
483.166	0.1975794
483.374	0.19702162
483.583	0.19635909
483.791	0.19584784
483.999	0.19520861
484.207	0.19463021
484.415	0.19393792
484.623	0.19341411
484.831	0.19287482
485.039	0.19242742
485.247	0.19180814
485.455	0.19131477
485.663	0.19080222
485.871	0.19024489
486.079	0.18962248
486.287	0.18902296
486.495	0.18842871
486.702	0.18788129
486.91	0.18735249
487.118	0.18671139
487.326	0.18615493
487.534	0.18563023
487.742	0.18510932
487.95	0.18460006
488.157	0.1841615
488.365	0.18368319
488.573	0.18329062
488.781	0.18288552
488.988	0.18248603
489.196	0.18205224
489.404	0.1815964
489.612	0.18109287
489.819	0.18064743
490.027	0.18019996
490.235	0.17979762
490.442	0.17935951
490.65	0.17893593
490.857	0.17852915
491.065	0.1781537
491.273	0.17778919
491.48	0.17739142
491.688	0.17688972
491.895	0.17651459
492.103	0.17612803
492.31	0.17573738
492.518	0.17536135
492.725	0.17494668
492.933	0.17450443
493.14	0.17409598
493.348	0.17368831
493.555	0.17323561
493.763	0.1728126
493.97	0.17239063
494.177	0.17197845
494.385	0.17162188
494.592	0.17124775
494.8	0.17086738
495.007	0.17054374
495.214	0.17028817
495.422	0.16994793
495.629	0.16961376
495.836	0.16932476
496.043	0.16908701
496.251	0.16878009
496.458	0.16846732
496.665	0.16805946
496.872	0.16768808
497.08	0.16744603
497.287	0.16703934
497.494	0.16678592
497.701	0.16647464
497.908	0.1661834
498.115	0.16590543
498.322	0.16565365
498.53	0.16529837
498.737	0.16506182
498.944	0.16467204
499.151	0.16443091
499.358	0.16417258
499.565	0.16390072
499.772	0.16366747
499.979	0.16344856
500.186	0.16325608
500.393	0.16303281
500.6	0.16273583
500.807	0.16253528
501.014	0.16239779
501.221	0.16216925
501.427	0.16192962
501.634	0.16171092
501.841	0.16146207
502.048	0.16124912
502.255	0.16100545
502.462	0.16076104
502.669	0.1605557
502.875	0.16034191
503.082	0.16012583
503.289	0.1599629
503.496	0.15974737
503.702	0.15954274
503.909	0.159335
504.116	0.15913609
504.323	0.15896864
504.529	0.15878782
504.736	0.15864469
504.943	0.15854742
505.149	0.1583971
505.356	0.15828639
505.563	0.15808838
505.769	0.15792009
505.976	0.15776131
506.182	0.15760885
506.389	0.15741984
506.595	0.15730341
506.802	0.1570958
507.008	0.15701135
507.215	0.15692432
507.421	0.15683216
507.628	0.15670061
507.834	0.15653767
508.041	0.15641987
508.247	0.15631499
508.454	0.15617158
508.66	0.15601044
508.866	0.15583148
509.073	0.15573272
509.279	0.15562919
509.486	0.15552549
509.692	0.15545442
509.898	0.15536956
510.105	0.15526929
510.311	0.15522571
510.517	0.15509256
510.723	0.15504459
510.93	0.15491434
511.136	0.15487925
511.342	0.15484885
511.548	0.15481876
511.754	0.15474991
511.961	0.15475162
512.167	0.15463643
512.373	0.15458388
512.579	0.15447309
512.785	0.15438673
512.991	0.15429818
513.197	0.15427155
513.404	0.15421421
513.61	0.15423766
513.816	0.15420156
514.022	0.15420343
514.228	0.15415742
514.434	0.15414951
514.64	0.15407876
514.846	0.15410695
515.052	0.15407814
515.258	0.15410551
515.464	0.15405419
515.669	0.15403879
515.875	0.15400781
516.081	0.15405738
516.287	0.15396894
516.493	0.15393175
516.699	0.15385727
516.905	0.15382412
517.111	0.15381568
517.316	0.15387219
517.522	0.15387249
517.728	0.15395457
517.934	0.15398799
518.139	0.15403262
518.345	0.15404214
518.551	0.15411367
518.757	0.15411552
518.962	0.15409229
519.168	0.15403509
519.374	0.15405091
519.579	0.15407589
519.785	0.15412098
519.991	0.15407504
520.196	0.15405943
520.402	0.15406556
520.607	0.15413032
520.813	0.15421471
521.018	0.15428475
521.224	0.15429067
521.429	0.1543591
521.635	0.15441381
521.84	0.15443825
522.046	0.15448116
522.251	0.15446767
522.457	0.15444814
522.662	0.15455116
522.868	0.15464958
523.073	0.15470271
523.279	0.15480229
523.484	0.1548226
523.689	0.15486597
523.895	0.15492308
524.1	0.15495073
524.305	0.15495576
524.511	0.1550549
524.716	0.15513505
524.921	0.15518277
525.126	0.15525939
525.332	0.15536618
525.537	0.15542266
525.742	0.155528
525.947	0.15564303
526.153	0.15573752
526.358	0.15588651
526.563	0.15599068
526.768	0.15606935
526.973	0.15619079
527.178	0.15620976
527.383	0.15624085
527.588	0.15626534
527.794	0.15635095
527.999	0.15650155
528.204	0.15663862
528.409	0.15670023
528.614	0.15689018
528.819	0.15700909
529.024	0.15712114
529.229	0.15717678
529.434	0.15721736
529.639	0.15728124
529.843	0.1574009
530.048	0.15744875
530.253	0.15748795
530.458	0.1576639
530.663	0.15779522
530.868	0.15792862
531.073	0.15805027
531.278	0.15815892
531.482	0.15831421
531.687	0.15845819
531.892	0.15850572
532.097	0.15860743
532.302	0.15867046
532.506	0.15876305
532.711	0.15889698
532.916	0.1589878
533.12	0.15910893
533.325	0.15923756
533.53	0.15938482
533.734	0.15959783
533.939	0.15973323
534.144	0.15985033
534.348	0.1599669
534.553	0.16005744
534.757	0.1602117
534.962	0.16031522
535.167	0.16043754
535.371	0.16056426
535.576	0.1606639
535.78	0.16084187
535.985	0.16100776
536.189	0.16112465
536.394	0.16131476
536.598	0.16138585
536.803	0.16152474
537.007	0.16171308
537.211	0.16182855
537.416	0.16196991
537.62	0.16211407
537.825	0.16223132
538.029	0.16245531
538.233	0.16256524
538.438	0.16269903
538.642	0.16281267
538.846	0.16296019
539.05	0.16310691
539.255	0.16319002
539.459	0.16327127
539.663	0.16346806
539.867	0.16361049
540.072	0.16373049
540.276	0.16390417
540.48	0.16404005
540.684	0.16423379
540.888	0.16442232
541.092	0.16452274
541.297	0.16466109
541.501	0.16481504
541.705	0.1648584
541.909	0.16495884
542.113	0.16507052
542.317	0.16515831
542.521	0.16530853
542.725	0.16545189
542.929	0.1656474
543.133	0.16588845
543.337	0.16608397
543.541	0.16622349
543.745	0.16634867
543.949	0.16650823
544.153	0.1666185
544.357	0.16669655
544.56	0.16677734
544.764	0.16691082
544.968	0.16707277
545.172	0.16718436
545.376	0.16730705
545.58	0.16745591
545.783	0.167608
545.987	0.16774817
546.191	0.1678657
546.395	0.16801309
546.598	0.16822205
546.802	0.16840568
547.006	0.16854362
547.21	0.16871468
547.413	0.16894078
547.617	0.16908503
547.821	0.16925414
548.024	0.16941839
548.228	0.16953131
548.431	0.16970325
548.635	0.16981813
548.839	0.16988477
549.042	0.17009488
549.246	0.17022515
549.449	0.17039999
549.653	0.17058172
549.856	0.17069922
550.06	0.17084857
550.263	0.1710517
550.467	0.17115294
550.67	0.17128151
550.874	0.17135148
551.077	0.17143214
551.28	0.17156557
551.484	0.17171516
551.687	0.17177988
551.891	0.17192644
552.094	0.17203794
552.297	0.17217847
552.501	0.17234793
552.704	0.17245975
552.907	0.17256318
553.11	0.17273064
553.314	0.17288462
553.517	0.17301942
553.72	0.17318924
553.923	0.17333857
554.127	0.17349936
554.33	0.17361257
554.533	0.17370152
554.736	0.17372512
554.939	0.17381259
555.142	0.17393553
555.345	0.1739816
555.549	0.17410747
555.752	0.17421655
555.955	0.17436288
556.158	0.17451113
556.361	0.17467341
556.564	0.17473519
556.767	0.17486907
556.97	0.17504523
557.173	0.17517487
557.376	0.17529638
557.579	0.17543564
557.782	0.17555731
557.984	0.1756591
558.187	0.17584409
558.39	0.17586948
558.593	0.17603528
558.796	0.17609322
558.999	0.1761747
559.202	0.17630263
559.404	0.17639373
559.607	0.17641553
559.81	0.17655554
560.013	0.17661471
560.216	0.17673593
560.418	0.17683259
560.621	0.17690922
560.824	0.17707679
561.026	0.1772263
561.229	0.17724868
561.432	0.17739489
561.634	0.17749868
561.837	0.17763481
562.04	0.17770775
562.242	0.17777189
562.445	0.17778956
562.647	0.17790079
562.85	0.17792057
563.053	0.17799953
563.255	0.17803836
563.458	0.17813047
563.66	0.17819104
563.863	0.17831165
564.065	0.1783567
564.268	0.17837844
564.47	0.17847917
564.672	0.17852884
564.875	0.17857881
565.077	0.17860634
565.28	0.17862929
565.482	0.17876479
565.684	0.17886292
565.887	0.1788576
566.089	0.17884822
566.291	0.17889581
566.494	0.17895093
566.696	0.1790227
566.898	0.17904012
567.1	0.17904692
567.303	0.17910575
567.505	0.17923177
567.707	0.17924599
567.909	0.17928054
568.111	0.17929102
568.314	0.17931384
568.516	0.17940566
568.718	0.17944206
568.92	0.1794748
569.122	0.1795365
569.324	0.17965262
569.526	0.17972258
569.728	0.17978189
569.93	0.17985559
570.132	0.17989854
570.334	0.17996309
570.536	0.17998972
570.738	0.17999352
570.94	0.1799404
571.142	0.17995038
571.344	0.17991165
571.546	0.17991591
571.748	0.17991791
571.95	0.17988501
572.152	0.17984578
572.354	0.1799398
572.555	0.17994929
572.757	0.17999117
572.959	0.18001099
573.161	0.17999664
573.363	0.1800369
573.564	0.1800827
573.766	0.18010283
573.968	0.18011264
574.17	0.18011211
574.371	0.18009748
574.573	0.18007909
574.775	0.18005038
574.976	0.17997233
575.178	0.17996744
575.38	0.179909
575.581	0.17987099
575.783	0.17991821
575.985	0.17989351
576.186	0.17992509
576.388	0.17995967
576.589	0.1798972
576.791	0.17994948
576.992	0.17993042
577.194	0.17981792
577.395	0.17981163
577.597	0.1798187
577.798	0.17978724
578	0.17979594
578.201	0.17983231
578.402	0.17982435
578.604	0.17977839
578.805	0.17979887
579.007	0.17976047
579.208	0.17976393
579.409	0.17966173
579.611	0.17954233
579.812	0.17954213
580.013	0.17959283
580.215	0.17949432
580.416	0.17939167
580.617	0.17926573
580.818	0.17923498
581.019	0.17914753
581.221	0.17904916
581.422	0.17898817
581.623	0.17900735
581.824	0.17891978
582.025	0.17894028
582.226	0.17893039
582.428	0.17899438
582.629	0.17893276
582.83	0.1788893
583.031	0.17874039
583.232	0.17878689
583.433	0.17872441
583.634	0.17864706
583.835	0.17849677
584.036	0.1784332
584.237	0.17829928
584.438	0.17827657
584.639	0.17813326
584.84	0.17810739
585.041	0.17805295
585.242	0.17802158
585.442	0.17796291
585.643	0.17798045
585.844	0.17787361
586.045	0.17781133
586.246	0.17760955
586.447	0.1774661
586.647	0.17734881
586.848	0.1773011
587.049	0.17723947
587.25	0.17717469
587.45	0.17711219
587.651	0.17717953
587.852	0.17716102
588.053	0.17716146
588.253	0.17709621
588.454	0.17696272
588.655	0.17693714
588.855	0.17686112
589.056	0.17671484
589.256	0.17664779
589.457	0.17652534
589.658	0.1764266
589.858	0.17632238
590.059	0.17625922
590.259	0.1762085
590.46	0.17618115
590.66	0.17608032
590.861	0.17602294
591.061	0.17590028
591.262	0.17586715
591.462	0.17580136
591.662	0.17571719
591.863	0.17559086
592.063	0.17555209
592.264	0.17551526
592.464	0.17547894
592.664	0.17542118
592.865	0.17538481
593.065	0.17526098
593.265	0.17522725
593.465	0.17509347
593.666	0.17498374
593.866	0.17484132
594.066	0.17478526
594.266	0.17458373
594.467	0.17447416
594.667	0.17431714
594.867	0.17430248
595.067	0.17415029
595.267	0.1740423
595.467	0.17393301
595.668	0.17387517
595.868	0.17381961
596.068	0.17376353
596.268	0.17356567
596.468	0.173562
596.668	0.17348106
596.868	0.17333041
597.068	0.17321198
597.268	0.1731186
597.468	0.17293215
597.668	0.17289451
597.868	0.17275578
598.068	0.17272076
598.268	0.1726278
598.467	0.17258566
598.667	0.17240193
598.867	0.17230386
599.067	0.17215285
599.267	0.17205862
599.467	0.17190297
599.667	0.17180326
599.866	0.17168563
600.066	0.17162738
600.266	0.17157336
600.466	0.17152783
600.665	0.17140559
600.865	0.17139119
601.065	0.17132116
601.264	0.17117503
601.464	0.17108251
601.664	0.17108722
601.863	0.17096101
602.063	0.17085584
602.263	0.17064347
602.462	0.17050823
602.662	0.17045243
602.861	0.1704428
603.061	0.17022953
603.26	0.17015027
603.46	0.1700571
603.659	0.17000797
603.859	0.16986813
604.058	0.16973027
604.258	0.16967361
604.457	0.16965745
604.657	0.16946867
604.856	0.16927867
605.056	0.16922613
605.255	0.16917034
605.454	0.16911196
605.654	0.16887733
605.853	0.16876706
606.052	0.16875468
606.252	0.168767
606.451	0.16865717
606.65	0.16862648
606.849	0.16847323
607.049	0.16840694
607.248	0.16828689
607.447	0.16815716
607.646	0.16807769
607.845	0.16800053
608.045	0.16777013
608.244	0.16780875
608.443	0.16776553
608.642	0.16776289
608.841	0.1676862
609.04	0.16752498
609.239	0.16748357
609.438	0.16742523
609.637	0.16737772
609.836	0.1672888
610.035	0.16717334
610.234	0.16718032
610.433	0.16719905
610.632	0.16710958
610.831	0.16719888
611.03	0.16703122
611.229	0.16708523
611.428	0.16704447
611.627	0.16699094
611.826	0.16698631
612.025	0.1670543
612.224	0.16691629
612.422	0.16692023
612.621	0.16682514
612.82	0.1668373
613.019	0.1667708
613.218	0.16673618
613.416	0.16653669
613.615	0.16656724
613.814	0.16656193
614.012	0.16651516
614.211	0.1663668
614.41	0.16637467
614.608	0.16628356
614.807	0.16626962
615.006	0.16623704
615.204	0.16616759
615.403	0.16613393
615.602	0.16614849
615.8	0.16621824
615.999	0.16621144
616.197	0.16622316
616.396	0.16623556
616.594	0.16616233
616.793	0.16617117
616.991	0.1661414
617.19	0.16593391
617.388	0.16598623
617.586	0.16599113
617.785	0.16592929
617.983	0.16592862
618.182	0.16585826
618.38	0.16579525
618.578	0.1658153
618.777	0.16574854
618.975	0.16573777
619.173	0.16576183
619.372	0.165742
619.57	0.16569763
619.768	0.16575364
619.966	0.1657869
620.165	0.16575214
620.363	0.16579932
620.561	0.16568512
620.759	0.16578671
620.957	0.16588861
621.155	0.16590785
621.354	0.16585124
621.552	0.1659182
621.75	0.16580289
621.948	0.16591829
622.146	0.16586929
622.344	0.1658162
622.542	0.16580165
622.74	0.16585026
622.938	0.16574964
623.136	0.16578636
623.334	0.16581973
623.532	0.16569924
623.73	0.1656883
623.928	0.16574887
624.126	0.16576945
624.324	0.1658696
624.522	0.1658191
624.719	0.16578446
624.917	0.16589621
625.115	0.16583515
625.313	0.16586916
625.511	0.16596249
625.708	0.16583168
625.906	0.16586195
626.104	0.16581909
626.302	0.16593294
626.499	0.16607415
626.697	0.16610638
626.895	0.16601834
627.093	0.16617265
627.29	0.16634508
627.488	0.16647404
627.686	0.16652047
627.883	0.16649259
628.081	0.16639766
628.278	0.16661231
628.476	0.16659135
628.673	0.16656612
628.871	0.16658163
629.068	0.16657347
629.266	0.16670256
629.463	0.16670829
629.661	0.16662821
629.858	0.16666987
630.056	0.16666825
630.253	0.16665349
630.451	0.16670856
630.648	0.16671953
630.845	0.16682605
631.043	0.16689896
631.24	0.16698487
631.438	0.16706863
631.635	0.1671623
631.832	0.16711728
632.029	0.1671545
632.227	0.1672724
632.424	0.16732262
632.621	0.167385
632.818	0.16736144
633.016	0.16744781
633.213	0.16750563
633.41	0.16767649
633.607	0.16769278
633.804	0.16775309
634.001	0.16774196
634.199	0.1679225
634.396	0.16797525
634.593	0.16803599
634.79	0.16803201
634.987	0.16812518
635.184	0.16820611
635.381	0.16839733
635.578	0.16849279
635.775	0.1685049
635.972	0.16858347
636.169	0.16863226
636.366	0.16864611
636.563	0.16864533
636.76	0.16854794
636.957	0.1685564
637.153	0.16852734
637.35	0.16863352
637.547	0.16864223
637.744	0.16870516
637.941	0.16878093
638.138	0.16895358
638.334	0.16893562
638.531	0.16907883
638.728	0.16913837
638.925	0.16932825
639.121	0.16942346
639.318	0.16948934
639.515	0.16951803
639.711	0.16971522
639.908	0.16971037
640.105	0.169782
640.301	0.16979984
640.498	0.16980426
640.695	0.16991231
640.891	0.16996383
641.088	0.16998111
641.284	0.17020415
641.481	0.17028227
641.677	0.1703129
641.874	0.17039529
642.07	0.17048141
642.267	0.17063835
642.463	0.17065715
642.66	0.1706977
642.856	0.17070628
643.053	0.17074624
643.249	0.17088241
643.445	0.17093207
643.642	0.1709915
643.838	0.17115503
644.034	0.17123829
644.231	0.17135035
644.427	0.17146173
644.623	0.17150464
644.82	0.1716342
645.016	0.17170211
645.212	0.17172852
645.408	0.17183083
645.604	0.17201856
645.801	0.17215676
645.997	0.17225841
646.193	0.17223681
646.389	0.17240706
646.585	0.17249774
646.781	0.17257872
646.977	0.17257659
647.173	0.17260053
647.37	0.17258343
647.566	0.17272355
647.762	0.17271515
647.958	0.17283183
648.154	0.1728309
648.35	0.17293663
648.546	0.17302875
648.742	0.17332184
648.937	0.17325691
649.133	0.1734241
649.329	0.17358922
649.525	0.1737278
649.721	0.17379294
649.917	0.17395352
650.113	0.17386573
650.309	0.17416011
650.504	0.17412214
650.7	0.17406952
650.896	0.17415044
651.092	0.17417335
651.287	0.17412997
651.483	0.17430485
651.679	0.1742511
651.875	0.17437936
652.07	0.1744449
652.266	0.17449505
652.462	0.17460684
652.657	0.17471072
652.853	0.1747043
653.048	0.1747882
653.244	0.17475048
653.44	0.17485172
653.635	0.17485124
653.831	0.17498013
654.026	0.17512011
654.222	0.17522191
654.417	0.17541645
654.613	0.17559007
654.808	0.17559388
655.004	0.17574876
655.199	0.17574013
655.394	0.17574219
655.59	0.17581231
655.785	0.17574442
655.98	0.17579698
656.176	0.17587859
656.371	0.17599085
656.566	0.17615429
656.762	0.17616598
656.957	0.17629041
657.152	0.17636217
657.348	0.17638718
657.543	0.1765055
657.738	0.17655384
657.933	0.17653213
658.128	0.17665358
658.324	0.17669165
658.519	0.17683198
658.714	0.17695462
658.909	0.17696799
659.104	0.17704887
659.299	0.17715627
659.494	0.1772276
659.689	0.17735244
659.884	0.17740805
660.079	0.17743911
660.274	0.17754341
660.469	0.17762228
660.664	0.17774941
660.859	0.17782327
661.054	0.17781475
661.249	0.17789034
661.444	0.17794304
661.639	0.17796041
661.834	0.17792717
662.029	0.17794881
662.224	0.17802295
662.418	0.17813138
662.613	0.17817701
662.808	0.1782269
663.003	0.178312
663.198	0.17838723
663.392	0.17838893
663.587	0.17853202
663.782	0.17849187
663.977	0.17850335
664.171	0.17855002
664.366	0.17864224
664.561	0.17871794
664.755	0.17881541
664.95	0.17874227
665.144	0.17881306
665.339	0.1789162
665.534	0.17899298
665.728	0.17899114
665.923	0.17900976
666.117	0.17899124
666.312	0.17902946
666.506	0.17915283
666.701	0.17916041
666.895	0.17918173
667.09	0.17926298
667.284	0.17939652
667.479	0.17945121
667.673	0.17946717
667.867	0.17952698
668.062	0.17954465
668.256	0.17959314
668.45	0.17967012
668.645	0.17964662
668.839	0.17970936
669.033	0.17973684
669.228	0.17964878
669.422	0.17972763
669.616	0.17977146
669.81	0.17982955
670.004	0.17982735
670.199	0.17990052
670.393	0.17996332
670.587	0.18007373
670.781	0.18011211
670.975	0.18024459
671.169	0.18019684
671.363	0.18026566
671.558	0.18030556
671.752	0.18037694
671.946	0.18041513
672.14	0.18044953
672.334	0.1803513
672.528	0.18053965
672.722	0.18051267
672.916	0.18048031
673.11	0.18043674
673.304	0.18047526
673.497	0.18040632
673.691	0.18044773
673.885	0.1802928
674.079	0.18040491
674.273	0.18036791
674.467	0.18046163
674.661	0.18051254
674.854	0.18061422
675.048	0.18070303
675.242	0.18074381
675.436	0.18072174
675.629	0.18082078
675.823	0.18075918
676.017	0.18076918
676.211	0.18072034
676.404	0.18070753
676.598	0.18076101
676.792	0.18080945
676.985	0.18090372
677.179	0.18100393
677.372	0.18096857
677.566	0.18112914
677.76	0.18119043
677.953	0.18123182
678.147	0.18126082
678.34	0.18126008
678.534	0.18121151
678.727	0.18126309
678.921	0.18122729
679.114	0.18115329
679.307	0.1811979
679.501	0.18119478
679.694	0.18117055
679.888	0.18119231
680.081	0.18123926
680.274	0.18121414
680.468	0.18132135
680.661	0.18129149
680.854	0.1814369
681.048	0.18147892
681.241	0.18150529
681.434	0.1814738
681.627	0.18155125
681.821	0.18155104
682.014	0.18166999
682.207	0.18153139
682.4	0.18153297
682.593	0.1816266
682.786	0.18160354
682.98	0.18154919
683.173	0.18154676
683.366	0.18143063
683.559	0.18146469
683.752	0.18148463
683.945	0.18146353
684.138	0.18158191
684.331	0.18153848
684.524	0.18159969
684.717	0.18158598
684.91	0.18163981
685.103	0.18168197
685.296	0.1817255
685.489	0.18170327
685.682	0.18180282
685.874	0.18180255
686.067	0.18186914
686.26	0.18185817
686.453	0.18182167
686.646	0.18178566
686.839	0.18176226
687.031	0.18171773
687.224	0.18161159
687.417	0.18161732
687.61	0.18157618
687.802	0.18149262
687.995	0.18149487
688.188	0.18152048
688.38	0.18151883
688.573	0.18159557
688.766	0.18153559
688.958	0.18146302
689.151	0.1814331
689.343	0.18147587
689.536	0.18142391
689.729	0.18140398
689.921	0.1813964
690.114	0.18130942
690.306	0.18137283
690.499	0.1814433
690.691	0.18142407
690.884	0.18140886
691.076	0.18140794
691.268	0.18134419
691.461	0.18137194
691.653	0.18136539
691.846	0.18139259
692.038	0.18133542
692.23	0.18127408
692.423	0.18128252
692.615	0.18124447
692.807	0.18124577
692.999	0.18119654
693.192	0.18106149
693.384	0.18105127
693.576	0.18101827
693.768	0.18100874
693.961	0.18101981
694.153	0.18100734
694.345	0.18096273
694.537	0.1809921
694.729	0.18089943
694.921	0.18088789
695.113	0.18085157
695.305	0.18082125
695.498	0.18075188
695.69	0.1807827
695.882	0.1807118
696.074	0.18072234
696.266	0.18070812
696.458	0.18065316
696.65	0.18068482
696.842	0.18076786
697.033	0.18072845
697.225	0.18073588
697.417	0.1807914
697.609	0.18073675
697.801	0.18074224
697.993	0.18071338
698.185	0.1806481
698.376	0.18067673
698.568	0.18063116
698.76	0.18058436
698.952	0.18063396
699.144	0.18059008
699.335	0.18057197
699.527	0.1805225
699.719	0.180406
699.91	0.18043302
700.102	0.18032152
700.294	0.18027677
700.485	0.18024898
700.677	0.18014279
700.869	0.18011489
701.06	0.18017081
701.252	0.18011768
701.443	0.18020841
701.635	0.18024174
701.826	0.18027434
702.018	0.18031245
702.209	0.18033863
702.401	0.18024973
702.592	0.18028183
702.784	0.1801781
702.975	0.18008534
703.166	0.18007346
703.358	0.1800063
703.549	0.17999842
703.741	0.18001297
703.932	0.17991956
704.123	0.1798812
704.315	0.17986399
704.506	0.17985297
704.697	0.17985683
704.888	0.17984329
705.08	0.17981989
705.271	0.17987794
705.462	0.17985495
705.653	0.17983775
705.844	0.17970924
706.035	0.17966017
706.227	0.17960146
706.418	0.17957187
706.609	0.17946519
706.8	0.17943489
706.991	0.17933139
707.182	0.17933433
707.373	0.17927321
707.564	0.17922367
707.755	0.17914735
707.946	0.17917257
708.137	0.17911439
708.328	0.1791006
708.519	0.17908961
708.71	0.17905384
708.901	0.17901787
709.092	0.179056
709.283	0.17900839
709.473	0.17903168
709.664	0.1790746
709.855	0.17904582
710.046	0.17909921
710.237	0.17908032
710.427	0.17907937
710.618	0.17910471
710.809	0.17905531
711	0.17902534
711.19	0.17890191
711.381	0.17891025
711.572	0.17890036
711.762	0.17886562
711.953	0.17881642
712.144	0.17884239
712.334	0.17879897
712.525	0.17891405
712.715	0.17882523
712.906	0.17880578
713.097	0.17868312
713.287	0.17864371
713.478	0.17862213
713.668	0.17863259
713.859	0.17857679
714.049	0.17856328
714.239	0.17856643
714.43	0.17866384
714.62	0.17863855
714.811	0.17859098
715.001	0.1785698
715.191	0.17863615
715.382	0.17864995
715.572	0.17870683
715.762	0.17867187
715.953	0.17876802
716.143	0.17885611
716.333	0.17890547
716.523	0.17889917
716.714	0.17893339
716.904	0.17882684
717.094	0.17887304
717.284	0.17878091
717.474	0.17871389
717.664	0.1787219
717.855	0.17867428
718.045	0.17866336
718.235	0.17873601
718.425	0.17872995
718.615	0.17878567
718.805	0.17881964
718.995	0.17881252
719.185	0.1788617
719.375	0.17887452
719.565	0.17887421
719.755	0.17888634
719.945	0.17885672
720.135	0.17887213
720.325	0.17888236
720.515	0.17882873
720.704	0.17884737
720.894	0.17886206
721.084	0.17885174
721.274	0.17892456
721.464	0.17894638
721.654	0.17900341
721.843	0.17906594
722.033	0.17909041
722.223	0.17912282
722.413	0.17917809
722.602	0.17919135
722.792	0.17922007
722.982	0.17913739
723.171	0.17912344
723.361	0.17910595
723.55	0.17910406
723.74	0.17908356
723.93	0.17904229
724.119	0.17902728
724.309	0.17905374
724.498	0.17904279
724.688	0.17903573
724.877	0.17900322
725.067	0.17895479
725.256	0.17897079
725.446	0.17901222
725.635	0.17904427
725.825	0.17906555
726.014	0.1790496
726.203	0.17908977
726.393	0.17906548
726.582	0.17901369
726.771	0.17892026
726.961	0.17884255
727.15	0.17878673
727.339	0.17873719
727.529	0.17867481
727.718	0.17864174
727.907	0.17860182
728.096	0.17858767
728.286	0.17860908
728.475	0.17862443
728.664	0.17865487
728.853	0.17860805
729.042	0.17855041
729.231	0.17854875
729.42	0.17852497
729.609	0.17842239
729.799	0.17831448
729.988	0.17828973
730.177	0.1782245
730.366	0.17826641
730.555	0.17820271
730.744	0.17815559
730.933	0.17817201
731.122	0.17820419
731.31	0.17812051
731.499	0.17814648
731.688	0.17808758
731.877	0.17808987
732.066	0.17812986
732.255	0.17812452
732.444	0.17807579
732.632	0.17808138
732.821	0.17802211
733.01	0.17805043
733.199	0.17800196
733.388	0.17795558
733.576	0.17794358
733.765	0.17796536
733.954	0.17799398
734.142	0.1780579
734.331	0.17813752
734.52	0.17819337
734.708	0.17818042
734.897	0.17816177
735.086	0.17814105
735.274	0.17809055
735.463	0.17806211
735.651	0.17791699
735.84	0.1779058
736.028	0.17789506
736.217	0.17790466
736.405	0.17789068
736.594	0.1779135
736.782	0.17793492
736.971	0.1780183
737.159	0.17801837
737.347	0.17798877
737.536	0.17795876
737.724	0.17795431
737.912	0.1779359
738.101	0.17788275
738.289	0.1778284
738.477	0.17782451
738.666	0.17781174
738.854	0.17781928
739.042	0.17785552
739.23	0.17784597
739.418	0.17790091
739.607	0.17794836
739.795	0.17791369
739.983	0.17796066
740.171	0.17795876
740.359	0.1779095
740.547	0.17787736
740.735	0.17781017
740.923	0.17777486
741.112	0.17784027
741.3	0.17785431
741.488	0.17783895
741.676	0.17792516
741.864	0.17793613
742.052	0.17801165
742.239	0.17803861
742.427	0.17804719
742.615	0.17804568
742.803	0.17809726
742.991	0.17805427
743.179	0.17807988
743.367	0.17806782
743.555	0.17805496
743.742	0.17804435
743.93	0.17808776
744.118	0.17806733
744.306	0.178072
744.494	0.17809757
744.681	0.17811881
744.869	0.17808633
745.057	0.17806236
745.244	0.178044
745.432	0.17808934
745.62	0.17809501
745.807	0.1781374
745.995	0.17808723
746.182	0.17811145
746.37	0.17816107
746.558	0.17814675
746.745	0.17811264
746.933	0.17813107
747.12	0.17811883
747.308	0.17822439
747.495	0.1783191
747.683	0.17837108
747.87	0.17846815
748.057	0.17859147
748.245	0.17863663
748.432	0.17871354
748.62	0.17866101
748.807	0.17863994
748.994	0.17858371
749.182	0.17851214
749.369	0.17845971
749.556	0.17849264
749.743	0.17846878
749.931	0.17852209
750.118	0.17850773
750.305	0.17858626
750.492	0.17859018
750.68	0.17863124
750.867	0.17859907
751.054	0.17863494
751.241	0.17866684
751.428	0.17873775
751.615	0.17875992
751.802	0.17887385
751.989	0.17887041
752.176	0.17898661
752.363	0.17904546
752.55	0.17908114
752.737	0.17910229
752.924	0.1791306
753.111	0.1791388
753.298	0.17917977
753.485	0.17914333
753.672	0.17918401
753.859	0.17925751
754.046	0.17932892
754.233	0.17933911
754.42	0.17942216
754.606	0.17946648
754.793	0.17951044
754.98	0.17953283
755.167	0.17947584
755.353	0.17944142
755.54	0.17951504
755.727	0.17944601
755.914	0.17949756
756.1	0.17956727
756.287	0.17957182
756.474	0.17962026
756.66	0.1796422
756.847	0.17960131
757.033	0.17954624
757.22	0.17947503
757.407	0.17947109
757.593	0.17945044
757.78	0.17948056
757.966	0.17953103
758.153	0.17954042
758.339	0.17965022
758.526	0.17972087
758.712	0.17971688
758.898	0.17979243
759.085	0.17978563
759.271	0.17981402
759.458	0.17982061
759.644	0.1799043
759.83	0.17997531
760.017	0.18004007
760.203	0.18005607
760.389	0.18009942
760.576	0.18015673
760.762	0.180227
760.948	0.18025141
761.134	0.18029334
761.32	0.18034984
761.507	0.18038959
761.693	0.18047529
761.879	0.18053881
762.065	0.18063632
762.251	0.18064212
762.437	0.18064345
762.623	0.18062285
762.809	0.18060899
762.995	0.18057841
763.181	0.18051598
763.367	0.180473
763.553	0.18051776
763.739	0.18056944
763.925	0.18063936
764.111	0.18073661
764.297	0.18079879
764.483	0.18093392
764.669	0.18097966
764.855	0.18097681
765.041	0.18100194
765.227	0.18102847
765.412	0.18109956
765.598	0.1811963
765.784	0.18117508
765.97	0.18127557
766.156	0.18140947
766.341	0.18149534
766.527	0.18152599
766.713	0.18155242
766.898	0.18154984
767.084	0.18157558
767.27	0.18152545
767.455	0.18145029
767.641	0.1813853
767.827	0.18140107
768.012	0.18138035
768.198	0.18136294
768.383	0.18137767
768.569	0.18145256
768.754	0.18156624
768.94	0.18169172
769.125	0.18171092
769.311	0.1817307
769.496	0.18176425
769.682	0.18181094
769.867	0.18189115
770.052	0.1819377
770.238	0.18187642
770.423	0.18191622
770.608	0.18198353
770.794	0.18211191
770.979	0.18212041
771.164	0.1821171
771.35	0.18213348
771.535	0.18225106
771.72	0.18232771
771.905	0.18239461
772.09	0.18237554
772.276	0.18244273
772.461	0.18245789
772.646	0.18244259
772.831	0.18244338
773.016	0.18252354
773.201	0.18254787
773.386	0.18260198
773.571	0.18265149
773.756	0.18270129
773.941	0.18272093
774.126	0.18282994
774.311	0.18283175
774.496	0.18286302
774.681	0.18291502
774.866	0.18301028
775.051	0.18303894
775.236	0.18308133
775.421	0.18301802
775.606	0.18294118
775.791	0.18290979
775.976	0.18291994
776.16	0.18289398
776.345	0.18295023
776.53	0.18309273
776.715	0.18327327
776.899	0.18337838
777.084	0.18352715
777.269	0.18352281
777.454	0.18358989
777.638	0.18359581
777.823	0.18354298
778.008	0.18342971
778.192	0.18344701
778.377	0.18340767
778.561	0.18345869
778.746	0.18343916
778.931	0.18344145
779.115	0.18354046
779.3	0.18359848
779.484	0.1836501
779.669	0.18364572
779.853	0.18364117
780.037	0.18370367
780.222	0.18383101
780.406	0.18388309
780.591	0.18399305
780.775	0.18405621
780.959	0.18409287
781.144	0.1841972
781.328	0.18427842
781.512	0.18431225
781.697	0.18428045
781.881	0.1842665
782.065	0.18434689
782.249	0.18443151
782.434	0.18442383
782.618	0.18435784
782.802	0.18435514
782.986	0.18441937
783.17	0.18440442
783.354	0.18435023
783.539	0.18429928
783.723	0.18431428
783.907	0.18432947
784.091	0.18426723
784.275	0.18417473
784.459	0.18417566
784.643	0.18413679
784.827	0.18418683
785.011	0.184175
785.195	0.18421592
785.379	0.18431747
785.563	0.18443593
785.747	0.18446035
785.93	0.18460668
786.114	0.18463418
786.298	0.18463135
786.482	0.1846654
786.666	0.18466883
786.85	0.1846219
787.033	0.18468404
787.217	0.1846505
787.401	0.18468389
787.585	0.1847807
787.768	0.18483315
787.952	0.18483068
788.136	0.18490069
788.319	0.18490737
788.503	0.18488941
788.687	0.18491106
788.87	0.1848996
789.054	0.18489463
789.237	0.18495033
789.421	0.18500017
789.605	0.1850309
789.788	0.18508918
789.972	0.18506006
790.155	0.1851048
790.338	0.18514713
790.522	0.18514242
790.705	0.18511015
790.889	0.18511675
791.072	0.18506215
791.256	0.18509023
791.439	0.1850557
791.622	0.18505934
791.806	0.18513633
791.989	0.18522117
792.172	0.18527534
792.355	0.18541214
792.539	0.18549436
792.722	0.18552375
792.905	0.18553446
793.088	0.18550752
793.271	0.18548468
793.455	0.18548667
793.638	0.18542214
793.821	0.1854056
794.004	0.18546035
794.187	0.18552749
794.37	0.1855205
794.553	0.18550638
794.736	0.18545994
794.919	0.18544468
795.102	0.18541868
795.285	0.18543285
795.468	0.18538466
795.651	0.18538475
795.834	0.18544334
796.017	0.18550968
796.2	0.18556934
796.383	0.18560598
796.566	0.18563915
796.749	0.18563134
796.931	0.18568372
797.114	0.18567914
797.297	0.18563605
797.48	0.1856702
797.663	0.18571941
797.845	0.18575392
798.028	0.18583309
798.211	0.18593342
798.393	0.18597442
798.576	0.18601266
798.759	0.18597218
798.941	0.18591246
799.124	0.18590213
799.307	0.18589879
799.489	0.1858534
799.672	0.18579947
799.854	0.18586248
800.037	0.18593492
800.219	0.18604204
800.402	0.18603916
800.584	0.18603933
800.767	0.18599139
800.949	0.1860571
801.132	0.18608765
801.314	0.18605483
801.496	0.18603466
801.679	0.18607063
801.861	0.1861231
802.043	0.18610839
802.226	0.18604269
802.408	0.18594992
802.59	0.18597477
802.772	0.18599419
802.955	0.186026
803.137	0.1860424
803.319	0.18613944
803.501	0.18629376
803.684	0.18643241
803.866	0.18641827
804.048	0.18649615
804.23	0.18655477
804.412	0.1865907
804.594	0.18654438
804.776	0.18653507
804.958	0.18653304
805.14	0.1866176
805.322	0.18660621
805.504	0.18657499
805.686	0.18658596
805.868	0.18661606
806.05	0.18655363
806.232	0.18644838
806.414	0.18644256
806.596	0.18635772
806.778	0.18630384
806.96	0.1862417
807.141	0.18627489
807.323	0.18637602
807.505	0.18652832
807.687	0.18662734
807.869	0.18671041
808.05	0.1867611
808.232	0.18680693
808.414	0.18685486
808.595	0.18685671
808.777	0.1867465
808.959	0.18666515
809.14	0.18667594
809.322	0.18669814
809.504	0.18666303
809.685	0.18664494
809.867	0.18662313
810.048	0.18669109
810.23	0.18665892
810.411	0.18663648
810.593	0.18654872
810.774	0.18653477
810.956	0.18647278
811.137	0.1864232
811.319	0.18638243
811.5	0.18644792
811.681	0.18645669
811.863	0.18650604
812.044	0.18653035
812.225	0.18666632
812.407	0.18676739
812.588	0.18685635
812.769	0.18691098
812.951	0.18694572
813.132	0.18695695
813.313	0.1869622
813.494	0.18682162
813.675	0.18676251
813.857	0.18670409
814.038	0.18667162
814.219	0.1866497
814.4	0.18665323
814.581	0.18672248
814.762	0.18677751
814.943	0.18681699
815.124	0.18684576
815.305	0.1867553
815.486	0.18678336
815.667	0.18668646
815.848	0.18658912
816.029	0.18652387
816.21	0.1864202
816.391	0.18634935
816.572	0.18635148
816.753	0.18629017
816.934	0.18637071
817.115	0.18643329
817.295	0.18643317
817.476	0.18644175
817.657	0.18644798
817.838	0.18650953
818.019	0.18646897
818.199	0.18640283
818.38	0.18627023
818.561	0.18633659
818.741	0.18634363
818.922	0.18631254
819.103	0.18618514
819.283	0.18622709
819.464	0.1862629
819.645	0.18633432
819.825	0.18626815
820.006	0.18622655
820.186	0.18623667
820.367	0.18625733
820.547	0.18617545
820.728	0.18604002
820.908	0.18603761
821.089	0.18603481
821.269	0.18606128
821.45	0.18606892
821.63	0.18603745
821.81	0.18612331
821.991	0.18629403
822.171	0.18629945
822.351	0.1863213
822.532	0.18632204
822.712	0.18623224
822.892	0.18622388
823.072	0.18613365
823.253	0.18603321
823.433	0.18594814
823.613	0.18591437
823.793	0.18585685
823.973	0.18591054
824.154	0.18586492
824.334	0.18581278
824.514	0.1858222
824.694	0.18580703
824.874	0.18571027
825.054	0.18562069
825.234	0.18550908
825.414	0.18549348
825.594	0.18548963
825.774	0.18545011
825.954	0.18541532
826.134	0.18545627
826.314	0.18546842
826.494	0.18555806
826.674	0.18550678
826.854	0.18543995
827.033	0.18534375
827.213	0.18531363
827.393	0.18521425
827.573	0.1851506
827.753	0.18501729
827.932	0.18505964
828.112	0.18510018
828.292	0.18516116
828.472	0.1851402
828.651	0.18522789
828.831	0.18524572
829.011	0.18528431
829.19	0.18528279
829.37	0.18522379
829.549	0.18517905
829.729	0.18516387
829.909	0.18504726
830.088	0.18497915
830.268	0.18487081
830.447	0.18488854
830.627	0.18486959
830.806	0.18489183
830.986	0.18483169
831.165	0.18483321
831.344	0.18481853
831.524	0.18477603
831.703	0.18469181
831.883	0.18463819
832.062	0.18455108
832.241	0.18453028
832.421	0.18450774
832.6	0.18451012
832.779	0.18460303
832.958	0.184514
833.138	0.1845631
833.317	0.18458023
833.496	0.18463103
833.675	0.18466013
833.854	0.18473493
834.034	0.18468107
834.213	0.18471088
834.392	0.18468715
834.571	0.18450331
834.75	0.18433964
834.929	0.184111
835.108	0.18390117
835.287	0.18380476
835.466	0.18362217
835.645	0.18346064
835.824	0.18351199
836.003	0.18355573
836.182	0.183585
836.361	0.18358594
836.54	0.18344252
836.719	0.18342896
836.897	0.18332389
837.076	0.18320268
837.255	0.18297509
837.434	0.18289264
837.613	0.18273132
837.791	0.18278548
837.97	0.18278865
838.149	0.18280049
838.328	0.18277568
838.506	0.18285526
838.685	0.18284848
838.864	0.1828523
839.042	0.18277942
839.221	0.18278472
839.4	0.18271347
839.578	0.18266378
839.757	0.18250676
839.935	0.1824049
840.114	0.18250244
840.292	0.18248498
840.471	0.18238879
840.649	0.18244095
840.828	0.18243818
841.006	0.18257867
841.185	0.18264515
841.363	0.18263416
841.541	0.18256631
841.72	0.18250529
841.898	0.18240809
842.076	0.18232267
842.255	0.18217222
842.433	0.18208584
842.611	0.1818655
842.789	0.18178487
842.968	0.18179165
843.146	0.1817608
843.324	0.18179559
843.502	0.18176148
843.68	0.18175856
843.859	0.18183824
844.037	0.18181023
844.215	0.18161947
844.393	0.18151223
844.571	0.18139501
844.749	0.18140429
844.927	0.18123335
845.105	0.1810781
845.283	0.18113855
845.461	0.18115982
845.639	0.18116244
845.817	0.18108099
845.995	0.18104752
846.173	0.18112477
846.351	0.18109169
846.529	0.18089479
846.706	0.1807759
846.884	0.18066268
847.062	0.18063665
847.24	0.18049385
847.418	0.18036478
847.595	0.18025481
847.773	0.18021294
847.951	0.18023255
848.129	0.18022823
848.306	0.18016794
848.484	0.18014526
848.662	0.18012209
848.839	0.18013535
849.017	0.18014991
849.194	0.18006373
849.372	0.17999343
849.549	0.17985756
849.727	0.17973929
849.905	0.17967766
850.082	0.17955141
850.26	0.17948026
850.437	0.17945025
850.614	0.17943639
850.792	0.1794719
850.969	0.17949029
851.147	0.17944514
851.324	0.17954677
851.501	0.17947827
851.679	0.17950288
851.856	0.17940271
852.033	0.17929907
852.211	0.17926574
852.388	0.17919391
852.565	0.17904195
852.742	0.17908925
852.92	0.1789903
853.097	0.17896603
853.274	0.17903474
853.451	0.17891584
853.628	0.17887644
853.805	0.17883872
853.982	0.17867793
854.159	0.17860968
854.336	0.1786159
854.514	0.17850309
854.691	0.17844027
854.868	0.17840927
855.045	0.178391
855.221	0.17837044
855.398	0.17825224
855.575	0.17811759
855.752	0.17801163
855.929	0.17808267
856.106	0.17797602
856.283	0.17782467
856.46	0.1777575
856.637	0.17778348
856.813	0.17777285
856.99	0.17781483
857.167	0.17771071
857.344	0.17758082
857.52	0.1774868
857.697	0.17735184
857.874	0.17718279
858.05	0.17698179
858.227	0.17682309
858.404	0.17674669
858.58	0.17684065
858.757	0.17694132
858.933	0.17698383
859.11	0.1771031
859.287	0.17706669
859.463	0.17702218
859.64	0.17698188
859.816	0.17677898
859.993	0.17659517
860.169	0.17648283
860.345	0.17627391
860.522	0.17624186
860.698	0.17608643
860.875	0.17591953
861.051	0.1758865
861.227	0.17575066
861.404	0.1757179
861.58	0.17577399
861.756	0.17574785
861.932	0.17579667
862.109	0.17567845
862.285	0.17563546
862.461	0.17567256
862.637	0.17549749
862.813	0.1753644
862.99	0.17519513
863.166	0.17504395
863.342	0.17502422
863.518	0.17479222
863.694	0.17471074
863.87	0.17467917
864.046	0.1745705
864.222	0.17458022
864.398	0.1745841
864.574	0.1745052
864.75	0.17461655
864.926	0.17455125
865.102	0.17457994
865.278	0.17438219
865.454	0.17428189
865.63	0.17412354
865.805	0.17398769
865.981	0.17388748
866.157	0.17381573
866.333	0.1736268
866.509	0.17370665
866.684	0.17368851
866.86	0.17375354
867.036	0.17376919
867.212	0.1736875
867.387	0.17360273
867.563	0.17355025
867.739	0.17344786
867.914	0.17336022
868.09	0.17311294
868.265	0.17301345
868.441	0.17288138
868.617	0.17278714
868.792	0.17273709
868.968	0.17259177
869.143	0.17243815
869.319	0.17246121
869.494	0.1723243
869.67	0.17229932
869.845	0.17219067
870.02	0.17198719
870.196	0.17193998
870.371	0.1718774
870.546	0.17166227
870.722	0.17151114
870.897	0.17122239
871.072	0.17108036
871.248	0.17097375
871.423	0.17090721
871.598	0.17089561
871.773	0.17089906
871.949	0.17094914
872.124	0.17101616
872.299	0.17093805
872.474	0.1709625
872.649	0.17088445
872.824	0.17071375
872.999	0.17064121
873.174	0.17047556
873.349	0.17035299
873.524	0.17026366
873.699	0.17024287
873.874	0.17016477
874.049	0.17008145
874.224	0.17004056
874.399	0.17010202
874.574	0.17026765
874.749	0.17031829
874.924	0.17018046
875.099	0.17009993
875.274	0.1701404
875.449	0.17010478
875.623	0.16995851
875.798	0.16968823
875.973	0.16948502
876.148	0.16932561
876.322	0.16921343
876.497	0.16901176
876.672	0.168917
876.846	0.16883186
877.021	0.16867214
877.196	0.16852552
877.37	0.16857274
877.545	0.16853867
877.72	0.16841544
877.894	0.16823206
878.069	0.16807351
878.243	0.16791305
878.418	0.16791684
878.592	0.16760079
878.767	0.16739315
878.941	0.16733075
879.116	0.16721767
879.29	0.16710155
879.464	0.1670549
879.639	0.16690856
879.813	0.1671004
879.987	0.16708985
880.162	0.16712464
880.336	0.16710103
880.51	0.1672458
880.685	0.16741022
880.859	0.16752651
881.033	0.16737754
881.207	0.16733103
881.381	0.16731375
881.556	0.16717096
881.73	0.16694983
881.904	0.16670833
882.078	0.16653173
882.252	0.16650896
882.426	0.16645191
882.6	0.16625472
882.774	0.16633244
882.948	0.16633893
883.122	0.16621121
883.296	0.16611216
883.47	0.16600227
883.644	0.16602183
883.818	0.16587296
883.992	0.16567349
884.166	0.16551174
884.34	0.16548636
884.514	0.1654072
884.687	0.1653601
884.861	0.16514166
885.035	0.16519851
885.209	0.16509091
885.382	0.16501819
885.556	0.16496658
885.73	0.16495358
885.904	0.1648554
886.077	0.16474551
886.251	0.1645542
886.425	0.16456948
886.598	0.16457598
886.772	0.16456316
886.945	0.1643622
887.119	0.16410211
887.292	0.16399194
887.466	0.16401442
887.64	0.16380897
887.813	0.16363149
887.986	0.16360344
888.16	0.1636181
888.333	0.16366697
888.507	0.16362017
888.68	0.16355012
888.854	0.1635761
889.027	0.16358613
889.2	0.16344672
889.374	0.16343365
889.547	0.16333914
889.72	0.16338989
889.893	0.16322381
890.067	0.16318344
890.24	0.16302582
890.413	0.16287601
890.586	0.16268818
890.759	0.16272158
890.933	0.16271552
891.106	0.16272334
891.279	0.16271562
891.452	0.16269644
891.625	0.16259123
891.798	0.16261581
891.971	0.16250918
892.144	0.16226969
892.317	0.16218588
892.49	0.16187436
892.663	0.16171085
892.836	0.16167176
893.009	0.16151318
893.182	0.16131663
893.355	0.16132812
893.527	0.16118501
893.7	0.16127186
893.873	0.16130098
894.046	0.16116712
894.219	0.16117604
894.391	0.16115743
894.564	0.16113072
894.737	0.16114124
894.91	0.16100521
895.082	0.16085452
895.255	0.16076734
895.428	0.16060133
895.6	0.16047704
895.773	0.16028129
895.945	0.16019043
896.118	0.16008589
896.291	0.16007854
896.463	0.16015853
896.636	0.1600507
896.808	0.15999325
896.981	0.15998637
897.153	0.15987883
897.326	0.1598022
897.498	0.15963784
897.67	0.15944825
897.843	0.15948053
898.015	0.15936313
898.187	0.1592135
898.36	0.15893062
898.532	0.15883997
898.704	0.15876752
898.877	0.15863839
899.049	0.15850611
899.221	0.1584355
899.393	0.15828886
899.566	0.1583689
899.738	0.15831664
899.91	0.1583901
900.082	0.15843327
900.254	0.15837473
900.426	0.15842568
900.598	0.15840833
900.77	0.15824393
900.942	0.15807005
901.114	0.15784371
901.286	0.1577446
901.458	0.15757715
901.63	0.15743907
901.802	0.15749473
901.974	0.15752001
902.146	0.15763238
902.318	0.15764051
902.49	0.15752261
902.662	0.1575234
902.834	0.15740831
903.005	0.1571894
903.177	0.15708977
903.349	0.15692451
903.521	0.15681402
903.693	0.15682496
903.864	0.15673277
904.036	0.15668687
904.208	0.15650483
904.379	0.15638402
904.551	0.15635493
904.723	0.15618107
904.894	0.15603913
905.066	0.15588095
905.237	0.1558542
905.409	0.15592696
905.58	0.15600859
905.752	0.15583375
905.923	0.15571562
906.095	0.15549979
906.266	0.1553854
906.438	0.15520457
906.609	0.15503891
906.78	0.1546773
906.952	0.15457687
907.123	0.15440451
907.295	0.15443627
907.466	0.15438488
907.637	0.15434837
907.808	0.15428253
907.98	0.15424517
908.151	0.15427577
908.322	0.15443685
908.493	0.15439284
908.665	0.15437462
908.836	0.15428584
909.007	0.15422533
909.178	0.15432924
909.349	0.15424604
909.52	0.15424983
909.691	0.1541346
909.862	0.15419003
910.033	0.15402714
910.204	0.15403032
910.375	0.1539118
910.546	0.15394816
910.717	0.15385054
910.888	0.15386603
911.059	0.15373286
911.23	0.15380311
911.401	0.15366292
911.572	0.15357313
911.742	0.15331834
911.913	0.1531894
912.084	0.15288499
912.255	0.15277084
912.426	0.15258352
912.596	0.15242823
912.767	0.15240352
912.938	0.15243287
913.108	0.15232108
913.279	0.15245062
913.45	0.15237665
913.62	0.15247693
913.791	0.15260317
913.962	0.15248617
914.132	0.15230811
914.303	0.15224774
914.473	0.15216644
914.644	0.15197842
914.814	0.15168605
914.985	0.15145082
915.155	0.15135966
915.326	0.15123533
915.496	0.15109732
915.666	0.15081521
915.837	0.15099419
916.007	0.15088102
916.177	0.15082316
916.348	0.15077184
916.518	0.15082327
916.688	0.15085848
916.858	0.15100214
917.029	0.15081061
917.199	0.15076785
917.369	0.15066849
917.539	0.15054624
917.709	0.15032608
917.88	0.14998211
918.05	0.14970181
918.22	0.14948877
918.39	0.14937423
918.56	0.1492522
918.73	0.14912795
918.9	0.14899684
919.07	0.1488711
919.24	0.14876136
919.41	0.14867036
919.58	0.14853009
919.75	0.14852167
919.92	0.14839736
920.09	0.14849629
920.26	0.14859398
920.429	0.14874045
920.599	0.14874633
920.769	0.14880529
920.939	0.14852712
921.109	0.14855526
921.278	0.14832772
921.448	0.14819358
921.618	0.14791545
921.787	0.14766003
921.957	0.14751454
922.127	0.14737253
922.296	0.14722414
922.466	0.14712162
922.636	0.14711971
922.805	0.14716393
922.975	0.14715592
923.144	0.14715651
923.314	0.14722675
923.483	0.14716101
923.653	0.14704294
923.822	0.14692288
923.992	0.14670969
924.161	0.14659664
924.331	0.14640447
924.5	0.14629073
924.669	0.14618814
924.839	0.14622699
925.008	0.14611444
925.177	0.14607777
925.347	0.1461009
925.516	0.14615287
925.685	0.14613961
925.854	0.14628723
926.023	0.14626876
926.193	0.1463736
926.362	0.14637947
926.531	0.14622422
926.7	0.14600383
926.869	0.14602368
927.038	0.14563385
927.207	0.14546381
927.376	0.1451036
927.545	0.14499485
927.715	0.14506948
927.884	0.14512304
928.052	0.14526369
928.221	0.1453752
928.39	0.14543849
928.559	0.14561975
928.728	0.14566199
928.897	0.14568618
929.066	0.1458872
929.235	0.14563213
929.404	0.14561368
929.572	0.14561481
929.741	0.14556315
929.91	0.14548782
930.079	0.14537965
930.247	0.14508906
930.416	0.14512471
930.585	0.14507441
930.753	0.14500127
930.922	0.14505872
931.091	0.14505823
931.259	0.14484406
931.428	0.14476667
931.596	0.14442711
931.765	0.14416449
931.934	0.14401716
932.102	0.14368751
932.27	0.14372087
932.439	0.14378739
932.607	0.14369144
932.776	0.14382522
932.944	0.14405309
933.113	0.14396501
933.281	0.14407229
933.449	0.14365941
933.618	0.14340209
933.786	0.14361606
933.954	0.14340893
934.123	0.14314649
934.291	0.1432819
934.459	0.14310307
934.627	0.14306064
934.795	0.14315007
934.964	0.14266597
935.132	0.14258329
935.3	0.14228908
935.468	0.14194946
935.636	0.14178365
935.804	0.14178397
935.972	0.14173661
936.14	0.14190433
936.308	0.14166475
936.476	0.1418516
936.644	0.14187472
936.812	0.14200602
936.98	0.14196212
937.148	0.1417646
937.316	0.14141902
937.484	0.14171597
937.652	0.14141383
937.82	0.14126688
937.987	0.14122572
938.155	0.14130961
938.323	0.14167741
938.491	0.14145574
938.658	0.14171394
938.826	0.14146112
938.994	0.14169003
939.162	0.14124919
939.329	0.14143617
939.497	0.14135
939.665	0.14195467
939.832	0.14200499
940	0.14324742
940.167	0.1431167
940.335	0.14328441
940.502	0.14230701
940.67	0.14189166
940.837	0.14175677
941.005	0.14143282
941.172	0.14021317
941.34	0.14049481
941.507	0.14115623
941.674	0.14227341
941.842	0.14224306
942.009	0.14273744
942.177	0.1422774
942.344	0.14379274
942.511	0.14325826
942.678	0.14353032
942.846	0.14234234
943.013	0.14269971
943.18	0.14212136
943.347	0.14240074
943.514	0.1418987
943.682	0.14286817
943.849	0.14146046
944.016	0.14179865
944.183	0.14181327
944.35	0.14201206
944.517	0.14279422
944.684	0.14325699
944.851	0.14106428
945.018	0.14147563
945.185	0.14038211
945.352	0.13973572
945.519	0.13884834
945.686	0.13892033
945.853	0.13985379
946.02	0.14022454
946.187	0.13900691
946.353	0.14080749
946.52	0.14075017
946.687	0.14087354
946.854	0.14051288
947.021	0.1384762
947.187	0.13894223
947.354	0.13943388
947.521	0.13945527
947.687	0.13907884
947.854	0.13960009
948.021	0.13849994
948.187	0.13857014
948.354	0.13830364
948.52	0.13872803
948.687	0.1391222
948.854	0.13942109
949.02	0.13855799
949.187	0.13891786
949.353	0.13862164
949.52	0.13749395
949.686	0.13723207
949.852	0.13627373
950.019	0.13615575
950.185	0.13675191
950.352	0.1365499
950.518	0.1362094
950.684	0.13723601
950.851	0.13752325
951.017	0.13685347
951.183	0.1364298
951.349	0.13601197
951.516	0.13492564
951.682	0.13471675
951.848	0.13400612
952.014	0.13280259
952.18	0.13303536
952.346	0.13346419
952.512	0.13331802
952.679	0.13478567
952.845	0.13538454
953.011	0.1360827
953.177	0.13630365
953.343	0.13530495
953.509	0.13559219
953.675	0.13531431
953.841	0.1344846
954.007	0.13471787
954.172	0.13456013
954.338	0.13454242
954.504	0.13512776
954.67	0.13401624
954.836	0.13446635
955.002	0.13441061
955.167	0.13365191
955.333	0.13282813
955.499	0.13293058
955.665	0.1328627
955.83	0.13367597
955.996	0.13316557
956.162	0.13266152
956.327	0.13262909
956.493	0.13281953
956.659	0.13331022
956.824	0.13343906
956.99	0.13275938
957.155	0.1327412
957.321	0.13300981
957.486	0.13288403
957.652	0.13283456
957.817	0.13240434
957.983	0.13174682
958.148	0.1318846
958.314	0.13154487
958.479	0.1311934
958.644	0.13158026
958.81	0.13161683
958.975	0.13189132
959.14	0.13206754
959.306	0.13191569
959.471	0.13211376
959.636	0.13182867
959.801	0.13143256
959.967	0.1313647
960.132	0.13057242
960.297	0.13034898
960.462	0.13059211
960.627	0.13059946
960.792	0.13052072
960.957	0.13053793
961.123	0.13066375
961.288	0.13065213
961.453	0.13088515
961.618	0.13018603
961.783	0.12992645
961.948	0.13003827
962.113	0.12943311
962.277	0.12861335
962.442	0.12906232
962.607	0.12898383
962.772	0.1291604
962.937	0.12924434
963.102	0.12950077
963.267	0.13017513
963.431	0.13032923
963.596	0.1295714
963.761	0.12917559
963.926	0.12897393
964.09	0.12865659
964.255	0.12838309
964.42	0.12820377
964.584	0.12861123
964.749	0.12887492
964.914	0.1288131
965.078	0.12830435
965.243	0.1280184
965.407	0.12815097
965.572	0.12753257
965.736	0.12753162
965.901	0.12778773
966.065	0.12882939
966.23	0.1293381
966.394	0.12973768
966.559	0.12947285
966.723	0.12977461
966.887	0.12945635
967.052	0.128893
967.216	0.12771362
967.38	0.1271972
967.545	0.1271866
967.709	0.1276468
967.873	0.1280337
968.037	0.12790571
968.202	0.12827724
968.366	0.12870975
968.53	0.12910361
968.694	0.12863439
968.858	0.12825155
969.022	0.12769887
969.187	0.1274831
969.351	0.12715653
969.515	0.12709965
969.679	0.12715536
969.843	0.12719995
970.007	0.12680982
970.171	0.12695584
970.335	0.12714954
970.499	0.12694763
970.662	0.12657422
970.826	0.12613359
970.99	0.12602969
971.154	0.12588987
971.318	0.12578018
971.482	0.12504924
971.645	0.12495262
971.809	0.12550511
971.973	0.12566876
972.137	0.12579911
972.3	0.12597659
972.464	0.12566711
972.628	0.12637504
972.791	0.12665118
972.955	0.12592349
973.119	0.12618771
973.282	0.12604238
973.446	0.12562524
973.609	0.12554029
973.773	0.12540381
973.936	0.12527202
974.1	0.1253857
974.263	0.12496811
974.427	0.12510981
974.59	0.12517085
974.754	0.1251347
974.917	0.12491237
975.08	0.12531187
975.244	0.12505979
975.407	0.12497164
975.57	0.12442461
975.734	0.12445766
975.897	0.12444119
976.06	0.12457248
976.223	0.12416905
976.387	0.12426387
976.55	0.12398791
976.713	0.12418268
976.876	0.12399033
977.039	0.12362906
977.202	0.12335106
977.365	0.12271509
977.528	0.12262611
977.692	0.12311471
977.855	0.12268508
978.018	0.12271681
978.181	0.12290538
978.344	0.12261754
978.506	0.12283033
978.669	0.12236357
978.832	0.12175533
978.995	0.12217414
979.158	0.12260717
979.321	0.12234422
979.484	0.12251455
979.646	0.1223455
979.809	0.1226941
979.972	0.12222567
980.135	0.12215278
980.297	0.12189839
980.46	0.12172092
980.623	0.12207048
980.786	0.12187774
980.948	0.12168855
981.111	0.12198943
981.273	0.12186438
981.436	0.12146976
981.599	0.1215731
981.761	0.12129072
981.924	0.12151511
982.086	0.12152169
982.249	0.12189219
982.411	0.12193273
982.573	0.12181735
982.736	0.12244946
982.898	0.12236753
983.061	0.1223103
983.223	0.12228588
983.385	0.12180842
983.548	0.12194596
983.71	0.12219844
983.872	0.12189531
984.034	0.12165298
984.197	0.12101786
984.359	0.12087589
984.521	0.12133658
984.683	0.12176394
984.845	0.12223069
985.008	0.12196006
985.17	0.12214621
985.332	0.12263129
985.494	0.12275183
985.656	0.12360317
985.818	0.12306038
985.98	0.12238788
986.142	0.1220878
986.304	0.12168409
986.466	0.12161904
986.628	0.12137606
986.79	0.11969966
986.952	0.11933172
987.113	0.11990852
987.275	0.11934326
987.437	0.11931502
987.599	0.11917202
987.761	0.11886101
987.922	0.11887509
988.084	0.11863293
988.246	0.11762424
988.408	0.11898713
988.569	0.11913413
988.731	0.11926748
988.893	0.11917264
989.054	0.12036609
989.216	0.12053137
989.377	0.12017222
989.539	0.11963592
989.701	0.1187505
989.862	0.11915997
990.024	0.11965441
990.185	0.11850432
990.347	0.1183032
990.508	0.11856033
990.669	0.11850335
990.831	0.11882324
990.992	0.11901404
991.154	0.11779002
991.315	0.11809121
991.476	0.11842057
991.638	0.11888677
991.799	0.11834571
991.96	0.11931459
992.121	0.11872918
992.283	0.11912835
992.444	0.11932943
992.605	0.11896741
992.766	0.11860429
992.927	0.11861358
993.088	0.11783098
993.249	0.11745782
993.41	0.11779949
993.572	0.11722347
993.733	0.1172723
993.894	0.11711609
994.055	0.11696756
994.216	0.11756081
994.376	0.11675037
994.537	0.11710037
994.698	0.11799521
994.859	0.11783628
995.02	0.11832102
995.181	0.11833809
995.342	0.11757844
995.503	0.11921079
995.663	0.11908052
995.824	0.11745706
995.985	0.11883326
996.146	0.11835312
996.306	0.11801388
996.467	0.11759437
996.628	0.11732785
996.788	0.11670316
996.949	0.11776656
997.11	0.11599916
997.27	0.11578066
997.431	0.11621616
997.591	0.11640403
997.752	0.11505071
997.912	0.11575471
998.073	0.11475832
998.233	0.11481026
998.394	0.11396442
998.554	0.1135666
998.714	0.11351006
998.875	0.11333458
999.035	0.1124878
999.196	0.11377533
999.356	0.11375268
999.516	0.11563361
999.676	0.11644723
999.837	0.11699902
999.997	0.11756718
1000.157	0.11614045
1000.317	0.11517514
1000.477	0.11562077
1000.638	0.11455828
1000.798	0.11482511
1000.958	0.11508258
1001.118	0.11507897
1001.278	0.11727565
1001.438	0.11709135
1001.598	0.11723856
1001.758	0.11834652
1001.918	0.11794489
1002.078	0.11651997
1002.238	0.11694988
1002.398	0.11730256
1002.558	0.11726686
1002.718	0.11592815
1002.878	0.11460171
1003.037	0.11173763
1003.197	0.11252786
1003.357	0.11151644
1003.517	0.11211454
1003.677	0.11118697
1003.836	0.11221302
1003.996	0.11242315
1004.156	0.11468281
1004.315	0.11542036
1004.475	0.11670686
1004.635	0.11637937
1004.794	0.11762036
1004.954	0.11629418
1005.114	0.11674148
1005.273	0.11731772
1005.433	0.1152107
1005.592	0.11380202
1005.752	0.11321603
1005.911	0.11318852
1006.071	0.11403314
1006.23	0.11265368
1006.389	0.11141043
1006.549	0.11267167
1006.708	0.11441222
1006.868	0.11244453
1007.027	0.112897
1007.186	0.11414671
1007.345	0.11601297
1007.505	0.116423
1007.664	0.11686624
1007.823	0.11459977
1007.982	0.11680559
1008.142	0.11670426
1008.301	0.11692364
1008.46	0.11550479
1008.619	0.11413267
1008.778	0.1135992
1008.937	0.11366534
1009.096	0.11305825
1009.255	0.11305013
1009.414	0.11162327
1009.573	0.11392859
1009.732	0.11603833
1009.891	0.11463299
1010.05	0.11617652
1010.209	0.11477599
1010.368	0.1137025
1010.527	0.11291112
1010.686	0.1120235
1010.845	0.10950078
1011.003	0.11199352
1011.162	0.11144386
1011.321	0.11115333
1011.48	0.11293551
1011.638	0.11258123
1011.797	0.11344754
1011.956	0.11605554
1012.115	0.11558527
1012.273	0.11399431
1012.432	0.11479036
1012.59	0.11108598
1012.749	0.11236312
1012.908	0.10947059
1013.066	0.10934434
1013.225	0.10777354
1013.383	0.11047339
1013.542	0.10832374
1013.7	0.11139154
1013.859	0.11235869
1014.017	0.113667
1014.175	0.11170903
1014.334	0.11550149
1014.492	0.11666191
1014.65	0.12136655
1014.809	0.12315469
1014.967	0.12295043
1015.125	0.12446945
1015.284	0.13050161
1015.442	0.12657431
1015.6	0.12282542
1015.758	0.1216541
1015.916	0.11709891
1016.075	0.11661132
1016.233	0.11234533
1016.391	0.11096836
1016.549	0.1115601
1016.707	0.11401314
1016.865	0.11387155
1017.023	0.11386177
1017.181	0.1143519
1017.339	0.11784305
1017.497	0.11362176
1017.655	0.11349815
1017.813	0.11219635
1017.971	0.11069186
1018.129	0.11432632
1018.286	0.11294523
1018.444	0.10898038
1018.602	0.11051943
1018.76	0.1108656
1018.918	0.11162266
1019.075	0.1142725
1019.233	0.11184815
1019.391	0.11114092
1019.549	0.11469296
1019.706	0.11290309
1019.864	0.11254932
1020.022	0.1123513
1020.179	0.10946992
1020.337	0.10829729
1020.494	0.11053798
1020.652	0.10947171
1020.809	0.11250804
1020.967	0.11387557
1021.124	0.11267524
1021.282	0.11685297
1021.439	0.11674953
1021.597	0.11847482
1021.754	0.12015938
1021.911	0.12050339
1022.069	0.11956269
1022.226	0.11847047
1022.384	0.11289014
1022.541	0.11294964
1022.698	0.1086253
1022.855	0.10830912
1023.013	0.10677905
1023.17	0.10192736
1023.327	0.10666017
1023.484	0.11163094
1023.641	0.11093633
1023.798	0.11594834
1023.956	0.11691551
1024.113	0.11483924
1024.27	0.11614558
1024.427	0.1130856
1024.584	0.11172061
1024.741	0.11270699
1024.898	0.1104648
1025.055	0.10684424
1025.212	0.10757096
1025.369	0.10763303
1025.525	0.11146595
1025.682	0.11354345
1025.839	0.11865676
1025.996	0.12158431
1026.153	0.12572564
1026.31	0.12878786
1026.466	0.13648049
1026.623	0.13449246
1026.78	0.13214278
1026.937	0.13132811
1027.093	0.12556095
1027.25	0.13068211
1027.407	0.12874023
1027.563	0.12374698
1027.72	0.11829891
1027.876	0.11582266
1028.033	0.1137032
1028.19	0.11588544
1028.346	0.10482521
1028.503	0.10456064
1028.659	0.10784665
1028.816	0.11584078
1028.972	0.11951569
1029.128	0.12253967
1029.285	0.12118853
1029.441	0.12725705
1029.598	0.12689133
1029.754	0.12658566
1029.91	0.12376191
1030.067	0.11978707
1030.223	0.12333681
1030.379	0.12505536
1030.535	0.12739291
1030.691	0.1298671
1030.848	0.12942827
1031.004	0.12908393
1031.16	0.13706785
1031.316	0.13878608
1031.472	0.14269984
1031.628	0.13666645
1031.784	0.13779117
1031.94	0.14289766
1032.096	0.14973067
1032.252	0.1413312
1032.408	0.13728863
1032.564	0.1388791
1032.72	0.14579824
1032.876	0.13891791
1033.032	0.13407493
1033.188	0.12673014
1033.344	0.13613565
1033.5	0.139473
1033.655	0.13482664
1033.811	0.13510211
1033.967	0.14800672
