Data from 0_1_mm_pl_70pc_Absorbance__0__15-54-12-032.txt Node

Date: Fri Feb 24 15:54:12 CET 2023
User: Ange
Spectrometer: FLMT08341
Trigger mode: 0
Integration Time (sec): 1.000000E-2
Scans to average: 400
Electric dark correction enabled: true
Nonlinearity correction enabled: false
Boxcar width: 3
XAxis mode: Wavelengths
Number of Pixels in Spectrum: 3648
>>>>>Begin Spectral Data<<<<<
345.271	0.0699894
345.487	0.05876419
345.704	0.04198468
345.921	0.0515143
346.137	0.04189651
346.354	0.0390935
346.571	0.01998301
346.787	-0.10945436
347.004	0.0318065
347.22	-0.0993117
347.437	0.00520507
347.653	-0.21463132
347.87	0.08189058
348.086	0.28830951
348.303	-0
348.519	0.64542814
348.736	0.5830126
348.952	0.59302645
349.169	0.61367044
349.385	0.65182141
349.601	0.64502376
349.818	0.63057755
350.034	0.62171953
350.251	0.61698917
350.467	0.61870234
350.683	0.59446762
350.9	0.58755955
351.116	0.58101292
351.332	0.57364091
351.549	0.59376534
351.765	0.61921627
351.981	0.6313579
352.197	0.66186258
352.414	0.69495924
352.63	0.70914534
352.846	0.73341662
353.062	0.70632706
353.278	0.68196441
353.495	0.70365165
353.711	0.70256056
353.927	0.70066345
354.143	0.70058487
354.359	0.69347602
354.575	0.69653075
354.792	0.72107625
355.008	0.69817193
355.224	0.68903752
355.44	0.68078807
355.656	0.67885971
355.872	0.69056884
356.088	0.73817728
356.304	0.7385189
356.52	0.74851274
356.736	0.75630183
356.952	0.76635557
357.168	0.77465222
357.384	0.78721901
357.6	0.75366358
357.816	0.77073439
358.032	0.78253831
358.248	0.81483656
358.464	0.81298015
358.679	0.81965838
358.895	0.82026448
359.111	0.83821275
359.327	0.81268778
359.543	0.81855663
359.759	0.82627519
359.974	0.83199968
360.19	0.82627503
360.406	0.82199257
360.622	0.81586542
360.838	0.81370755
361.053	0.82317164
361.269	0.82013446
361.485	0.82387961
361.701	0.83789448
361.916	0.82441422
362.132	0.82554579
362.348	0.83559847
362.563	0.83604299
362.779	0.8253864
362.995	0.83229994
363.21	0.84290319
363.426	0.85842915
363.641	0.86421761
363.857	0.87600505
364.073	0.8661045
364.288	0.85511138
364.504	0.87196159
364.719	0.86833644
364.935	0.86809166
365.15	0.87186174
365.366	0.87274063
365.581	0.89200151
365.797	0.90290303
366.012	0.88652846
366.228	0.87134449
366.443	0.8905037
366.658	0.89304784
366.874	0.88182927
367.089	0.89123808
367.305	0.89650443
367.52	0.90008376
367.735	0.90528357
367.951	0.88689848
368.166	0.89281879
368.381	0.91551715
368.597	0.90093722
368.812	0.9114182
369.027	0.91767603
369.243	0.92666262
369.458	0.96020362
369.673	0.95953166
369.888	0.95935061
370.104	0.95657394
370.319	0.96579839
370.534	0.96118009
370.749	0.96248521
370.964	0.9572892
371.179	0.95235474
371.395	0.94283762
371.61	0.95516152
371.825	0.93529651
372.04	0.93921401
372.255	0.93163218
372.47	0.92085691
372.685	0.91376584
372.9	0.90994482
373.115	0.89422879
373.33	0.90061784
373.545	0.90025948
373.76	0.9076252
373.975	0.90086002
374.19	0.89824185
374.405	0.9031052
374.62	0.92085236
374.835	0.93519444
375.05	0.94026055
375.265	0.94288438
375.48	0.95084321
375.695	0.98139712
375.91	0.97436456
376.125	0.95435992
376.339	0.9332722
376.554	0.92685161
376.769	0.92495263
376.984	0.92308816
377.199	0.91710127
377.414	0.91566975
377.628	0.93422745
377.843	0.94424028
378.058	0.95007693
378.273	0.95617155
378.487	0.95962081
378.702	0.95921392
378.917	0.96405128
379.131	0.94927451
379.346	0.93443698
379.561	0.92348499
379.775	0.91429789
379.99	0.90205813
380.205	0.8858228
380.419	0.87245208
380.634	0.86225187
380.848	0.87155923
381.063	0.87212544
381.278	0.88091969
381.492	0.8721384
381.707	0.88270574
381.921	0.88161692
382.136	0.89475261
382.35	0.8862747
382.565	0.87844187
382.779	0.87159773
382.994	0.87640324
383.208	0.86518447
383.422	0.87579989
383.637	0.8669228
383.851	0.87341857
384.066	0.87733843
384.28	0.87858012
384.494	0.88017393
384.709	0.8843419
384.923	0.88022925
385.137	0.86999912
385.352	0.86392323
385.566	0.86500382
385.78	0.85812137
385.995	0.85192573
386.209	0.84375944
386.423	0.84444465
386.637	0.84920375
386.852	0.84108954
387.066	0.83713631
387.28	0.82947433
387.494	0.8323683
387.708	0.83230159
387.923	0.82564837
388.137	0.82781921
388.351	0.82911899
388.565	0.8298731
388.779	0.83190918
388.993	0.83768786
389.207	0.83652131
389.421	0.8361389
389.635	0.82697422
389.85	0.82253849
390.064	0.81875933
390.278	0.815993
390.492	0.81021257
390.706	0.80763116
390.92	0.80319168
391.134	0.80569556
391.348	0.81274065
391.561	0.80676787
391.775	0.80213982
391.989	0.79158427
392.203	0.79175621
392.417	0.7913333
392.631	0.79150358
392.845	0.78088185
393.059	0.78206736
393.273	0.7775466
393.486	0.77223835
393.7	0.76383411
393.914	0.76338984
394.128	0.75750539
394.342	0.75261987
394.555	0.74295492
394.769	0.74175709
394.983	0.74303331
395.197	0.74259577
395.41	0.73756531
395.624	0.73609373
395.838	0.73333211
396.051	0.73896469
396.265	0.73414911
396.479	0.73199304
396.692	0.72953898
396.906	0.7230456
397.12	0.71811235
397.333	0.71839916
397.547	0.71173565
397.76	0.71171913
397.974	0.70808797
398.187	0.70588103
398.401	0.70757182
398.614	0.70577018
398.828	0.70210664
399.041	0.70046571
399.255	0.69757932
399.468	0.69461452
399.682	0.69128083
399.895	0.68880364
400.109	0.68460838
400.322	0.68088875
400.536	0.6736938
400.749	0.6725869
400.962	0.67009211
401.176	0.66584535
401.389	0.66118274
401.602	0.65427599
401.816	0.65342613
402.029	0.65447239
402.242	0.65053678
402.456	0.64736329
402.669	0.64392451
402.882	0.63775043
403.095	0.63979396
403.309	0.63552646
403.522	0.63274867
403.735	0.62842049
403.948	0.62630515
404.161	0.62862373
404.375	0.62809945
404.588	0.62569427
404.801	0.62364505
405.014	0.61950884
405.227	0.62001902
405.44	0.61872235
405.653	0.61553429
405.866	0.6111563
406.079	0.60707439
406.293	0.60453352
406.506	0.6023297
406.719	0.5980234
406.932	0.59412081
407.145	0.58887653
407.358	0.59011758
407.571	0.58724345
407.784	0.58571008
407.996	0.58435004
408.209	0.58062823
408.422	0.57735186
408.635	0.57640409
408.848	0.574022
409.061	0.56977331
409.274	0.56635701
409.487	0.56335624
409.7	0.56254245
409.912	0.56198459
410.125	0.55917678
410.338	0.55622849
410.551	0.55536898
410.764	0.5532416
410.976	0.55126543
411.189	0.54872426
411.402	0.54512916
411.615	0.5439036
411.827	0.54183651
412.04	0.53971062
412.253	0.53718741
412.465	0.53453179
412.678	0.53147911
412.891	0.53071181
413.103	0.52639598
413.316	0.52357364
413.529	0.52314667
413.741	0.52268551
413.954	0.52116671
414.166	0.52015087
414.379	0.51697142
414.591	0.51631168
414.804	0.51417388
415.016	0.51156731
415.229	0.50814412
415.441	0.50555637
415.654	0.50409663
415.866	0.50287941
416.079	0.50175561
416.291	0.49954005
416.504	0.49900837
416.716	0.49759979
416.928	0.49654088
417.141	0.49385133
417.353	0.49257623
417.566	0.48957783
417.778	0.48886579
417.99	0.48514734
418.203	0.4826998
418.415	0.48067686
418.627	0.47991311
418.839	0.47781244
419.052	0.47762528
419.264	0.4757616
419.476	0.47515862
419.688	0.47404892
419.901	0.472292
420.113	0.4697733
420.325	0.46791735
420.537	0.4651859
420.749	0.4639219
420.961	0.46257543
421.174	0.46066409
421.386	0.45847014
421.598	0.45688939
421.81	0.45548607
422.022	0.45359622
422.234	0.45170722
422.446	0.44931024
422.658	0.447993
422.87	0.44704195
423.082	0.44568568
423.294	0.4441023
423.506	0.44317538
423.718	0.44161164
423.93	0.43997313
424.142	0.43813107
424.354	0.43631186
424.566	0.43480914
424.778	0.43385376
424.99	0.43206504
425.202	0.43042944
425.414	0.42916161
425.625	0.42830396
425.837	0.42629868
426.049	0.42543623
426.261	0.42367586
426.473	0.4219274
426.684	0.42080666
426.896	0.42014175
427.108	0.41839234
427.32	0.4180017
427.531	0.41597005
427.743	0.41455957
427.955	0.41407092
428.167	0.41249531
428.378	0.41068091
428.59	0.40947886
428.802	0.40798883
429.013	0.40680129
429.225	0.405438
429.436	0.40409015
429.648	0.40362431
429.86	0.40267989
430.071	0.40189846
430.283	0.40095826
430.494	0.3999298
430.706	0.39885842
430.917	0.39759456
431.129	0.39594716
431.34	0.39482346
431.552	0.39361767
431.763	0.39223504
431.975	0.39141077
432.186	0.3900727
432.398	0.38902255
432.609	0.3874747
432.821	0.38620534
433.032	0.38512358
433.243	0.38398454
433.455	0.38289202
433.666	0.38217895
433.877	0.38164703
434.089	0.38036292
434.3	0.37908007
434.511	0.37755359
434.723	0.37671644
434.934	0.37522425
435.145	0.37355331
435.356	0.372129
435.568	0.37141369
435.779	0.3704809
435.99	0.36938134
436.201	0.3681475
436.412	0.36703007
436.624	0.36649791
436.835	0.36565487
437.046	0.36518657
437.257	0.36431871
437.468	0.36392496
437.679	0.36345294
437.89	0.36282466
438.101	0.36214142
438.312	0.36111735
438.523	0.35985271
438.734	0.35902851
438.945	0.35822185
439.156	0.35686382
439.367	0.35605625
439.578	0.35535222
439.789	0.3539213
440	0.35322454
440.211	0.35196349
440.422	0.35117857
440.633	0.3505491
440.844	0.34937379
441.055	0.34834363
441.266	0.3480965
441.477	0.34711789
441.687	0.34678853
441.898	0.34575046
442.109	0.34478412
442.32	0.34403536
442.531	0.34281255
442.741	0.34143135
442.952	0.34063665
443.163	0.3396758
443.374	0.3387511
443.584	0.33780554
443.795	0.33720465
444.006	0.33672758
444.216	0.3361055
444.427	0.33498919
444.638	0.33416768
444.848	0.33330815
445.059	0.33272457
445.27	0.33188229
445.48	0.33086662
445.691	0.33023855
445.901	0.32965778
446.112	0.32886916
446.323	0.32786782
446.533	0.3270388
446.744	0.32608755
446.954	0.32531535
447.165	0.32463289
447.375	0.32415867
447.586	0.32365503
447.796	0.32317602
448.006	0.32238302
448.217	0.32207566
448.427	0.32140413
448.638	0.32053817
448.848	0.31944185
449.058	0.3184928
449.269	0.31778809
449.479	0.3171164
449.689	0.31614238
449.9	0.31548312
450.11	0.31493188
450.32	0.31480586
450.531	0.31416813
450.741	0.3136323
450.951	0.31323008
451.161	0.31274033
451.372	0.312247
451.582	0.31203339
451.792	0.31108254
452.002	0.31045786
452.212	0.30966139
452.422	0.30891966
452.633	0.30805582
452.843	0.3076692
453.053	0.30647356
453.263	0.30594187
453.473	0.30536842
453.683	0.30509887
453.893	0.30434281
454.103	0.30421486
454.313	0.30335081
454.523	0.30286961
454.733	0.30248876
454.943	0.3021375
455.153	0.30158211
455.363	0.3013018
455.573	0.30064886
455.783	0.30025899
455.993	0.29975405
456.203	0.29931904
456.413	0.29880433
456.623	0.29803417
456.833	0.29758793
457.042	0.29709553
457.252	0.29667335
457.462	0.29617225
457.672	0.29553515
457.882	0.29486553
458.091	0.29436735
458.301	0.29355917
458.511	0.29279243
458.721	0.29225411
458.931	0.29171499
459.14	0.29117764
459.35	0.29080712
459.56	0.29041231
459.769	0.29017236
459.979	0.28961767
460.189	0.28899318
460.398	0.28854955
460.608	0.28806028
460.817	0.28762564
461.027	0.2871386
461.237	0.28647586
461.446	0.2862229
461.656	0.28586884
461.865	0.28542865
462.075	0.28507991
462.284	0.28462403
462.494	0.28423667
462.703	0.28383469
462.913	0.28348916
463.122	0.28291749
463.332	0.28254832
463.541	0.28230885
463.751	0.28190894
463.96	0.28152377
464.169	0.28108629
464.379	0.28084373
464.588	0.28062539
464.797	0.28012677
465.007	0.27951471
465.216	0.27915343
465.425	0.27887091
465.635	0.27868284
465.844	0.27824283
466.053	0.2779895
466.263	0.27779494
466.472	0.27756885
466.681	0.27732782
466.89	0.2768614
467.099	0.27652556
467.309	0.27611836
467.518	0.2759081
467.727	0.27560463
467.936	0.27521765
468.145	0.27496075
468.354	0.27485774
468.563	0.27463085
468.772	0.27438101
468.982	0.27401409
469.191	0.27398613
469.4	0.27378288
469.609	0.27344605
469.818	0.27341716
470.027	0.27323867
470.236	0.27304953
470.445	0.2728623
470.654	0.27228926
470.863	0.27192853
471.072	0.27167368
471.28	0.27112275
471.489	0.2709597
471.698	0.27067821
471.907	0.2704
472.116	0.27032474
472.325	0.27024777
472.534	0.27017892
472.743	0.26997615
472.951	0.26985357
473.16	0.26980556
473.369	0.26951821
473.578	0.26938939
473.786	0.26927817
473.995	0.26903613
474.204	0.26898667
474.413	0.26863993
474.621	0.26842508
474.83	0.26846707
475.039	0.26830191
475.247	0.26824668
475.456	0.26820446
475.665	0.26816562
475.873	0.2680693
476.082	0.2679081
476.291	0.26777885
476.499	0.26774052
476.708	0.26750367
476.916	0.26732303
477.125	0.26716686
477.333	0.26713431
477.542	0.2671077
477.75	0.267012
477.959	0.26694499
478.167	0.26698785
478.376	0.26681477
478.584	0.26672297
478.793	0.26648963
479.001	0.26642132
479.209	0.2662366
479.418	0.26608535
479.626	0.26588898
479.834	0.2658852
480.043	0.26587968
480.251	0.26584872
480.459	0.26577757
480.668	0.26576926
480.876	0.26575841
481.084	0.26574752
481.293	0.26576827
481.501	0.26569021
481.709	0.26587321
481.917	0.26590899
482.125	0.26594128
482.334	0.26595856
482.542	0.26599905
482.75	0.26599316
482.958	0.26603188
483.166	0.26602809
483.374	0.26608641
483.583	0.26613177
483.791	0.26620647
483.999	0.26606606
484.207	0.26615773
484.415	0.2661689
484.623	0.2660761
484.831	0.26604307
485.039	0.26611672
485.247	0.2660963
485.455	0.26628481
485.663	0.26625978
485.871	0.26632788
486.079	0.26641506
486.287	0.26644997
486.495	0.26642008
486.702	0.26642573
486.91	0.26649723
487.118	0.2665197
487.326	0.26660101
487.534	0.2666514
487.742	0.2668227
487.95	0.266945
488.157	0.26717249
488.365	0.26734401
488.573	0.26756345
488.781	0.26769037
488.988	0.26794787
489.196	0.26811286
489.404	0.26824957
489.612	0.26833952
489.819	0.26838016
490.027	0.26855453
490.235	0.26864676
490.442	0.26880114
490.65	0.26886012
490.857	0.26912467
491.065	0.26931198
491.273	0.26954436
491.48	0.26969727
491.688	0.26984183
491.895	0.26991325
492.103	0.27003178
492.31	0.27016618
492.518	0.27028656
492.725	0.27044091
492.933	0.27054411
493.14	0.27073445
493.348	0.27087638
493.555	0.27110786
493.763	0.27120065
493.97	0.27131867
494.177	0.27148174
494.385	0.27176181
494.592	0.27200012
494.8	0.27219269
495.007	0.27237447
495.214	0.27264841
495.422	0.27297944
495.629	0.2732068
495.836	0.27332259
496.043	0.27355355
496.251	0.27387371
496.458	0.2741757
496.665	0.27439644
496.872	0.2745826
497.08	0.27489872
497.287	0.27519131
497.494	0.27548183
497.701	0.27570419
497.908	0.27594934
498.115	0.27624032
498.322	0.27648347
498.53	0.2766481
498.737	0.27688563
498.944	0.27710791
499.151	0.27745053
499.358	0.27772276
499.565	0.27796182
499.772	0.27832141
499.979	0.27866132
500.186	0.27902145
500.393	0.27933493
500.6	0.27958333
500.807	0.27988882
501.014	0.28026733
501.221	0.28053909
501.427	0.28086777
501.634	0.28124117
501.841	0.28150409
502.048	0.28181982
502.255	0.28207163
502.462	0.28233496
502.669	0.28269513
502.875	0.28306964
503.082	0.28330653
503.289	0.28369612
503.496	0.28407697
503.702	0.28445846
503.909	0.28483932
504.116	0.2851474
504.323	0.28543831
504.529	0.28585622
504.736	0.2861607
504.943	0.28652883
505.149	0.28696725
505.356	0.28734371
505.563	0.2877915
505.769	0.28813968
505.976	0.28849364
506.182	0.28899401
506.389	0.289413
506.595	0.28981771
506.802	0.29020006
507.008	0.2905283
507.215	0.29093208
507.421	0.29134455
507.628	0.29166264
507.834	0.29194896
508.041	0.29235607
508.247	0.29270551
508.454	0.29313936
508.66	0.29349892
508.866	0.29379968
509.073	0.29423628
509.279	0.29469013
509.486	0.29505778
509.692	0.29550728
509.898	0.29589483
510.105	0.29635346
510.311	0.2968542
510.517	0.29728731
510.723	0.29777561
510.93	0.29826445
511.136	0.29869984
511.342	0.29919721
511.548	0.29967585
511.754	0.30016585
511.961	0.30058224
512.167	0.30092344
512.373	0.30129096
512.579	0.30176447
512.785	0.30219106
512.991	0.30259777
513.197	0.30302893
513.404	0.30351493
513.61	0.30404876
513.816	0.30450608
514.022	0.30502646
514.228	0.30548919
514.434	0.30599125
514.64	0.30644649
514.846	0.30693705
515.052	0.30738202
515.258	0.30790341
515.464	0.30834959
515.669	0.30884311
515.875	0.30933068
516.081	0.30987883
516.287	0.31037804
516.493	0.31089204
516.699	0.31129868
516.905	0.31173033
517.111	0.31217138
517.316	0.3126866
517.522	0.31312992
517.728	0.31364413
517.934	0.31417316
518.139	0.3147205
518.345	0.31524327
518.551	0.31578086
518.757	0.31626187
518.962	0.31679085
519.168	0.31726287
519.374	0.31766794
519.579	0.31818411
519.785	0.31870596
519.991	0.31925171
520.196	0.31980087
520.402	0.3202857
520.607	0.32082318
520.813	0.32147307
521.018	0.32204532
521.224	0.32249333
521.429	0.32299176
521.635	0.3235076
521.84	0.3239935
522.046	0.32461363
522.251	0.32512871
522.457	0.3256182
522.662	0.32627618
522.868	0.32686766
523.073	0.32743229
523.279	0.3280717
523.484	0.32850743
523.689	0.32900706
523.895	0.32959144
524.1	0.33009976
524.305	0.33064309
524.511	0.33113641
524.716	0.33163674
524.921	0.33217905
525.126	0.33271808
525.332	0.33325121
525.537	0.33379926
525.742	0.33434229
525.947	0.33503747
526.153	0.33560725
526.358	0.33624435
526.563	0.33683311
526.768	0.33740656
526.973	0.33793699
527.178	0.33845554
527.383	0.33891251
527.588	0.33947227
527.794	0.34002921
527.999	0.3405992
528.204	0.34120232
528.409	0.34174651
528.614	0.34243877
528.819	0.34304883
529.024	0.3435846
529.229	0.34408418
529.434	0.34470282
529.639	0.3452239
529.843	0.34592475
530.048	0.3464089
530.253	0.34692441
530.458	0.34756825
530.663	0.3481457
530.868	0.34871087
531.073	0.34927942
531.278	0.34977424
531.482	0.35033665
531.687	0.35096536
531.892	0.35152785
532.097	0.35205663
532.302	0.35261616
532.506	0.35319954
532.711	0.35380662
532.916	0.35440517
533.12	0.35491937
533.325	0.35547603
533.53	0.3561929
533.734	0.35678801
533.939	0.35733345
534.144	0.35788116
534.348	0.35846555
534.553	0.35902483
534.757	0.35956008
534.962	0.36003782
535.167	0.36062738
535.371	0.36122516
535.576	0.36185233
535.78	0.36249081
535.985	0.36315179
536.189	0.36380292
536.394	0.3645091
536.598	0.36500665
536.803	0.36556164
537.007	0.36609871
537.211	0.36668707
537.416	0.36723422
537.62	0.3677522
537.825	0.36819655
538.029	0.36890353
538.233	0.36945862
538.438	0.3701
538.642	0.37053125
538.846	0.37110057
539.05	0.37169713
539.255	0.37225035
539.459	0.37277182
539.663	0.37337104
539.867	0.37387142
540.072	0.37446243
540.276	0.37504216
540.48	0.37561983
540.684	0.37622104
540.888	0.37682291
541.092	0.37743852
541.297	0.37799305
541.501	0.37856314
541.705	0.37909075
541.909	0.3795906
542.113	0.38012259
542.317	0.38062357
542.521	0.38114988
542.725	0.38171606
542.929	0.38231772
543.133	0.38294538
543.337	0.38359903
543.541	0.3841633
543.745	0.38468717
543.949	0.38523263
544.153	0.38573766
544.357	0.38621023
544.56	0.38670031
544.764	0.38722602
544.968	0.38776945
545.172	0.38825172
545.376	0.38879024
545.58	0.38935407
545.783	0.38994984
545.987	0.39039539
546.191	0.39081741
546.395	0.39135128
546.598	0.39193694
546.802	0.39248742
547.006	0.39302319
547.21	0.39349036
547.413	0.3940932
547.617	0.39469389
547.821	0.39519938
548.024	0.39577679
548.228	0.39620075
548.431	0.39668994
548.635	0.39719331
548.839	0.39768501
549.042	0.39823426
549.246	0.39872039
549.449	0.39914494
549.653	0.39963286
549.856	0.40003531
550.06	0.40048545
550.263	0.40100235
550.467	0.40143282
550.67	0.40193941
550.874	0.40237541
551.077	0.40288835
551.28	0.40349919
551.484	0.4040366
551.687	0.40443309
551.891	0.40493501
552.094	0.40538194
552.297	0.40591205
552.501	0.40647561
552.704	0.40685364
552.907	0.40729368
553.11	0.40775047
553.314	0.40821184
553.517	0.40858269
553.72	0.40902661
553.923	0.40942755
554.127	0.40995509
554.33	0.41030836
554.533	0.41076868
554.736	0.41106685
554.939	0.41153879
555.142	0.41198347
555.345	0.41241713
555.549	0.41280669
555.752	0.41322753
555.955	0.4136388
556.158	0.41412858
556.361	0.41458248
556.564	0.41495783
556.767	0.41530531
556.97	0.41568263
557.173	0.41607753
557.376	0.4165365
557.579	0.41694654
557.782	0.41731242
557.984	0.41766952
558.187	0.41809403
558.39	0.41845539
558.593	0.41899643
558.796	0.41922609
558.999	0.4195045
559.202	0.4199084
559.404	0.42021126
559.607	0.42049789
559.81	0.42085514
560.013	0.42106233
560.216	0.42149177
560.418	0.42185831
560.621	0.42215028
560.824	0.42253168
561.026	0.42296773
561.229	0.42320883
561.432	0.42359253
561.634	0.42389476
561.837	0.42413793
562.04	0.42442299
562.242	0.42480251
562.445	0.42497251
562.647	0.42533063
562.85	0.42554702
563.053	0.42584342
563.255	0.42621381
563.458	0.42651772
563.66	0.42671965
563.863	0.42712889
564.065	0.42742529
564.268	0.42769359
564.47	0.42796964
564.672	0.4282104
564.875	0.42848841
565.077	0.42872719
565.28	0.42892965
565.482	0.42921085
565.684	0.42941959
565.887	0.42961258
566.089	0.42983001
566.291	0.430044
566.494	0.43028917
566.696	0.43050567
566.898	0.43068161
567.1	0.43099631
567.303	0.43123371
567.505	0.43149371
567.707	0.43164554
567.909	0.43178235
568.111	0.43192556
568.314	0.43215015
568.516	0.43233213
568.718	0.43251775
568.92	0.43264998
569.122	0.43282994
569.324	0.43307101
569.526	0.43323355
569.728	0.4334337
569.93	0.43358312
570.132	0.43372008
570.334	0.43393817
570.536	0.43411744
570.738	0.43422791
570.94	0.43430935
571.142	0.43441729
571.344	0.43446898
571.546	0.43457941
571.748	0.4346966
571.95	0.43470302
572.152	0.4347618
572.354	0.43490297
572.555	0.43498553
572.757	0.43518572
572.959	0.43525097
573.161	0.43527734
573.363	0.43539821
573.564	0.4356383
573.766	0.43573186
573.968	0.43581686
574.17	0.4358186
574.371	0.43595564
574.573	0.43609019
574.775	0.43619087
574.976	0.4361121
575.178	0.43619132
575.38	0.4361665
575.581	0.43620369
575.783	0.43627146
575.985	0.43626859
576.186	0.436366
576.388	0.43643713
576.589	0.4364551
576.791	0.43659824
576.992	0.43666538
577.194	0.43665968
577.395	0.43664824
577.597	0.43666488
577.798	0.43668224
578	0.43666197
578.201	0.43660716
578.402	0.43663003
578.604	0.43652407
578.805	0.43659925
579.007	0.43652694
579.208	0.43650865
579.409	0.43645571
579.611	0.43640836
579.812	0.43636975
580.013	0.43639288
580.215	0.43618967
580.416	0.4361331
580.617	0.43606281
580.818	0.43607266
581.019	0.43602813
581.221	0.43594332
581.422	0.43592622
581.623	0.4359927
581.824	0.43586644
582.025	0.43581277
582.226	0.43569901
582.428	0.4356909
582.629	0.43560844
582.83	0.43552369
583.031	0.43535051
583.232	0.43542216
583.433	0.43539451
583.634	0.43534057
583.835	0.43519927
584.036	0.4351141
584.237	0.43493685
584.438	0.43491528
584.639	0.43469588
584.84	0.43466397
585.041	0.43453127
585.242	0.4344707
585.442	0.43436708
585.643	0.43445939
585.844	0.43435857
586.045	0.4343091
586.246	0.43398761
586.447	0.43383886
586.647	0.43365752
586.848	0.43351204
587.049	0.43331849
587.25	0.43307857
587.45	0.43290868
587.651	0.43294308
587.852	0.43284752
588.053	0.43284609
588.253	0.43273903
588.454	0.43253611
588.655	0.4324508
588.855	0.43230273
589.056	0.4320775
589.256	0.43199529
589.457	0.43179205
589.658	0.43164031
589.858	0.43148289
590.059	0.43137677
590.259	0.43128472
590.46	0.43117605
590.66	0.43098656
590.861	0.43086232
591.061	0.43067585
591.262	0.43060931
591.462	0.4304888
591.662	0.43032776
591.863	0.43012275
592.063	0.43000539
592.264	0.42980725
592.464	0.42973239
592.664	0.42956247
592.865	0.42949998
593.065	0.42925464
593.265	0.42920693
593.465	0.42896499
593.666	0.42881227
593.866	0.42855064
594.066	0.42839499
594.266	0.42807794
594.467	0.42788837
594.667	0.42756772
594.867	0.42746202
595.067	0.42714877
595.267	0.4269275
595.467	0.42670397
595.668	0.42656996
595.868	0.42645162
596.068	0.42632884
596.268	0.42606826
596.468	0.4260356
596.668	0.42590784
596.868	0.42571042
597.068	0.42547648
597.268	0.42534257
597.468	0.42511289
597.668	0.42495171
597.868	0.42475341
598.068	0.42465793
598.268	0.42450022
598.467	0.42442303
598.667	0.4241681
598.867	0.42401644
599.067	0.42388089
599.267	0.42368259
599.467	0.42339919
599.667	0.42315209
599.866	0.42294352
600.066	0.4227822
600.266	0.42254742
600.466	0.4223722
600.665	0.42218554
600.865	0.4220562
601.065	0.42194481
601.264	0.42171058
601.464	0.4214973
601.664	0.42152405
601.863	0.42133963
602.063	0.42121307
602.263	0.42092033
602.462	0.42077195
602.662	0.42062323
602.861	0.4205665
603.061	0.42031283
603.26	0.42018908
603.46	0.42000663
603.659	0.41995807
603.859	0.41973139
604.058	0.41953602
604.258	0.41936331
604.457	0.41931733
604.657	0.4190521
604.856	0.4187945
605.056	0.41868656
605.255	0.4185283
605.454	0.41846375
605.654	0.4182256
605.853	0.41797811
606.052	0.41784842
606.252	0.4178391
606.451	0.41767804
606.65	0.4176122
606.849	0.4173363
607.049	0.41722461
607.248	0.41700437
607.447	0.41684572
607.646	0.41672009
607.845	0.41658267
608.045	0.41631179
608.244	0.41635663
608.443	0.41619809
608.642	0.41621841
608.841	0.41607155
609.04	0.41586591
609.239	0.41576111
609.438	0.41564917
609.637	0.4155694
609.836	0.41546583
610.035	0.41531905
610.234	0.4153429
610.433	0.41528175
610.632	0.41518017
610.831	0.41527065
611.03	0.41504967
611.229	0.4151765
611.428	0.41507874
611.627	0.41499522
611.826	0.41499234
612.025	0.41506402
612.224	0.41485961
612.422	0.41486788
612.621	0.41468889
612.82	0.41468506
613.019	0.41464436
613.218	0.4146429
613.416	0.414477
613.615	0.41453975
613.814	0.41451289
614.012	0.41448556
614.211	0.41429696
614.41	0.41431936
614.608	0.41416309
614.807	0.41410276
615.006	0.41408477
615.204	0.41401975
615.403	0.41399576
615.602	0.41412649
615.8	0.41414524
615.999	0.41412526
616.197	0.41413958
616.396	0.41417483
616.594	0.41415475
616.793	0.41421164
616.991	0.4141257
617.19	0.41390385
617.388	0.41402557
617.586	0.41405784
617.785	0.41399377
617.983	0.41399217
618.182	0.41393479
618.38	0.4138851
618.578	0.41396291
618.777	0.41391621
618.975	0.41392298
619.173	0.41395355
619.372	0.41401347
619.57	0.41397083
619.768	0.41405599
619.966	0.41412406
620.165	0.41414577
620.363	0.41427169
620.561	0.4141652
620.759	0.41422119
620.957	0.41438065
621.155	0.41449731
621.354	0.41451175
621.552	0.41470021
621.75	0.41456717
621.948	0.4148263
622.146	0.41489867
622.344	0.41488675
622.542	0.41493404
622.74	0.41500322
622.938	0.41489614
623.136	0.41510074
623.334	0.41517227
623.532	0.41507164
623.73	0.41517357
623.928	0.4153118
624.126	0.41543181
624.324	0.41560954
624.522	0.41553841
624.719	0.41554943
624.917	0.41573914
625.115	0.41573567
625.313	0.41578654
625.511	0.41594506
625.708	0.41585383
625.906	0.41598397
626.104	0.41601018
626.302	0.41623071
626.499	0.41643805
626.697	0.41657766
626.895	0.41658184
627.093	0.41679446
627.29	0.41702279
627.488	0.41720316
627.686	0.41735071
627.883	0.41742065
628.081	0.41736722
628.278	0.41766438
628.476	0.41778697
628.673	0.4178938
628.871	0.41802742
629.068	0.41806466
629.266	0.41827426
629.463	0.41840757
629.661	0.41843907
629.858	0.41856102
630.056	0.41860067
630.253	0.41872019
630.451	0.41888073
630.648	0.41900253
630.845	0.41921734
631.043	0.41939631
631.24	0.41968537
631.438	0.41992549
631.635	0.42005309
631.832	0.4200845
632.029	0.42024504
632.227	0.42045246
632.424	0.42057303
632.621	0.42055908
632.818	0.42064338
633.016	0.42091906
633.213	0.42107133
633.41	0.42128975
633.607	0.42137606
633.804	0.42153878
634.001	0.42168657
634.199	0.42196179
634.396	0.42206054
634.593	0.42231726
634.79	0.42244946
634.987	0.4227232
635.184	0.42290979
635.381	0.42324472
635.578	0.42348298
635.775	0.42365332
635.972	0.42385975
636.169	0.42402816
636.366	0.42416003
636.563	0.42428759
636.76	0.42429541
636.957	0.42439616
637.153	0.42442473
637.35	0.42461277
637.547	0.4247763
637.744	0.42495742
637.941	0.4251922
638.138	0.42551013
638.334	0.42561475
638.531	0.42594119
638.728	0.42604356
638.925	0.42633839
639.121	0.4265278
639.318	0.42668608
639.515	0.42679531
639.711	0.42711428
639.908	0.42717681
640.105	0.42742743
640.301	0.42747968
640.498	0.42759264
640.695	0.42782967
640.891	0.42795835
641.088	0.42806946
641.284	0.42840461
641.481	0.42862332
641.677	0.42877738
641.874	0.42896051
642.07	0.42921117
642.267	0.42956888
642.463	0.42970032
642.66	0.42993031
642.856	0.4300259
643.053	0.43020088
643.249	0.43048283
643.445	0.43060374
643.642	0.43078716
643.838	0.43108012
644.034	0.43126797
644.231	0.43151597
644.427	0.43177936
644.623	0.43194013
644.82	0.43216141
645.016	0.43232649
645.212	0.4324498
645.408	0.43265449
645.604	0.43298384
645.801	0.43323866
645.997	0.43342394
646.193	0.43351684
646.389	0.43379198
646.585	0.4340275
646.781	0.43423504
646.977	0.43436061
647.173	0.43454338
647.37	0.43468892
647.566	0.43494739
647.762	0.43507174
647.958	0.4353787
648.154	0.43547473
648.35	0.43565255
648.546	0.43579504
648.742	0.43615138
648.937	0.43627244
649.133	0.43652451
649.329	0.43673362
649.525	0.43698235
649.721	0.43713996
649.917	0.43749239
650.113	0.43755441
650.309	0.43795034
650.504	0.43799996
650.7	0.43804908
650.896	0.43828063
651.092	0.43847446
651.287	0.43852603
651.483	0.4388361
651.679	0.43890626
651.875	0.43922723
652.07	0.43944763
652.266	0.43958326
652.462	0.43977701
652.657	0.43993718
652.853	0.44004703
653.048	0.4401809
653.244	0.4402004
653.44	0.44034696
653.635	0.44050176
653.831	0.44072072
654.026	0.44103242
654.222	0.44122062
654.417	0.44156211
654.613	0.44184475
654.808	0.44196135
655.004	0.44222687
655.199	0.44229468
655.394	0.44236656
655.59	0.44259085
655.785	0.4425931
655.98	0.44284755
656.176	0.4430898
656.371	0.44334216
656.566	0.44362734
656.762	0.443715
656.957	0.44388958
657.152	0.44405616
657.348	0.44411694
657.543	0.44431397
657.738	0.44445009
657.933	0.44454631
658.128	0.44477577
658.324	0.44490898
658.519	0.44515061
658.714	0.44535113
658.909	0.44546921
659.104	0.44558405
659.299	0.44575657
659.494	0.44588004
659.689	0.44609568
659.884	0.44618476
660.079	0.446254
660.274	0.44641068
660.469	0.44656542
660.664	0.44679986
660.859	0.44699314
661.054	0.44704204
661.249	0.44723784
661.444	0.4473663
661.639	0.44742676
661.834	0.44743968
662.029	0.44751097
662.224	0.44761306
662.418	0.44779037
662.613	0.44793153
662.808	0.44808859
663.003	0.44827718
663.198	0.44840476
663.392	0.4484565
663.587	0.44875405
663.782	0.4488173
663.977	0.44891015
664.171	0.44909391
664.366	0.44927955
664.561	0.44946921
664.755	0.44968327
664.95	0.44961084
665.144	0.44971902
665.339	0.44989647
665.534	0.44999602
665.728	0.45012346
665.923	0.45022454
666.117	0.45030809
666.312	0.45045739
666.506	0.45070376
666.701	0.45068507
666.895	0.45075862
667.09	0.45081383
667.284	0.45102551
667.479	0.45111911
667.673	0.45120378
667.867	0.45131039
668.062	0.45140478
668.256	0.45153114
668.45	0.45168851
668.645	0.45166147
668.839	0.45177738
669.033	0.4518562
669.228	0.45181216
669.422	0.4519778
669.616	0.45204996
669.81	0.45214316
670.004	0.45221974
670.199	0.45230617
670.393	0.45238884
670.587	0.45254215
670.781	0.45262967
670.975	0.45279538
671.169	0.45274596
671.363	0.45285411
671.558	0.45290464
671.752	0.45308107
671.946	0.45317279
672.14	0.45328077
672.334	0.45325129
672.528	0.45351929
672.722	0.45346681
672.916	0.45356014
673.11	0.45342053
673.304	0.45352543
673.497	0.45339351
673.691	0.45349295
673.885	0.45334008
674.079	0.45356599
674.273	0.45353709
674.467	0.45379323
674.661	0.45380197
674.854	0.45396697
675.048	0.45402099
675.242	0.4541938
675.436	0.45421724
675.629	0.45429108
675.823	0.45417317
676.017	0.45422549
676.211	0.45420891
676.404	0.45420624
676.598	0.45419316
676.792	0.45421267
676.985	0.45433774
677.179	0.45440752
677.372	0.45433937
677.566	0.45450307
677.76	0.45458823
677.953	0.45461083
678.147	0.45465697
678.34	0.45467157
678.534	0.45472521
678.727	0.4548295
678.921	0.45488314
679.114	0.45481416
679.307	0.4549098
679.501	0.45493674
679.694	0.45489476
679.888	0.45487197
680.081	0.45489288
680.274	0.45473205
680.468	0.45482621
680.661	0.45482711
680.854	0.45489714
681.048	0.4549613
681.241	0.45498877
681.434	0.45496827
681.627	0.45511239
681.821	0.45510433
682.014	0.45514553
682.207	0.45503375
682.4	0.45500274
682.593	0.45510666
682.786	0.45509115
682.98	0.45505337
683.173	0.45506169
683.366	0.45498488
683.559	0.45499512
683.752	0.45504348
683.945	0.45497655
684.138	0.4550591
684.331	0.45502009
684.524	0.45510767
684.717	0.45504648
684.91	0.4550944
685.103	0.4550887
685.296	0.45511257
685.489	0.45506548
685.682	0.4550483
685.874	0.45511346
686.067	0.45519511
686.26	0.45515893
686.453	0.45506694
686.646	0.45498026
686.839	0.45490807
687.031	0.45489917
687.224	0.45465062
687.417	0.45463214
687.61	0.45457384
687.802	0.4545072
687.995	0.45453532
688.188	0.45456931
688.38	0.45453143
688.573	0.4545888
688.766	0.45450244
688.958	0.4543947
689.151	0.45432748
689.343	0.45434362
689.536	0.45429338
689.729	0.4543044
689.921	0.4542916
690.114	0.45413226
690.306	0.45418718
690.499	0.45423146
690.691	0.45413006
690.884	0.45405721
691.076	0.4540185
691.268	0.45387641
691.461	0.45377233
691.653	0.45375795
691.846	0.45374092
692.038	0.4536974
692.23	0.45358849
692.423	0.45348641
692.615	0.45343984
692.807	0.45354583
692.999	0.45347401
693.192	0.45335095
693.384	0.4533202
693.576	0.4532673
693.768	0.45325971
693.961	0.45316303
694.153	0.45310724
694.345	0.4529506
694.537	0.45291412
694.729	0.4527617
694.921	0.45269855
695.113	0.4526468
695.305	0.45260638
695.498	0.45246434
695.69	0.4524902
695.882	0.45238337
696.074	0.45244765
696.266	0.45236576
696.458	0.45219147
696.65	0.45218351
696.842	0.45215498
697.033	0.4520956
697.225	0.45201639
697.417	0.45198006
697.609	0.45193817
697.801	0.45193161
697.993	0.45195636
698.185	0.45189447
698.376	0.45186371
698.568	0.45181648
698.76	0.45169704
698.952	0.45164377
699.144	0.45161274
699.335	0.45148442
699.527	0.45142933
699.719	0.45123925
699.91	0.45121635
700.102	0.45107834
700.294	0.45102475
700.485	0.45092158
700.677	0.45075035
700.869	0.45073966
701.06	0.45075679
701.252	0.45069266
701.443	0.4506686
701.635	0.45064736
701.826	0.45056771
702.018	0.4505922
702.209	0.45053412
702.401	0.45050439
702.592	0.45049316
702.784	0.4504309
702.975	0.45036639
703.166	0.45037682
703.358	0.45026813
703.549	0.45016719
703.741	0.45006897
703.932	0.44989796
704.123	0.44978955
704.315	0.44967786
704.506	0.44963083
704.697	0.44950553
704.888	0.44946987
705.08	0.44939231
705.271	0.44937462
705.462	0.44924611
705.653	0.44917804
705.844	0.4490285
706.035	0.44899247
706.227	0.44887902
706.418	0.44876353
706.609	0.44868055
706.8	0.44870512
706.991	0.44860928
707.182	0.44854999
707.373	0.44844468
707.564	0.44839356
707.755	0.44824845
707.946	0.44811629
708.137	0.44791093
708.328	0.44776699
708.519	0.44771666
708.71	0.44764918
708.901	0.4475237
709.092	0.44757243
709.283	0.44756139
709.473	0.44756621
709.664	0.44758941
709.855	0.44745016
710.046	0.44744259
710.237	0.4473778
710.427	0.44722808
710.618	0.44719983
710.809	0.4471383
711	0.44709005
711.19	0.44697144
711.381	0.44696365
711.572	0.44694374
711.762	0.44699123
711.953	0.44693942
712.144	0.44690693
712.334	0.44679795
712.525	0.44684132
712.715	0.44671484
712.906	0.44663015
713.097	0.44645962
713.287	0.4463783
713.478	0.44630609
713.668	0.44629556
713.859	0.44626275
714.049	0.44622958
714.239	0.44621254
714.43	0.4462577
714.62	0.44620929
714.811	0.44619699
715.001	0.44615876
715.191	0.44612342
715.382	0.44604498
715.572	0.44611343
715.762	0.44603688
715.953	0.44605447
716.143	0.44600056
716.333	0.44592784
716.523	0.44584973
716.714	0.44591096
716.904	0.4457627
717.094	0.44583087
717.284	0.44562693
717.474	0.44551828
717.664	0.44545642
717.855	0.44538277
718.045	0.44524328
718.235	0.44518628
718.425	0.44514932
718.615	0.4452048
718.805	0.44523318
718.995	0.44529748
719.185	0.44536168
719.375	0.44543122
719.565	0.44542954
719.755	0.44537713
719.945	0.44535216
720.135	0.44544598
720.325	0.44547851
720.515	0.44545135
720.704	0.44535491
720.894	0.44536019
721.084	0.44529775
721.274	0.44533938
721.464	0.44530253
721.654	0.44533229
721.843	0.44530028
722.033	0.44535806
722.223	0.44541706
722.413	0.44554755
722.602	0.44558631
722.792	0.44553898
722.982	0.44543537
723.171	0.44544736
723.361	0.44544141
723.55	0.44548074
723.74	0.44539855
723.93	0.44531924
724.119	0.44533388
724.309	0.44536418
724.498	0.44537871
724.688	0.44540964
724.877	0.44533291
725.067	0.44527382
725.256	0.44536322
725.446	0.44541582
725.635	0.44532084
725.825	0.44525406
726.014	0.44526383
726.203	0.44517288
726.393	0.44509197
726.582	0.44485125
726.771	0.44465202
726.961	0.44461047
727.15	0.44461119
727.339	0.44441842
727.529	0.44437648
727.718	0.44431694
727.907	0.44430379
728.096	0.44428232
728.286	0.44421098
728.475	0.44414422
728.664	0.44411939
728.853	0.44404525
729.042	0.44393923
729.231	0.44396099
729.42	0.4440163
729.609	0.44405026
729.799	0.44395843
729.988	0.44397783
730.177	0.44392767
730.366	0.44400941
730.555	0.44389265
730.744	0.44379629
730.933	0.44372522
731.122	0.4437058
731.31	0.44368746
731.499	0.44375982
731.688	0.44375576
731.877	0.44383722
732.066	0.44389415
732.255	0.44389573
732.444	0.44385577
732.632	0.44376182
732.821	0.44368764
733.01	0.44371051
733.199	0.44357782
733.388	0.44343095
733.576	0.44337004
733.765	0.44341596
733.954	0.44339813
734.142	0.44337222
734.331	0.4432955
734.52	0.443367
734.708	0.44336838
734.897	0.44338934
735.086	0.44331817
735.274	0.44330823
735.463	0.44329027
735.651	0.44322476
735.84	0.44322676
736.028	0.4432376
736.217	0.44328638
736.405	0.44326476
736.594	0.44324765
736.782	0.44328521
736.971	0.4432901
737.159	0.4432914
737.347	0.44328676
737.536	0.44320811
737.724	0.44325579
737.912	0.44327585
738.101	0.44320138
738.289	0.44328544
738.477	0.44328406
738.666	0.44329609
738.854	0.44335306
739.042	0.4433428
739.23	0.44328638
739.418	0.44336376
739.607	0.44328558
739.795	0.44323227
739.983	0.44333916
740.171	0.44334197
740.359	0.44338187
740.547	0.44339828
740.735	0.44334021
740.923	0.44343777
741.112	0.44354692
741.3	0.44349504
741.488	0.44339342
741.676	0.44352046
741.864	0.4436201
742.052	0.44369207
742.239	0.44360681
742.427	0.44358963
742.615	0.44358857
742.803	0.44371813
742.991	0.4435495
743.179	0.44351492
743.367	0.44357213
743.555	0.44367504
743.742	0.44366763
743.93	0.44374388
744.118	0.44367841
744.306	0.44376668
744.494	0.44373833
744.681	0.44378344
744.869	0.44381897
745.057	0.44390638
745.244	0.44393138
745.432	0.44415439
745.62	0.44422642
745.807	0.44439602
745.995	0.44435034
746.182	0.44429654
746.37	0.44432042
746.558	0.4443222
746.745	0.4441615
746.933	0.44411638
747.12	0.44408701
747.308	0.44419222
747.495	0.44423454
747.683	0.44428758
747.87	0.44431046
748.057	0.4445
748.245	0.44465674
748.432	0.44475591
748.62	0.44479437
748.807	0.44489692
748.994	0.44492095
749.182	0.44494157
749.369	0.44488869
749.556	0.44484955
749.743	0.44484344
749.931	0.44482833
750.118	0.44490486
750.305	0.44494752
750.492	0.44498296
750.68	0.44508306
750.867	0.44511572
751.054	0.44524944
751.241	0.44534556
751.428	0.44542168
751.615	0.44544213
751.802	0.4455571
751.989	0.44554123
752.176	0.44572613
752.363	0.44578911
752.55	0.44576998
752.737	0.44579019
752.924	0.44580911
753.111	0.44588395
753.298	0.44600437
753.485	0.44602453
753.672	0.44599991
753.859	0.44616983
754.046	0.44619818
754.233	0.44627349
754.42	0.44636366
754.606	0.44633611
754.793	0.44626358
754.98	0.44629757
755.167	0.44623754
755.353	0.44632336
755.54	0.44640384
755.727	0.44638155
755.914	0.44649672
756.1	0.44663902
756.287	0.44671698
756.474	0.44681246
756.66	0.44685109
756.847	0.4469702
757.033	0.44695392
757.22	0.44698346
757.407	0.44709258
757.593	0.44715404
757.78	0.4472319
757.966	0.44733218
758.153	0.44728317
758.339	0.4473831
758.526	0.44740672
758.712	0.44729427
758.898	0.44735453
759.085	0.44734687
759.271	0.44733426
759.458	0.44745074
759.644	0.44756855
759.83	0.44767282
760.017	0.44790581
760.203	0.44793695
760.389	0.44802565
760.576	0.44812584
760.762	0.44817222
760.948	0.44817837
761.134	0.44820711
761.32	0.44821079
761.507	0.44821196
761.693	0.44838542
761.879	0.44840666
762.065	0.44854881
762.251	0.44864137
762.437	0.4487704
762.623	0.44882258
762.809	0.44892276
762.995	0.44886352
763.181	0.44894277
763.367	0.44892692
763.553	0.44899674
763.739	0.44907215
763.925	0.44909475
764.111	0.44926898
764.297	0.44942721
764.483	0.44954639
764.669	0.44962547
764.855	0.44968282
765.041	0.44978259
765.227	0.44987459
765.412	0.44997769
765.598	0.45003703
765.784	0.45012546
765.97	0.45030035
766.156	0.45053146
766.341	0.45062061
766.527	0.45070206
766.713	0.45068185
766.898	0.45072983
767.084	0.45077828
767.27	0.45065679
767.455	0.45046792
767.641	0.45047238
767.827	0.45058866
768.012	0.45069583
768.198	0.450717
768.383	0.45064828
768.569	0.45081136
768.754	0.45103996
768.94	0.45116685
769.125	0.45117052
769.311	0.45111656
769.496	0.45113326
769.682	0.45122605
769.867	0.4513596
770.052	0.45144652
770.238	0.45143826
770.423	0.45155754
770.608	0.45173653
770.794	0.45190584
770.979	0.45198246
771.164	0.45196274
771.35	0.45202321
771.535	0.45213327
771.72	0.45224828
771.905	0.45238547
772.09	0.45243695
772.276	0.45265852
772.461	0.45270446
772.646	0.45269847
772.831	0.45273945
773.016	0.45278653
773.201	0.45277961
773.386	0.45291611
773.571	0.45287647
773.756	0.45295225
773.941	0.45298665
774.126	0.45314201
774.311	0.45315219
774.496	0.45324469
774.681	0.45327994
774.866	0.45339439
775.051	0.45336625
775.236	0.45350906
775.421	0.45348516
775.606	0.45346222
775.791	0.45340638
775.976	0.45344662
776.16	0.45346481
776.345	0.45365956
776.53	0.45378638
776.715	0.45386803
776.899	0.45400689
777.084	0.45418209
777.269	0.45420186
777.454	0.45433149
777.638	0.45441062
777.823	0.45435652
778.008	0.45435332
778.192	0.45445437
778.377	0.45450041
778.561	0.45467549
778.746	0.45465652
778.931	0.45469149
779.115	0.45485099
779.3	0.45501574
779.484	0.45500561
779.669	0.45500685
779.853	0.45493765
780.037	0.45494853
780.222	0.45494406
780.406	0.45492288
780.591	0.45497059
780.775	0.45509048
780.959	0.45520295
781.144	0.45531732
781.328	0.4553974
781.512	0.45547595
781.697	0.45547525
781.881	0.45544826
782.065	0.45552121
782.249	0.45545651
782.434	0.45545905
782.618	0.45554499
782.802	0.45563854
782.986	0.45572331
783.17	0.45582582
783.354	0.4558359
783.539	0.45600973
783.723	0.4560027
783.907	0.45603691
784.091	0.45608435
784.275	0.4561069
784.459	0.45610444
784.643	0.45616603
784.827	0.45609542
785.011	0.45617766
785.195	0.45629569
785.379	0.45627322
785.563	0.4563347
785.747	0.45630158
785.93	0.45653637
786.114	0.45661027
786.298	0.45666397
786.482	0.45661774
786.666	0.4566663
786.85	0.45664465
787.033	0.45674627
787.217	0.45659149
787.401	0.45669996
787.585	0.45679382
787.768	0.45693959
787.952	0.45689351
788.136	0.45694398
788.319	0.45694087
788.503	0.45680411
788.687	0.4567285
788.87	0.45669079
789.054	0.45654064
789.237	0.45663604
789.421	0.45665593
789.605	0.45668819
789.788	0.45678405
789.972	0.45684062
790.155	0.45679651
790.338	0.45689658
790.522	0.45689735
790.705	0.45685668
790.889	0.45680079
791.072	0.45686676
791.256	0.45692866
791.439	0.45700614
791.622	0.45700453
791.806	0.45716298
791.989	0.45721488
792.172	0.45734269
792.355	0.45740469
792.539	0.45744404
792.722	0.45746677
792.905	0.45748464
793.088	0.45735053
793.271	0.45740059
793.455	0.45743913
793.638	0.45739346
793.821	0.45735423
794.004	0.45729809
794.187	0.45734538
794.37	0.45750187
794.553	0.45755886
794.736	0.45745177
794.919	0.45746555
795.102	0.45745162
795.285	0.45757651
795.468	0.45750383
795.651	0.45740341
795.834	0.45751652
796.017	0.45767671
796.2	0.45766663
796.383	0.45772247
796.566	0.45772753
796.749	0.45774766
796.931	0.45781603
797.114	0.45768126
797.297	0.45760004
797.48	0.45760431
797.663	0.45763412
797.845	0.45768152
798.028	0.45776618
798.211	0.45776631
798.393	0.45770947
798.576	0.45781084
798.759	0.45771802
798.941	0.45767126
799.124	0.45766034
799.307	0.45768174
799.489	0.45778596
799.672	0.45776844
799.854	0.4576092
800.037	0.45767993
800.219	0.45770922
800.402	0.45773035
800.584	0.45760468
800.767	0.45744352
800.949	0.45749908
801.132	0.4576677
801.314	0.45768108
801.496	0.45755555
801.679	0.45738079
801.861	0.45741283
802.043	0.45728745
802.226	0.45721982
802.408	0.45704374
802.59	0.45701538
802.772	0.4571922
802.955	0.45729814
803.137	0.45730595
803.319	0.45743778
803.501	0.45754501
803.684	0.45767558
803.866	0.45769476
804.048	0.45770081
804.23	0.45777202
804.412	0.45781523
804.594	0.45767647
804.776	0.4577284
804.958	0.45764493
805.14	0.45766916
805.322	0.45757876
805.504	0.45754286
805.686	0.4574835
805.868	0.45762258
806.05	0.45756206
806.232	0.45750286
806.414	0.45754794
806.596	0.45749365
806.778	0.45738448
806.96	0.45746196
807.141	0.45734844
807.323	0.45726862
807.505	0.457248
807.687	0.45716807
807.869	0.45719209
808.05	0.45712462
808.232	0.45697731
808.414	0.45698964
808.595	0.45696072
808.777	0.45689617
808.959	0.45691063
809.14	0.45682049
809.322	0.4568745
809.504	0.45683929
809.685	0.45694224
809.867	0.45693963
810.048	0.45691193
810.23	0.45678947
810.411	0.45672098
810.593	0.45652337
810.774	0.45640279
810.956	0.45622777
811.137	0.45606364
811.319	0.45611444
811.5	0.45609394
811.681	0.45610713
811.863	0.45603971
812.044	0.45601638
812.225	0.45600816
812.407	0.45609423
812.588	0.45593026
812.769	0.45591921
812.951	0.45582687
813.132	0.45586471
813.313	0.45594835
813.494	0.45581424
813.675	0.45574778
813.857	0.45578549
814.038	0.45573437
814.219	0.45567581
814.4	0.45556042
814.581	0.45550425
814.762	0.45536461
814.943	0.45525443
815.124	0.45512685
815.305	0.45499909
815.486	0.45500782
815.667	0.45497176
815.848	0.4548346
816.029	0.45483826
816.21	0.45478446
816.391	0.45477437
816.572	0.45469382
816.753	0.45467337
816.934	0.45464534
817.115	0.45460985
817.295	0.45465087
817.476	0.45446367
817.657	0.45436043
817.838	0.45442874
818.019	0.45422686
818.199	0.45416918
818.38	0.45406452
818.561	0.45405749
818.741	0.45416867
818.922	0.45401249
819.103	0.45383559
819.283	0.45384963
819.464	0.45380016
819.645	0.45370084
819.825	0.45349049
820.006	0.45321933
820.186	0.45323276
820.367	0.45319791
820.547	0.45295701
820.728	0.45280496
820.908	0.45276857
821.089	0.45279124
821.269	0.4528739
821.45	0.45291469
821.63	0.45266263
821.81	0.45271837
821.991	0.45279225
822.171	0.45278828
822.351	0.45262258
822.532	0.45251608
822.712	0.45229447
822.892	0.45224486
823.072	0.45219174
823.253	0.45198061
823.433	0.45183087
823.613	0.4518121
823.793	0.45164549
823.973	0.45159526
824.154	0.45147226
824.334	0.45131477
824.514	0.45119908
824.694	0.45105206
824.874	0.45080183
825.054	0.45079789
825.234	0.45067957
825.414	0.4505325
825.594	0.45035004
825.774	0.45027145
825.954	0.45020506
826.134	0.45014985
826.314	0.44999142
826.494	0.44991442
826.674	0.44971487
826.854	0.44959172
827.033	0.44936707
827.213	0.44937535
827.393	0.44919668
827.573	0.44908556
827.753	0.44895728
827.932	0.44911922
828.112	0.44917661
828.292	0.44922585
828.472	0.44901378
828.651	0.44905475
828.831	0.44889073
829.011	0.44880666
829.19	0.4486426
829.37	0.44839892
829.549	0.44825581
829.729	0.44803674
829.909	0.44786201
830.088	0.44778157
830.268	0.44749809
830.447	0.44745539
830.627	0.44748339
830.806	0.44744395
830.986	0.44733805
831.165	0.44726659
831.344	0.44720279
831.524	0.44715517
831.703	0.44701182
831.883	0.44673454
832.062	0.44650044
832.241	0.44639639
832.421	0.4462425
832.6	0.4461456
832.779	0.44617248
832.958	0.44608832
833.138	0.44596061
833.317	0.44605613
833.496	0.44600429
833.675	0.44592602
833.854	0.445892
834.034	0.44578297
834.213	0.44562624
834.392	0.4456469
834.571	0.44527258
834.75	0.44512276
834.929	0.4448366
835.108	0.44445499
835.287	0.44426953
835.466	0.44396763
835.645	0.44367442
835.824	0.44353756
836.003	0.44345282
836.182	0.4433541
836.361	0.443403
836.54	0.44310945
836.719	0.44305229
836.897	0.44296457
837.076	0.44285127
837.255	0.44262613
837.434	0.44255628
837.613	0.44233285
837.791	0.44225988
837.97	0.44219743
838.149	0.44210264
838.328	0.44195915
838.506	0.44177567
838.685	0.44164906
838.864	0.4416526
839.042	0.44148319
839.221	0.44144142
839.4	0.44129884
839.578	0.4411521
839.757	0.44088054
839.935	0.44065967
840.114	0.44054836
840.292	0.44047282
840.471	0.44027892
840.649	0.44018073
840.828	0.44008185
841.006	0.44012252
841.185	0.43991346
841.363	0.43973201
841.541	0.43959049
841.72	0.43946136
841.898	0.43932792
842.076	0.43916119
842.255	0.43894468
842.433	0.43892764
842.611	0.43857119
842.789	0.43837097
842.968	0.43826038
843.146	0.43802645
843.324	0.43802105
843.502	0.43798465
843.68	0.43795199
843.859	0.43796857
844.037	0.43788358
844.215	0.43755055
844.393	0.43742519
844.571	0.43712452
844.749	0.43701855
844.927	0.43667199
845.105	0.43630482
845.283	0.43608536
845.461	0.43586314
845.639	0.43570905
845.817	0.43556896
845.995	0.43552249
846.173	0.43552355
846.351	0.43540929
846.529	0.43529012
846.706	0.43507429
846.884	0.43482415
847.062	0.43455592
847.24	0.43412156
847.418	0.43386312
847.595	0.43370448
847.773	0.43346306
847.951	0.43331355
848.129	0.43314823
848.306	0.4332309
848.484	0.43310694
848.662	0.43300751
848.839	0.43303138
849.017	0.43281805
849.194	0.43266091
849.372	0.43250292
849.549	0.43202239
849.727	0.43182061
849.905	0.43139854
850.082	0.43086123
850.26	0.43074524
850.437	0.43064402
850.614	0.43051048
850.792	0.43037268
850.969	0.43029817
851.147	0.43036585
851.324	0.43056464
851.501	0.43043261
851.679	0.43027426
851.856	0.43008633
852.033	0.4300485
852.211	0.42978333
852.388	0.42935457
852.565	0.42910392
852.742	0.42891775
852.92	0.42877293
853.097	0.42865366
853.274	0.4284697
853.451	0.42825737
853.628	0.42810764
853.805	0.42780099
853.982	0.42757701
854.159	0.42731223
854.336	0.42706382
854.514	0.42682404
854.691	0.42662906
854.868	0.42665874
855.045	0.42651357
855.221	0.42645565
855.398	0.42623472
855.575	0.42595688
855.752	0.42574932
855.929	0.42580948
856.106	0.42551573
856.283	0.42534761
856.46	0.42514252
856.637	0.42522973
856.813	0.42513503
856.99	0.42505556
857.167	0.42489227
857.344	0.42476679
857.52	0.4245894
857.697	0.42414876
857.874	0.42365045
858.05	0.42338469
858.227	0.42310384
858.404	0.42269658
858.58	0.42264589
858.757	0.4224412
858.933	0.42248015
859.11	0.42248628
859.287	0.42219297
859.463	0.42192835
859.64	0.42187774
859.816	0.42158661
859.993	0.42138131
860.169	0.42124803
860.345	0.42098868
860.522	0.42104514
860.698	0.42085494
860.875	0.42051559
861.051	0.42028362
861.227	0.41985806
861.404	0.41959884
861.58	0.41949924
861.756	0.41921812
861.932	0.41910165
862.109	0.41875452
862.285	0.41854021
862.461	0.41858922
862.637	0.41824905
862.813	0.41791281
862.99	0.41761711
863.166	0.41735536
863.342	0.41745666
863.518	0.41703577
863.694	0.41683809
863.87	0.41657794
864.046	0.41626612
864.222	0.41608916
864.398	0.41590586
864.574	0.41546078
864.75	0.41544597
864.926	0.41517163
865.102	0.41523877
865.278	0.41499644
865.454	0.41481122
865.63	0.41446272
865.805	0.41430111
865.981	0.41413708
866.157	0.41405598
866.333	0.41356496
866.509	0.41362207
866.684	0.41349578
866.86	0.41368285
867.036	0.41356605
867.212	0.4132671
867.387	0.41292024
867.563	0.41286705
867.739	0.41253298
867.914	0.4123551
868.09	0.41188949
868.265	0.41166046
868.441	0.41150547
868.617	0.41137879
868.792	0.41124374
868.968	0.41090123
869.143	0.41065206
869.319	0.41046726
869.494	0.41007905
869.67	0.40971635
869.845	0.40949329
870.02	0.40922624
870.196	0.40918994
870.371	0.40886956
870.546	0.4086009
870.722	0.40855722
870.897	0.40832041
871.072	0.40806309
871.248	0.40774637
871.423	0.40746824
871.598	0.40751301
871.773	0.4073086
871.949	0.40707102
872.124	0.40718338
872.299	0.4069296
872.474	0.40687766
872.649	0.40668271
872.824	0.40619879
872.999	0.4059548
873.174	0.40574869
873.349	0.40534304
873.524	0.40525403
873.699	0.40511037
873.874	0.4049234
874.049	0.40477018
874.224	0.40461798
874.399	0.40429732
874.574	0.40435488
874.749	0.40418824
874.924	0.4037334
875.099	0.40348478
875.274	0.40328857
875.449	0.4033283
875.623	0.40331056
875.798	0.40269977
875.973	0.40234338
876.148	0.40202276
876.322	0.40176238
876.497	0.40150956
876.672	0.40112065
876.846	0.40074024
877.021	0.40048517
877.196	0.39991382
877.37	0.39988564
877.545	0.39980827
877.72	0.39956129
877.894	0.39930721
878.069	0.39906664
878.243	0.39879651
878.418	0.39890085
878.592	0.39849645
878.767	0.39802782
878.941	0.3978838
879.116	0.39752315
879.29	0.39721415
879.464	0.39680302
879.639	0.39646972
879.813	0.3965968
879.987	0.39639208
880.162	0.3960811
880.336	0.39595918
880.51	0.39602446
880.685	0.39622254
880.859	0.39624963
881.033	0.3957712
881.207	0.3955585
881.381	0.39546982
881.556	0.39519802
881.73	0.39482913
881.904	0.39466688
882.078	0.39431063
882.252	0.394286
882.426	0.39405902
882.6	0.39384
882.774	0.39368074
882.948	0.39338891
883.122	0.39281165
883.296	0.39256757
883.47	0.39221368
883.644	0.39219963
883.818	0.39173792
883.992	0.39159642
884.166	0.39166506
884.34	0.39199457
884.514	0.39196443
884.687	0.39189913
884.861	0.39155092
885.035	0.39158723
885.209	0.3913147
885.382	0.39112007
885.556	0.39062695
885.73	0.39046704
885.904	0.3901867
886.077	0.38994573
886.251	0.38969127
886.425	0.38940869
886.598	0.38899241
886.772	0.38863878
886.945	0.38808842
887.119	0.3876117
887.292	0.38729684
887.466	0.38717837
887.64	0.38676786
887.813	0.38647802
887.986	0.38639861
888.16	0.38640449
888.333	0.38628169
888.507	0.38615741
888.68	0.38576357
888.854	0.38577658
889.027	0.38561346
889.2	0.38567304
889.374	0.38545048
889.547	0.38551798
889.72	0.38553005
889.893	0.38527934
890.067	0.38493312
890.24	0.38467786
890.413	0.38427015
890.586	0.38367429
890.759	0.38334831
890.933	0.38302824
891.106	0.382889
891.279	0.38291272
891.452	0.3827704
891.625	0.38246198
891.798	0.38266743
891.971	0.38251489
892.144	0.38226034
892.317	0.38213805
892.49	0.38175532
892.663	0.38159579
892.836	0.38169766
893.009	0.38148728
893.182	0.38113572
893.355	0.38100519
893.527	0.38078938
893.7	0.38084746
893.873	0.38065701
894.046	0.38009374
894.219	0.37992831
894.391	0.37981794
894.564	0.37966915
894.737	0.3794358
894.91	0.37899869
895.082	0.37866811
895.255	0.37854312
895.428	0.37811536
895.6	0.37767897
895.773	0.37738586
895.945	0.37719747
896.118	0.3769962
896.291	0.37699765
896.463	0.37690584
896.636	0.37676242
896.808	0.37666436
896.981	0.37649876
897.153	0.3762494
897.326	0.37612728
897.498	0.37574569
897.67	0.37547747
897.843	0.37543044
898.015	0.37534652
898.187	0.37521443
898.36	0.37472356
898.532	0.37418543
898.704	0.37407516
898.877	0.37373995
899.049	0.37351514
899.221	0.37344812
899.393	0.37315579
899.566	0.37335574
899.738	0.37352685
899.91	0.37338422
900.082	0.37330538
900.254	0.37306765
900.426	0.37283519
900.598	0.37266
900.77	0.37224617
900.942	0.37181763
901.114	0.37140293
901.286	0.37107113
901.458	0.37082788
901.63	0.37040538
901.802	0.37040174
901.974	0.370356
902.146	0.37034659
902.318	0.3703223
902.49	0.37018131
902.662	0.36998332
902.834	0.3697747
903.005	0.36956931
903.177	0.36928502
903.349	0.36920734
903.521	0.36889159
903.693	0.36883363
903.864	0.36864131
904.036	0.36848479
904.208	0.36771536
904.379	0.36751738
904.551	0.3673225
904.723	0.36706134
904.894	0.36669523
905.066	0.3663509
905.237	0.36627805
905.409	0.36637348
905.58	0.36634756
905.752	0.36592773
905.923	0.36572456
906.095	0.36543103
906.266	0.36520245
906.438	0.36498226
906.609	0.36478488
906.78	0.36419722
906.952	0.36397141
907.123	0.36368181
907.295	0.36348576
907.466	0.36333698
907.637	0.36315208
907.808	0.36279833
907.98	0.36268592
908.151	0.36245648
908.322	0.36234685
908.493	0.36214847
908.665	0.36192209
908.836	0.36141841
909.007	0.361395
909.178	0.36126604
909.349	0.36117855
909.52	0.36127607
909.691	0.36107365
909.862	0.36101067
910.033	0.36099871
910.204	0.36089695
910.375	0.360962
910.546	0.36077556
910.717	0.3604026
910.888	0.36052988
911.059	0.36045152
911.23	0.36043442
911.401	0.36006755
911.572	0.35975373
911.742	0.35943929
911.913	0.35929867
912.084	0.35870224
912.255	0.35856302
912.426	0.35814307
912.596	0.35798098
912.767	0.35787287
912.938	0.35805797
913.108	0.35804919
913.279	0.3580477
913.45	0.3577172
913.62	0.35786356
913.791	0.35797185
913.962	0.35773324
914.132	0.35724934
914.303	0.35688537
914.473	0.35679379
914.644	0.35657452
914.814	0.35603273
914.985	0.35564572
915.155	0.35544092
915.326	0.3553014
915.496	0.35493633
915.666	0.35456159
915.837	0.35472708
916.007	0.35430317
916.177	0.35399304
916.348	0.35383944
916.518	0.35376456
916.688	0.35390772
916.858	0.35391685
917.029	0.35351219
917.199	0.3537006
917.369	0.35385685
917.539	0.35376528
917.709	0.3534267
917.88	0.35280338
918.05	0.35229866
918.22	0.35201851
918.39	0.35177997
918.56	0.35130903
918.73	0.35097479
918.9	0.35063377
919.07	0.35045362
919.24	0.35048763
919.41	0.350494
919.58	0.35003301
919.75	0.35002347
919.92	0.34965577
920.09	0.3498627
920.26	0.34967811
920.429	0.34963191
920.599	0.34917618
920.769	0.34911614
920.939	0.34841814
921.109	0.34818796
921.278	0.34776048
921.448	0.34762146
921.618	0.3473241
921.787	0.34721277
921.957	0.34730713
922.127	0.34727821
922.296	0.34719413
922.466	0.34680124
922.636	0.34674742
922.805	0.34670231
922.975	0.34632691
923.144	0.34594541
923.314	0.34574697
923.483	0.34573483
923.653	0.34562014
923.822	0.34543208
923.992	0.34510711
924.161	0.34508896
924.331	0.34487372
924.5	0.3447068
924.669	0.34400062
924.839	0.3439396
925.008	0.34361519
925.177	0.34329586
925.347	0.34302908
925.516	0.3431917
925.685	0.34322154
925.854	0.3435267
926.023	0.34342113
926.193	0.34360442
926.362	0.34331171
926.531	0.34313611
926.7	0.34255441
926.869	0.34246176
927.038	0.34172661
927.207	0.34134984
927.376	0.34072318
927.545	0.3407429
927.715	0.34044574
927.884	0.34039064
928.052	0.34033381
928.221	0.34042351
928.39	0.34015271
928.559	0.34012079
928.728	0.34020967
928.897	0.34043716
929.066	0.34047118
929.235	0.33974425
929.404	0.33958215
929.572	0.3397787
929.741	0.33973877
929.91	0.3392723
930.079	0.33873659
930.247	0.33827482
930.416	0.33859282
930.585	0.33853696
930.753	0.33804406
930.922	0.33791189
931.091	0.33782322
931.259	0.33750049
931.428	0.3376402
931.596	0.33736968
931.765	0.33729903
931.934	0.33752272
932.102	0.33673931
932.27	0.33655065
932.439	0.33662658
932.607	0.33591474
932.776	0.3359569
932.944	0.33573894
933.113	0.33535209
933.281	0.33568327
933.449	0.33511846
933.618	0.33480747
933.786	0.33517223
933.954	0.33473703
934.123	0.33459493
934.291	0.33429064
934.459	0.33387733
934.627	0.33420268
934.795	0.33427967
934.964	0.33372184
935.132	0.33306836
935.3	0.33244993
935.468	0.33228928
935.636	0.33249603
935.804	0.3318207
935.972	0.33170339
936.14	0.33178194
936.308	0.33184553
936.476	0.33244358
936.644	0.33260725
936.812	0.33250319
936.98	0.33241936
937.148	0.33166495
937.316	0.330902
937.484	0.33149562
937.652	0.33046212
937.82	0.33088116
937.987	0.33025263
938.155	0.33076909
938.323	0.331326
938.491	0.33061365
938.658	0.33078567
938.826	0.33028181
938.994	0.3293994
939.162	0.32928937
939.329	0.32951902
939.497	0.33044995
939.665	0.33142
939.832	0.3322403
940	0.33463286
940.167	0.33541628
940.335	0.33441609
940.502	0.33312533
940.67	0.33192499
940.837	0.33220995
941.005	0.32979821
941.172	0.32842175
941.34	0.32823114
941.507	0.33193379
941.674	0.3330909
941.842	0.3331749
942.009	0.33589174
942.177	0.33495231
942.344	0.33758065
942.511	0.33784191
942.678	0.33718037
942.846	0.33507263
943.013	0.33377447
943.18	0.33239486
943.347	0.33549756
943.514	0.33314106
943.682	0.3347742
943.849	0.33278783
944.016	0.3332897
944.183	0.33393202
944.35	0.33443031
944.517	0.33513694
944.684	0.33640125
944.851	0.32933896
945.018	0.32936601
945.185	0.32991299
945.352	0.33086196
945.519	0.32890765
945.686	0.32649913
945.853	0.33021078
946.02	0.33134124
946.187	0.3288405
946.353	0.33083123
946.52	0.33079399
946.687	0.3308082
946.854	0.33213659
947.021	0.32862606
947.187	0.32918146
947.354	0.32975245
947.521	0.32828704
947.687	0.32686018
947.854	0.32707976
948.021	0.32367577
948.187	0.32172704
948.354	0.32221087
948.52	0.32225362
948.687	0.32307417
948.854	0.32511542
949.02	0.3230598
949.187	0.32518591
949.353	0.32596624
949.52	0.32424722
949.686	0.32484707
949.852	0.32530743
950.019	0.3245969
950.185	0.32580557
950.352	0.32474788
950.518	0.32268487
950.684	0.32527154
950.851	0.32494054
951.017	0.3223246
951.183	0.32083652
951.349	0.31983419
951.516	0.31676824
951.682	0.31715952
951.848	0.31499474
952.014	0.31376239
952.18	0.31412169
952.346	0.31411114
952.512	0.31381593
952.679	0.31696984
952.845	0.31696888
953.011	0.31692265
953.177	0.31788057
953.343	0.31589597
953.509	0.31707454
953.675	0.31669219
953.841	0.3155379
954.007	0.31655563
954.172	0.31739923
954.338	0.31717761
954.504	0.3177635
954.67	0.31459231
954.836	0.3153212
955.002	0.31541059
955.167	0.31425331
955.333	0.31256314
955.499	0.31154116
955.665	0.31088324
955.83	0.31234378
955.996	0.31152438
956.162	0.3106603
956.327	0.31021034
956.493	0.31022308
956.659	0.31120637
956.824	0.31140111
956.99	0.31024824
957.155	0.31010548
957.321	0.31018204
957.486	0.30995329
957.652	0.30990061
957.817	0.310272
957.983	0.3097032
958.148	0.30969683
958.314	0.30914062
958.479	0.30773556
958.644	0.30788807
958.81	0.30829149
958.975	0.30736277
959.14	0.30814041
959.306	0.30809057
959.471	0.30726737
959.636	0.30638382
959.801	0.30704735
959.967	0.30600837
960.132	0.30516405
960.297	0.30426479
960.462	0.30514153
960.627	0.30556106
960.792	0.30596756
960.957	0.30466254
961.123	0.30556807
961.288	0.30504706
961.453	0.30541356
961.618	0.3042808
961.783	0.30500731
961.948	0.30467565
962.113	0.30382603
962.277	0.30242304
962.442	0.30282768
962.607	0.30275414
962.772	0.30225688
962.937	0.30056868
963.102	0.3008933
963.267	0.30160685
963.431	0.30197477
963.596	0.30153545
963.761	0.30048491
963.926	0.30006335
964.09	0.30073615
964.255	0.30105144
964.42	0.30076011
964.584	0.30090124
964.749	0.30059169
964.914	0.30057305
965.078	0.30063483
965.243	0.29983467
965.407	0.29906122
965.572	0.29873237
965.736	0.29869391
965.901	0.29953418
966.065	0.30086713
966.23	0.30033466
966.394	0.30094012
966.559	0.30150044
966.723	0.30108537
966.887	0.30055323
967.052	0.29899666
967.216	0.29711656
967.38	0.29615051
967.545	0.29565392
967.709	0.29608073
967.873	0.2967765
968.037	0.29656321
968.202	0.29746619
968.366	0.29853519
968.53	0.29969277
968.694	0.29967278
968.858	0.29846349
969.022	0.29716735
969.187	0.29639856
969.351	0.29593629
969.515	0.29541219
969.679	0.2945872
969.843	0.2937234
970.007	0.29332048
970.171	0.29371642
970.335	0.29432891
970.499	0.29375668
970.662	0.29314627
970.826	0.29339708
970.99	0.29420254
971.154	0.29445579
971.318	0.29385157
971.482	0.29228057
971.645	0.29261854
971.809	0.29311683
971.973	0.29326765
972.137	0.2927469
972.3	0.29221095
972.464	0.29206199
972.628	0.29446384
972.791	0.29483426
972.955	0.29420588
973.119	0.29450696
973.282	0.29402195
973.446	0.29398998
973.609	0.29424077
973.773	0.29323481
973.936	0.29202029
974.1	0.29198452
974.263	0.29116213
974.427	0.29101488
974.59	0.29031968
974.754	0.29026298
974.917	0.28909912
975.08	0.28969589
975.244	0.28870375
975.407	0.28884976
975.57	0.28868131
975.734	0.28870113
975.897	0.28779515
976.06	0.28880888
976.223	0.28842826
976.387	0.28944227
976.55	0.28891412
976.713	0.28896765
976.876	0.28968119
977.039	0.28964514
977.202	0.28852063
977.365	0.28745522
977.528	0.287753
977.692	0.28798068
977.855	0.28707937
978.018	0.28659165
978.181	0.28717306
978.344	0.28750171
978.506	0.28824537
978.669	0.28643596
978.832	0.28615842
978.995	0.28661706
979.158	0.28737616
979.321	0.28644904
979.484	0.28544347
979.646	0.28468228
979.809	0.285567
979.972	0.28459554
980.135	0.2851752
980.297	0.28433933
980.46	0.28421646
980.623	0.285378
980.786	0.28582187
980.948	0.2854939
981.111	0.28540535
981.273	0.28462858
981.436	0.28380067
981.599	0.28412715
981.761	0.28307191
981.924	0.28364679
982.086	0.28307739
982.249	0.28340219
982.411	0.28284242
982.573	0.28294157
982.736	0.28385261
982.898	0.28375061
983.061	0.2828571
983.223	0.28297051
983.385	0.28280967
983.548	0.28441938
983.71	0.28438191
983.872	0.28291351
984.034	0.28226084
984.197	0.28116644
984.359	0.28137217
984.521	0.28258062
984.683	0.28173578
984.845	0.2827439
985.008	0.28264157
985.17	0.28463629
985.332	0.28631468
985.494	0.28520274
985.656	0.28483885
985.818	0.28412014
985.98	0.28299507
986.142	0.28183939
986.304	0.27986598
986.466	0.27824285
986.628	0.27882027
986.79	0.27777476
986.952	0.27689405
987.113	0.27706427
987.275	0.27728858
987.437	0.27737803
987.599	0.2772644
987.761	0.27762118
987.922	0.27739428
988.084	0.27811757
988.246	0.2779735
988.408	0.27891213
988.569	0.27887091
988.731	0.279659
988.893	0.27894101
989.054	0.28053563
989.216	0.28034895
989.377	0.27863967
989.539	0.27807101
989.701	0.27734416
989.862	0.27645621
990.024	0.27536003
990.185	0.27350844
990.347	0.2742978
990.508	0.27407795
990.669	0.27508683
990.831	0.27596072
990.992	0.27708229
991.154	0.27680872
991.315	0.27846068
991.476	0.27863357
991.638	0.27986588
991.799	0.27939984
991.96	0.27989048
992.121	0.27946119
992.283	0.28118875
992.444	0.27907134
992.605	0.27795245
992.766	0.27835136
992.927	0.27743801
993.088	0.27709138
993.249	0.27607679
993.41	0.27447889
993.572	0.2750756
993.733	0.27521267
993.894	0.27404981
994.055	0.27218493
994.216	0.27147938
994.376	0.26905749
994.537	0.27114804
994.698	0.27064046
994.859	0.26979106
995.02	0.27063485
995.181	0.26962645
995.342	0.2691768
995.503	0.2722857
995.663	0.27109183
995.824	0.27024026
995.985	0.27256981
996.146	0.2724042
996.306	0.27449778
996.467	0.27535645
996.628	0.27703225
996.788	0.27595952
996.949	0.27769693
997.11	0.2745776
997.27	0.27369589
997.431	0.27349188
997.591	0.26983092
997.752	0.26478395
997.912	0.26604489
998.073	0.26483083
998.233	0.26558625
998.394	0.26439066
998.554	0.26666325
998.714	0.26890451
998.875	0.2703187
999.035	0.26800351
999.196	0.26853038
999.356	0.2686801
999.516	0.27108331
999.676	0.26997305
999.837	0.2707755
999.997	0.27126004
1000.157	0.27191952
1000.317	0.26863437
1000.477	0.2666033
1000.638	0.2641234
1000.798	0.26421842
1000.958	0.26485791
1001.118	0.26430203
1001.278	0.26499654
1001.438	0.2671091
1001.598	0.26896425
1001.758	0.27044092
1001.918	0.26922727
1002.078	0.26588035
1002.238	0.26662602
1002.398	0.26716991
1002.558	0.26718829
1002.718	0.26589223
1002.878	0.26635917
1003.037	0.26105793
1003.197	0.26363883
1003.357	0.26218026
1003.517	0.26364711
1003.677	0.26055797
1003.836	0.26185575
1003.996	0.26035234
1004.156	0.26480692
1004.315	0.26571376
1004.475	0.26952708
1004.635	0.26968151
1004.794	0.27375106
1004.954	0.27321895
1005.114	0.27259519
1005.273	0.27502101
1005.433	0.2706628
1005.592	0.27006127
1005.752	0.26863235
1005.911	0.26676287
1006.071	0.26669628
1006.23	0.26441349
1006.389	0.26196857
1006.549	0.26477834
1006.708	0.26196295
1006.868	0.25828191
1007.027	0.26045051
1007.186	0.26270506
1007.345	0.26936751
1007.505	0.27082909
1007.664	0.27132971
1007.823	0.2714031
1007.982	0.27564849
1008.142	0.27662216
1008.301	0.27614997
1008.46	0.27139387
1008.619	0.26773396
1008.778	0.2668983
1008.937	0.26476044
1009.096	0.26326301
1009.255	0.26087006
1009.414	0.25529821
1009.573	0.25827055
1009.732	0.26450915
1009.891	0.26457843
1010.05	0.2692033
1010.209	0.26660003
1010.368	0.26600004
1010.527	0.26858425
1010.686	0.2711008
1010.845	0.26370493
1011.003	0.26408644
1011.162	0.26228396
1011.321	0.2591376
1011.48	0.26191977
1011.638	0.26345191
1011.797	0.2610401
1011.956	0.26454994
1012.115	0.26271087
1012.273	0.26130491
1012.432	0.26462761
1012.59	0.25841871
1012.749	0.25862961
1012.908	0.2547006
1013.066	0.25558569
1013.225	0.25379932
1013.383	0.25667666
1013.542	0.25490366
1013.7	0.25955823
1013.859	0.26237973
1014.017	0.26716328
1014.175	0.2626197
1014.334	0.27048992
1014.492	0.27283461
1014.65	0.27937868
1014.809	0.28167459
1014.967	0.27920449
1015.125	0.27872238
1015.284	0.28770333
1015.442	0.28239757
1015.6	0.27830864
1015.758	0.27411284
1015.916	0.26703798
1016.075	0.2665224
1016.233	0.26203336
1016.391	0.26289216
1016.549	0.26118866
1016.707	0.2631786
1016.865	0.26373857
1017.023	0.26328529
1017.181	0.26320458
1017.339	0.26538696
1017.497	0.2607345
1017.655	0.26040886
1017.813	0.25958937
1017.971	0.26105508
1018.129	0.26600756
1018.286	0.2656694
1018.444	0.26064734
1018.602	0.26197995
1018.76	0.26285976
1018.918	0.2640025
1019.075	0.26441952
1019.233	0.26574206
1019.391	0.26548436
1019.549	0.27284275
1019.706	0.26930532
1019.864	0.27122503
1020.022	0.26756219
1020.179	0.26859824
1020.337	0.26518525
1020.494	0.26118379
1020.652	0.25741002
1020.809	0.26267455
1020.967	0.25803411
1021.124	0.25927631
1021.282	0.26138066
1021.439	0.26453127
1021.597	0.27294429
1021.754	0.27242405
1021.911	0.27003855
1022.069	0.27207245
1022.226	0.26585229
1022.384	0.25658763
1022.541	0.25217105
1022.698	0.24416943
1022.855	0.24683915
1023.013	0.24755113
1023.17	0.24553484
1023.327	0.25494555
1023.484	0.26575246
1023.641	0.26956044
1023.798	0.28520288
1023.956	0.29596513
1024.113	0.28750881
1024.27	0.28599425
1024.427	0.28273165
1024.584	0.27542503
1024.741	0.27181003
1024.898	0.25977505
1025.055	0.24514351
1025.212	0.24496061
1025.369	0.24177461
1025.525	0.24270164
1025.682	0.2524455
1025.839	0.25425118
1025.996	0.26118068
1026.153	0.26988306
1026.31	0.28760629
1026.466	0.30421945
1026.623	0.31063302
1026.78	0.30315359
1026.937	0.30010173
1027.093	0.29674472
1027.25	0.30954611
1027.407	0.29078449
1027.563	0.28538868
1027.72	0.28100116
1027.876	0.26860689
1028.033	0.27572981
1028.19	0.27513292
1028.346	0.25656238
1028.503	0.26289227
1028.659	0.26461298
1028.816	0.26752172
1028.972	0.28283209
1029.128	0.28744483
1029.285	0.28114478
1029.441	0.2841566
1029.598	0.28132241
1029.754	0.2885036
1029.91	0.27872639
1030.067	0.27079304
1030.223	0.2719919
1030.379	0.27402767
1030.535	0.28059239
1030.691	0.28193482
1030.848	0.27976861
1031.004	0.28680355
1031.16	0.30181619
1031.316	0.30893376
1031.472	0.32997093
1031.628	0.32434404
1031.784	0.32201938
1031.94	0.32853872
1032.096	0.33697763
1032.252	0.33365461
1032.408	0.33605559
1032.564	0.32285414
1032.72	0.33041503
1032.876	0.31642984
1033.032	0.29954483
1033.188	0.29246004
1033.344	0.30162021
1033.5	0.30451711
1033.655	0.3016189
1033.811	0.30115566
1033.967	0.33696984
