Data from 0_1_mm_pl_100pc_Absorbance__0__15-56-36-944.txt Node

Date: Fri Feb 24 15:56:36 CET 2023
User: Ange
Spectrometer: FLMT08341
Trigger mode: 0
Integration Time (sec): 1.000000E-2
Scans to average: 400
Electric dark correction enabled: true
Nonlinearity correction enabled: false
Boxcar width: 3
XAxis mode: Wavelengths
Number of Pixels in Spectrum: 3648
>>>>>Begin Spectral Data<<<<<
345.271	0.04343674
345.487	0.03946815
345.704	0.02908419
345.921	0.04220957
346.137	0.03173453
346.354	0.03415034
346.571	0.05029302
346.787	0.10712167
347.004	-0.08247937
347.22	-0.13896414
347.437	-0.07528511
347.653	-0.28933264
347.87	0.36541344
348.086	-0.10040836
348.303	-0.14761707
348.519	0.24045949
348.736	0.25100546
348.952	0.25774835
349.169	0.27108018
349.385	0.28138258
349.601	0.28431189
349.818	0.28403294
350.034	0.28484571
350.251	0.28662868
350.467	0.28833677
350.683	0.28201154
350.9	0.28340569
351.116	0.28311885
351.332	0.28313764
351.549	0.28971245
351.765	0.2988732
351.981	0.30548965
352.197	0.31861822
352.414	0.33146589
352.63	0.34142318
352.846	0.34978495
353.062	0.3496219
353.278	0.3468479
353.495	0.35761358
353.711	0.35995556
353.927	0.36310667
354.143	0.36576734
354.359	0.36313161
354.575	0.36301092
354.792	0.37143852
355.008	0.36497827
355.224	0.36230981
355.44	0.35898159
355.656	0.35917627
355.872	0.36961774
356.088	0.38770821
356.304	0.39157859
356.52	0.39813018
356.736	0.40522904
356.952	0.41004145
357.168	0.41646269
357.384	0.42322961
357.6	0.41538123
357.816	0.42314237
358.032	0.43043002
358.248	0.44405014
358.464	0.44993774
358.679	0.45563645
358.895	0.45924345
359.111	0.46920125
359.327	0.46477976
359.543	0.47042957
359.759	0.47572443
359.974	0.47813975
360.19	0.47774688
360.406	0.47721904
360.622	0.47859728
360.838	0.47959643
361.053	0.48474822
361.269	0.48392683
361.485	0.48855261
361.701	0.49520916
361.916	0.49288952
362.132	0.49449877
362.348	0.49978829
362.563	0.50264246
362.779	0.50275613
362.995	0.50967908
363.21	0.51781166
363.426	0.52308601
363.641	0.52739211
363.857	0.53669646
364.073	0.53509177
364.288	0.53463816
364.504	0.54181744
364.719	0.54393783
364.935	0.5464321
365.15	0.55037413
365.366	0.55087258
365.581	0.56194737
365.797	0.56745969
366.012	0.56177868
366.228	0.55772843
366.443	0.56834079
366.658	0.57316787
366.874	0.57212718
367.089	0.57715924
367.305	0.58205434
367.52	0.58805084
367.735	0.5896341
367.951	0.58582097
368.166	0.58574675
368.381	0.59737122
368.597	0.59332128
368.812	0.5976184
369.027	0.60196395
369.243	0.61107558
369.458	0.6249648
369.673	0.62722655
369.888	0.62791365
370.104	0.62428347
370.319	0.63143207
370.534	0.63105944
370.749	0.63015809
370.964	0.63013806
371.179	0.63662849
371.395	0.6351089
371.61	0.64742335
371.825	0.64028583
372.04	0.64474216
372.255	0.64539297
372.47	0.64258289
372.685	0.63873062
372.9	0.63941902
373.115	0.63593956
373.33	0.6434564
373.545	0.64628349
373.76	0.65031119
373.975	0.65143296
374.19	0.6522884
374.405	0.65846911
374.62	0.66967288
374.835	0.6762774
375.05	0.67921858
375.265	0.68396463
375.48	0.68951243
375.695	0.70576412
375.91	0.70387809
376.125	0.69445556
376.339	0.68594799
376.554	0.68874834
376.769	0.68942466
376.984	0.69006572
377.199	0.69157166
377.414	0.69211689
377.628	0.70615008
377.843	0.71766453
378.058	0.72188022
378.273	0.73141054
378.487	0.73701858
378.702	0.73876391
378.917	0.74654404
379.131	0.74009917
379.346	0.73428681
379.561	0.73190833
379.775	0.72727454
379.99	0.7253268
380.205	0.72016619
380.419	0.71498529
380.634	0.71160996
380.848	0.72365947
381.063	0.72630885
381.278	0.73756497
381.492	0.73593954
381.707	0.74653731
381.921	0.75016173
382.136	0.76513799
382.35	0.75919111
382.565	0.7601685
382.779	0.75901844
382.994	0.76579705
383.208	0.75986316
383.422	0.77383112
383.637	0.77353611
383.851	0.78337396
384.066	0.7914598
384.28	0.79654381
384.494	0.80326471
384.709	0.81151132
384.923	0.80896631
385.137	0.804533
385.352	0.80449809
385.566	0.80590823
385.78	0.80409179
385.995	0.80017976
386.209	0.79913474
386.423	0.80591932
386.637	0.81433455
386.852	0.81109646
387.066	0.81126115
387.28	0.81027195
387.494	0.82061867
387.708	0.8248835
387.923	0.82197249
388.137	0.82651722
388.351	0.83387925
388.565	0.84241017
388.779	0.84921102
388.993	0.85741343
389.207	0.86273043
389.421	0.86733016
389.635	0.86310976
389.85	0.86240363
390.064	0.86124753
390.278	0.86295107
390.492	0.86175826
390.706	0.86410885
390.92	0.86589541
391.134	0.87603132
391.348	0.88938011
391.561	0.88885414
391.775	0.88831873
391.989	0.88239333
392.203	0.88446884
392.417	0.88820072
392.631	0.89279269
392.845	0.88674157
393.059	0.89500851
393.273	0.89319113
393.486	0.89085524
393.7	0.88446238
393.914	0.88944715
394.128	0.8851145
394.342	0.8823585
394.555	0.87298569
394.769	0.87678356
394.983	0.88301207
395.197	0.89032436
395.41	0.88847059
395.624	0.89453362
395.838	0.89665939
396.051	0.91194124
396.265	0.90925506
396.479	0.91199241
396.692	0.91313934
396.906	0.90971621
397.12	0.90504601
397.333	0.90895987
397.547	0.90353518
397.76	0.91183528
397.974	0.91201037
398.187	0.91332748
398.401	0.91809252
398.614	0.92021087
398.828	0.92160888
399.041	0.92053435
399.255	0.918161
399.468	0.91816995
399.682	0.91702681
399.895	0.91953903
400.109	0.91756809
400.322	0.91464311
400.536	0.90896115
400.749	0.91453829
400.962	0.91455483
401.176	0.91246195
401.389	0.9087217
401.602	0.90166553
401.816	0.90468752
402.029	0.91164415
402.242	0.90759782
402.456	0.9071735
402.669	0.90345226
402.882	0.89711826
403.095	0.90698592
403.309	0.904062
403.522	0.90412064
403.735	0.89951718
403.948	0.89853777
404.161	0.91080919
404.375	0.91480627
404.588	0.91258709
404.801	0.91404501
405.014	0.90999013
405.227	0.91713061
405.44	0.91974334
405.653	0.91698213
405.866	0.91206575
406.079	0.90981253
406.293	0.90596952
406.506	0.90577276
406.719	0.90199397
406.932	0.89924623
407.145	0.89209324
407.358	0.89892225
407.571	0.89385475
407.784	0.89469472
407.996	0.89485293
408.209	0.89006966
408.422	0.88577562
408.635	0.88702821
408.848	0.88418444
409.061	0.88006306
409.274	0.8782706
409.487	0.87479601
409.7	0.87484908
409.912	0.87722031
410.125	0.87534697
410.338	0.87312481
410.551	0.8739476
410.764	0.87211901
410.976	0.87058913
411.189	0.86886757
411.402	0.86269949
411.615	0.86236347
411.827	0.86131121
412.04	0.86125704
412.253	0.85873216
412.465	0.85598555
412.678	0.85277453
412.891	0.85406336
413.103	0.8447507
413.316	0.84038652
413.529	0.84086391
413.741	0.84165549
413.954	0.84118047
414.166	0.84057682
414.379	0.83706076
414.591	0.84043571
414.804	0.83656864
415.016	0.83212487
415.229	0.827178
415.441	0.82261189
415.654	0.82059157
415.866	0.81855563
416.079	0.81616809
416.291	0.81486989
416.504	0.81572074
416.716	0.81443405
416.928	0.81384262
417.141	0.8103342
417.353	0.80958465
417.566	0.80469354
417.778	0.80289708
417.99	0.79497582
418.203	0.79008017
418.415	0.78729936
418.627	0.78571808
418.839	0.78155095
419.052	0.78368967
419.264	0.78115653
419.476	0.78084967
419.688	0.78047469
419.901	0.7779343
420.113	0.77426039
420.325	0.77207647
420.537	0.76611113
420.749	0.76532106
420.961	0.76352058
421.174	0.75980533
421.386	0.756352
421.598	0.75391364
421.81	0.75128854
422.022	0.74853099
422.234	0.7451291
422.446	0.74174721
422.658	0.73896511
422.87	0.73709406
423.082	0.73472605
423.294	0.73182704
423.506	0.73002478
423.718	0.72730875
423.93	0.72324054
424.142	0.71997329
424.354	0.71664048
424.566	0.71384975
424.778	0.71156729
424.99	0.70870985
425.202	0.7046598
425.414	0.70290597
425.625	0.70168231
425.837	0.69803585
426.049	0.6961733
426.261	0.69288862
426.473	0.68909786
426.684	0.6870315
426.896	0.68553691
427.108	0.68192122
427.32	0.68091708
427.531	0.67729906
427.743	0.6748314
427.955	0.67424493
428.167	0.67083182
428.378	0.66780206
428.59	0.66540646
428.802	0.66252803
429.013	0.6595712
429.225	0.65625612
429.436	0.65285988
429.648	0.65126201
429.86	0.64914876
430.071	0.6471913
430.283	0.64482753
430.494	0.64238523
430.706	0.64043348
430.917	0.63736625
431.129	0.63482028
431.34	0.63142089
431.552	0.62914742
431.763	0.62620316
431.975	0.6247949
432.186	0.6215676
432.398	0.61931764
432.609	0.61511438
432.821	0.61291485
433.032	0.60992511
433.243	0.60685089
433.455	0.60387071
433.666	0.60202422
433.877	0.60041137
434.089	0.59772382
434.3	0.59444773
434.511	0.59116507
434.723	0.58889858
434.934	0.58555139
435.145	0.58194847
435.356	0.57856851
435.568	0.57687333
435.779	0.57468412
435.99	0.57193793
436.201	0.56897462
436.412	0.56646512
436.624	0.56495106
436.835	0.56298607
437.046	0.56115371
437.257	0.55851466
437.468	0.55737202
437.679	0.55584675
437.89	0.55339129
438.101	0.55098959
438.312	0.54824931
438.523	0.54553583
438.734	0.54339934
438.945	0.54060801
439.156	0.53749116
439.367	0.53555265
439.578	0.53370565
439.789	0.53064114
440	0.5284612
440.211	0.52547644
440.422	0.52323978
440.633	0.52140405
440.844	0.5184159
441.055	0.51563402
441.266	0.5142371
441.477	0.51133053
441.687	0.5094194
441.898	0.50697733
442.109	0.50405008
442.32	0.50183334
442.531	0.49878305
442.741	0.49499245
442.952	0.49273794
443.163	0.49036407
443.374	0.4876109
443.584	0.48525938
443.795	0.48312276
444.006	0.48097926
444.216	0.47895103
444.427	0.47619487
444.638	0.47343151
444.848	0.47104088
445.059	0.46874674
445.27	0.46618187
445.48	0.46374237
445.691	0.461853
445.901	0.45990867
446.112	0.45785867
446.323	0.45499841
446.533	0.45248824
446.744	0.44983367
446.954	0.4475545
447.165	0.44528596
447.375	0.44339205
447.586	0.44145846
447.796	0.43967411
448.006	0.4375548
448.217	0.43610506
448.427	0.43390099
448.638	0.43123793
448.848	0.42828811
449.058	0.42569574
449.269	0.42335713
449.479	0.42125947
449.689	0.41850928
449.9	0.41609489
450.11	0.41399966
450.32	0.41223381
450.531	0.40992322
450.741	0.40777423
450.951	0.40568283
451.161	0.40351543
451.372	0.40153686
451.582	0.40014889
451.792	0.39794057
452.002	0.39594654
452.212	0.39362051
452.422	0.39140094
452.633	0.38909657
452.843	0.38734572
453.053	0.38420699
453.263	0.38237248
453.473	0.38013342
453.683	0.37852292
453.893	0.37614307
454.103	0.37455638
454.313	0.37207703
454.523	0.37019793
454.733	0.36797037
454.943	0.36616894
455.153	0.36420924
455.363	0.3624741
455.573	0.36037606
455.783	0.35855754
455.993	0.35673024
456.203	0.35485518
456.413	0.35275164
456.623	0.35034047
456.833	0.3486455
457.042	0.34650545
457.252	0.34464996
457.462	0.34267096
457.672	0.34084256
457.882	0.338959
458.091	0.33699275
458.301	0.33452269
458.511	0.33272238
458.721	0.3307424
458.931	0.3286743
459.14	0.32666196
459.35	0.32510713
459.56	0.32355145
459.769	0.32193959
459.979	0.31992128
460.189	0.31801859
460.398	0.31617156
460.608	0.31450381
460.817	0.31240321
461.027	0.31046458
461.237	0.30851192
461.446	0.3066228
461.656	0.30495545
461.865	0.30317847
462.075	0.30128362
462.284	0.29957876
462.494	0.29764771
462.703	0.29574522
462.913	0.29406688
463.122	0.29200009
463.332	0.29014792
463.541	0.2884076
463.751	0.28663941
463.96	0.28511281
464.169	0.28339652
464.379	0.28184021
464.588	0.28027108
464.797	0.27863392
465.007	0.27694748
465.216	0.27519679
465.425	0.27352983
465.635	0.27203565
465.844	0.27020603
466.053	0.26859686
466.263	0.26696935
466.472	0.2651093
466.681	0.26363343
466.89	0.26187214
467.099	0.26021698
467.309	0.25875725
467.518	0.25727392
467.727	0.25575093
467.936	0.25425872
468.145	0.25261983
468.354	0.25130659
468.563	0.24970212
468.772	0.24805833
468.982	0.24639973
469.191	0.24505011
469.4	0.24353945
469.609	0.24209497
469.818	0.24058677
470.027	0.23923523
470.236	0.23763541
470.445	0.23617728
470.654	0.23435609
470.863	0.23280997
471.072	0.23134964
471.28	0.22972001
471.489	0.22815868
471.698	0.22679867
471.907	0.22536716
472.116	0.2241556
472.325	0.22275506
472.534	0.22128973
472.743	0.21974572
472.951	0.2184985
473.16	0.21715473
473.369	0.21580244
473.578	0.2144302
473.786	0.21305291
473.995	0.21160188
474.204	0.21031674
474.413	0.20872348
474.621	0.20722841
474.83	0.20592341
475.039	0.20446024
475.247	0.20320472
475.456	0.20197946
475.665	0.20072928
475.873	0.19952057
476.082	0.19819754
476.291	0.19692558
476.499	0.19574835
476.708	0.19423798
476.916	0.19289691
477.125	0.19154715
477.333	0.19021567
477.542	0.18898427
477.75	0.18765925
477.959	0.18636166
478.167	0.18526717
478.376	0.1840234
478.584	0.18287373
478.793	0.18161462
479.001	0.18039591
479.209	0.17920223
479.418	0.1780434
479.626	0.17682541
479.834	0.17553983
480.043	0.17430242
480.251	0.17316953
480.459	0.17197784
480.668	0.17079261
480.876	0.16962483
481.084	0.16842485
481.293	0.16735066
481.501	0.16617781
481.709	0.16510349
481.917	0.16408972
482.125	0.16298431
482.334	0.1618851
482.542	0.16084223
482.75	0.15964849
482.958	0.15859841
483.166	0.15748121
483.374	0.156287
483.583	0.15525762
483.791	0.15417011
483.999	0.15300956
484.207	0.15203612
484.415	0.15093242
484.623	0.14986702
484.831	0.14887826
485.039	0.14780905
485.247	0.14674035
485.455	0.14581232
485.663	0.14480492
485.871	0.1437651
486.079	0.14268733
486.287	0.14164245
486.495	0.14064608
486.702	0.13965049
486.91	0.13855442
487.118	0.13747771
487.326	0.13659499
487.534	0.13568656
487.742	0.13475487
487.95	0.13383921
488.157	0.13294641
488.365	0.13212273
488.573	0.13127738
488.781	0.13030677
488.988	0.12940496
489.196	0.12844768
489.404	0.12746624
489.612	0.12644084
489.819	0.12547996
490.027	0.12455361
490.235	0.12367414
490.442	0.12276342
490.65	0.1218689
490.857	0.12106352
491.065	0.12020735
491.273	0.119361
491.48	0.11850569
491.688	0.11758087
491.895	0.11666689
492.103	0.11585243
492.31	0.11499144
492.518	0.11422819
492.725	0.11337078
492.933	0.1124872
493.14	0.11167488
493.348	0.11083892
493.555	0.11003447
493.763	0.1091936
493.97	0.10832972
494.177	0.10750696
494.385	0.10672663
494.592	0.10587393
494.8	0.10511494
495.007	0.1042918
495.214	0.10356975
495.422	0.10282734
495.629	0.10212529
495.836	0.10138441
496.043	0.10067353
496.251	0.09992105
496.458	0.09919747
496.665	0.09842627
496.872	0.09765134
497.08	0.09689398
497.287	0.09612655
497.494	0.0954319
497.701	0.09476166
497.908	0.09400609
498.115	0.09328955
498.322	0.09253016
498.53	0.09174503
498.737	0.09104959
498.944	0.09033284
499.151	0.08957182
499.358	0.08887623
499.565	0.08814478
499.772	0.08748032
499.979	0.08688669
500.186	0.08625431
500.393	0.08562753
500.6	0.08496502
500.807	0.08434005
501.014	0.08376402
501.221	0.08317079
501.427	0.08254375
501.634	0.08194902
501.841	0.08125754
502.048	0.08065398
502.255	0.08001553
502.462	0.07942143
502.669	0.07882704
502.875	0.07820978
503.082	0.07754674
503.289	0.0769824
503.496	0.07638291
503.702	0.07583347
503.909	0.07521075
504.116	0.07455628
504.323	0.0739886
504.529	0.07346607
504.736	0.07286739
504.943	0.07230657
505.149	0.07170098
505.356	0.07117593
505.563	0.07065406
505.769	0.07006381
505.976	0.06942455
506.182	0.06891863
506.389	0.06837092
506.595	0.06783768
506.802	0.06725909
507.008	0.06672124
507.215	0.06621612
507.421	0.06577974
507.628	0.06523138
507.834	0.06470553
508.041	0.06424691
508.247	0.06374161
508.454	0.06324892
508.66	0.06276061
508.866	0.06220587
509.073	0.06170884
509.279	0.0612705
509.486	0.06078403
509.692	0.06030229
509.898	0.05980846
510.105	0.05932197
510.311	0.05887871
510.517	0.05840965
510.723	0.05795432
510.93	0.05747395
511.136	0.05703431
511.342	0.05661545
511.548	0.05614723
511.754	0.05569471
511.961	0.05528713
512.167	0.0547348
512.373	0.05427655
512.579	0.05389484
512.785	0.05344288
512.991	0.05299133
513.197	0.05255557
513.404	0.05208534
513.61	0.0517541
513.816	0.05135881
514.022	0.05095181
514.228	0.05056199
514.434	0.05020691
514.64	0.04979683
514.846	0.04946118
515.052	0.0490502
515.258	0.04869247
515.464	0.0482291
515.669	0.04778353
515.875	0.04737494
516.081	0.04703857
516.287	0.0466361
516.493	0.04626557
516.699	0.04583883
516.905	0.04545694
517.111	0.04511086
517.316	0.04479506
517.522	0.04442553
517.728	0.04404146
517.934	0.04366921
518.139	0.04333236
518.345	0.04299148
518.551	0.0426659
518.757	0.04228515
518.962	0.04196483
519.168	0.04162213
519.374	0.04128973
519.579	0.0409678
519.785	0.04065748
519.991	0.04029959
520.196	0.03997521
520.402	0.03958247
520.607	0.03925919
520.813	0.03893472
521.018	0.03860781
521.224	0.03826013
521.429	0.03793803
521.635	0.03760416
521.84	0.03731602
522.046	0.03702525
522.251	0.03670478
522.457	0.03640515
522.662	0.03617264
522.868	0.03595019
523.073	0.03565696
523.279	0.0353744
523.484	0.03504338
523.689	0.03474575
523.895	0.03441685
524.1	0.03408576
524.305	0.03375088
524.511	0.03350001
524.716	0.0332328
524.921	0.03299902
525.126	0.03274212
525.332	0.03247819
525.537	0.03220855
525.742	0.0319175
525.947	0.03171715
526.153	0.0315001
526.358	0.03126045
526.563	0.03103187
526.768	0.03079685
526.973	0.03053907
527.178	0.03027158
527.383	0.02996301
527.588	0.02966937
527.794	0.02945765
527.999	0.02922268
528.204	0.02901764
528.409	0.02875946
528.614	0.02857133
528.819	0.02833856
529.024	0.02809135
529.229	0.0277568
529.434	0.02750624
529.639	0.02726545
529.843	0.02708725
530.048	0.02682752
530.253	0.02656827
530.458	0.02638736
530.663	0.02622678
530.868	0.02600611
531.073	0.02578642
531.278	0.02557828
531.482	0.02539962
531.687	0.02521631
531.892	0.02493599
532.097	0.02470044
532.302	0.02445574
532.506	0.02423379
532.711	0.02402803
532.916	0.02382918
533.12	0.02359958
533.325	0.02341105
533.53	0.02323182
533.734	0.02308994
533.939	0.0229045
534.144	0.02266616
534.348	0.02244194
534.553	0.02224685
534.757	0.02210755
534.962	0.02190445
535.167	0.02174367
535.371	0.02156601
535.576	0.02142071
535.78	0.02126956
535.985	0.02111505
536.189	0.02090281
536.394	0.02076538
536.598	0.02051214
536.803	0.02030825
537.007	0.02013786
537.211	0.01998326
537.416	0.01987532
537.62	0.01972819
537.825	0.0195477
538.029	0.01942406
538.233	0.01929481
538.438	0.01911563
538.642	0.01897599
538.846	0.01878756
539.05	0.01864778
539.255	0.01846771
539.459	0.01831549
539.663	0.01816811
539.867	0.01800251
540.072	0.01781433
540.276	0.01765806
540.48	0.0174825
540.684	0.01733572
540.888	0.01716073
541.092	0.01700084
541.297	0.01689449
541.501	0.0167389
541.705	0.01659256
541.909	0.01646365
542.113	0.01635684
542.317	0.01622716
542.521	0.01607348
542.725	0.01596326
542.929	0.01586886
543.133	0.01574997
543.337	0.01563942
543.541	0.01550799
543.745	0.01541177
543.949	0.01530806
544.153	0.01514879
544.357	0.01496872
544.56	0.01480267
544.764	0.01462711
544.968	0.01446875
545.172	0.01437167
545.376	0.01424948
545.58	0.01409827
545.783	0.01398993
545.987	0.0138636
546.191	0.01374489
546.395	0.01368072
546.598	0.01352166
546.802	0.01341754
547.006	0.0133256
547.21	0.0132532
547.413	0.01321011
547.617	0.01311029
547.821	0.01296101
548.024	0.01288503
548.228	0.01276045
548.431	0.01265532
548.635	0.01255244
548.839	0.01238172
549.042	0.01230726
549.246	0.01225473
549.449	0.01216197
549.653	0.01211215
549.856	0.01202094
550.06	0.01193801
550.263	0.01188685
550.467	0.01179473
550.67	0.01170943
550.874	0.01162419
551.077	0.01148214
551.28	0.01138922
551.484	0.01129899
551.687	0.01116288
551.891	0.01107969
552.094	0.01094961
552.297	0.01079282
552.501	0.01073047
552.704	0.01060874
552.907	0.01047912
553.11	0.01042825
553.314	0.01033396
553.517	0.01023862
553.72	0.01022204
553.923	0.01015515
554.127	0.01012071
554.33	0.01005992
554.533	0.00997428
554.736	0.00989432
554.939	0.00980265
555.142	0.00972581
555.345	0.0096279
555.549	0.00951261
555.752	0.00939174
555.955	0.00931427
556.158	0.0092072
556.361	0.00912918
556.564	0.00901576
556.767	0.00892255
556.97	0.00886922
557.173	0.00880555
557.376	0.00873527
557.579	0.00868863
557.782	0.00864784
557.984	0.00856262
558.187	0.00851955
558.39	0.00843327
558.593	0.00836928
558.796	0.00829304
558.999	0.0082231
559.202	0.00816156
559.404	0.00810966
559.607	0.00798699
559.81	0.00796066
560.013	0.00791075
560.216	0.00783704
560.418	0.0077926
560.621	0.00771399
560.824	0.00768111
561.026	0.0076351
561.229	0.00751602
561.432	0.00748478
561.634	0.00747549
561.837	0.00741378
562.04	0.00737265
562.242	0.00727032
562.445	0.00720557
562.647	0.00717597
562.85	0.00711058
563.053	0.00702408
563.255	0.00697964
563.458	0.00689865
563.66	0.00683034
563.863	0.00679491
564.065	0.00673641
564.268	0.00661858
564.47	0.00658885
564.672	0.00651805
564.875	0.00651193
565.077	0.00646552
565.28	0.00640315
565.482	0.0063447
565.684	0.00630894
565.887	0.00622482
566.089	0.00615118
566.291	0.00607545
566.494	0.00602076
566.696	0.00596347
566.898	0.00595706
567.1	0.00593973
567.303	0.00588534
567.505	0.00583848
567.707	0.00576625
567.909	0.00571918
568.111	0.00569527
568.314	0.00561922
568.516	0.00555083
568.718	0.00549794
568.92	0.00547891
569.122	0.00545808
569.324	0.00544282
569.526	0.00543221
569.728	0.00541641
569.93	0.005413
570.132	0.00539266
570.334	0.0053331
570.536	0.00531748
570.738	0.00528578
570.94	0.00519873
571.142	0.00512394
571.344	0.00505387
571.546	0.00502229
571.748	0.00497288
571.95	0.00486634
572.152	0.00477288
572.354	0.00472221
572.555	0.00467362
572.757	0.00465501
572.959	0.00461098
573.161	0.00459211
573.363	0.00464493
573.564	0.00462888
573.766	0.0046737
573.968	0.00466447
574.17	0.00462061
574.371	0.00457417
574.573	0.00453839
574.775	0.00445091
574.976	0.00442511
575.178	0.00434154
575.38	0.0043228
575.581	0.00432142
575.783	0.00433138
575.985	0.00427019
576.186	0.00425576
576.388	0.0042002
576.589	0.00413345
576.791	0.00406589
576.992	0.00399542
577.194	0.00391539
577.395	0.00389328
577.597	0.00384741
577.798	0.00387472
578	0.00388347
578.201	0.00384021
578.402	0.00384163
578.604	0.00381034
578.805	0.00380513
579.007	0.00375411
579.208	0.00367034
579.409	0.00364359
579.611	0.0036129
579.812	0.00354888
580.013	0.00351512
580.215	0.00348893
580.416	0.00345827
580.617	0.00342912
580.818	0.00337933
581.019	0.00335518
581.221	0.00331742
581.422	0.0033306
581.623	0.00333311
581.824	0.00335096
582.025	0.0033514
582.226	0.00337202
582.428	0.00335226
582.629	0.00335454
582.83	0.00329244
583.031	0.0032355
583.232	0.0032119
583.433	0.00321168
583.634	0.0031677
583.835	0.00316134
584.036	0.00312747
584.237	0.00309694
584.438	0.00307251
584.639	0.00304518
584.84	0.00301595
585.041	0.00299398
585.242	0.00295446
585.442	0.00294435
585.643	0.00294365
585.844	0.00287154
586.045	0.00280918
586.246	0.00276728
586.447	0.00268477
586.647	0.00266121
586.848	0.00263052
587.049	0.00262757
587.25	0.00264407
587.45	0.00264457
587.651	0.00264248
587.852	0.00268529
588.053	0.0026636
588.253	0.00266958
588.454	0.00258746
588.655	0.00257717
588.855	0.00255823
589.056	0.00251213
589.256	0.00246102
589.457	0.00246497
589.658	0.00240574
589.858	0.00242799
590.059	0.00240973
590.259	0.002376
590.46	0.00236263
590.66	0.00232714
590.861	0.00229667
591.061	0.00228554
591.262	0.00224007
591.462	0.0022235
591.662	0.00225154
591.863	0.00226164
592.063	0.0022855
592.264	0.00226506
592.464	0.00224981
592.664	0.00226616
592.865	0.00226701
593.065	0.00224638
593.265	0.00224472
593.465	0.00221491
593.666	0.00223737
593.866	0.00222041
594.066	0.00220537
594.266	0.00215447
594.467	0.00208449
594.667	0.00205827
594.867	0.00205779
595.067	0.00202911
595.267	0.00202382
595.467	0.0020518
595.668	0.00207417
595.868	0.00209533
596.068	0.00206076
596.268	0.00203589
596.468	0.00204472
596.668	0.00204876
596.868	0.00199453
597.068	0.00196789
597.268	0.0019528
597.468	0.00194586
597.668	0.00192483
597.868	0.00189837
598.068	0.00185611
598.268	0.00181799
598.467	0.00176766
598.667	0.00173816
598.867	0.00168261
599.067	0.00165783
599.267	0.00161562
599.467	0.00162013
599.667	0.0016326
599.866	0.00164171
600.066	0.00165288
600.266	0.00166361
600.466	0.00167839
600.665	0.00164516
600.865	0.00163117
601.065	0.00160624
601.264	0.00159394
601.464	0.00157278
601.664	0.00158121
601.863	0.00157614
602.063	0.001561
602.263	0.00155637
602.462	0.00153442
602.662	0.00150091
602.861	0.00145273
603.061	0.00139741
603.26	0.0013293
603.46	0.00133793
603.659	0.00130294
603.859	0.00128717
604.058	0.00127686
604.258	0.00128501
604.457	0.00128444
604.657	0.00131335
604.856	0.00130339
605.056	0.00131096
605.255	0.00133186
605.454	0.00136265
605.654	0.00139699
605.853	0.00141429
606.052	0.0013867
606.252	0.00138238
606.451	0.00129427
606.65	0.00125166
606.849	0.00123231
607.049	0.00114315
607.248	0.00110845
607.447	0.00109846
607.646	0.00109881
607.845	0.00113933
608.045	0.00113245
608.244	0.00112526
608.443	0.00118698
608.642	0.00122264
608.841	0.00123058
609.04	0.00118499
609.239	0.00118595
609.438	0.00121449
609.637	0.00119996
609.836	0.0011414
610.035	0.00111234
610.234	0.00108796
610.433	0.00108929
610.632	0.00105692
610.831	0.00103141
611.03	0.0010037
611.229	0.00101196
611.428	0.00100139
611.627	0.00100841
611.826	0.00102332
612.025	0.00106106
612.224	0.00105263
612.422	0.00106969
612.621	0.00107171
612.82	0.00109302
613.019	0.00109754
613.218	0.0010675
613.416	0.0010443
613.615	0.00103912
613.814	0.00106369
614.012	0.00109449
614.211	0.00108595
614.41	0.0010842
614.608	0.00107145
614.807	0.00106318
615.006	0.00102975
615.204	0.00098123
615.403	0.00088167
615.602	0.00083732
615.8	0.0008267
615.999	0.00088924
616.197	0.00092125
616.396	0.00094679
616.594	0.00092689
616.793	0.00097578
616.991	0.00096292
617.19	0.00096428
617.388	0.0009475
617.586	0.00094328
617.785	0.00094973
617.983	0.00094149
618.182	0.00093962
618.38	0.00095087
618.578	0.00091581
618.777	0.00085957
618.975	0.00086403
619.173	0.00085589
619.372	0.00087048
619.57	0.00087054
619.768	0.00085484
619.966	0.00086705
620.165	0.00088569
620.363	0.00086426
620.561	0.00085272
620.759	0.00088116
620.957	0.00088338
621.155	0.00090873
621.354	0.00093833
621.552	0.00095226
621.75	0.00091243
621.948	0.0009054
622.146	0.00087026
622.344	0.00084582
622.542	0.00082231
622.74	0.00080091
622.938	0.00077577
623.136	0.00075378
623.334	0.00076179
623.532	0.00074422
623.73	0.00074055
623.928	0.00072538
624.126	0.00068157
624.324	0.00067523
624.522	0.00066476
624.719	0.00064199
624.917	0.00062801
625.115	0.00059981
625.313	0.00059265
625.511	0.00059025
625.708	0.00057587
625.906	0.00058184
626.104	0.00057325
626.302	0.00057179
626.499	0.00058649
626.697	0.00061796
626.895	0.00065735
627.093	0.00065537
627.29	0.00068492
627.488	0.00068618
627.686	0.00073292
627.883	0.00073405
628.081	0.0006756
628.278	0.00065069
628.476	0.0006672
628.673	0.00066551
628.871	0.00069637
629.068	0.00065977
629.266	0.00065736
629.463	0.00066626
629.661	0.00065064
629.858	0.00065814
630.056	0.00064227
630.253	0.00062388
630.451	0.00062933
630.648	0.00066101
630.845	0.00069282
631.043	0.00075322
631.24	0.00074629
631.438	0.00074048
631.635	0.00071291
631.832	0.00071524
632.029	0.00067621
632.227	0.00068909
632.424	0.00063734
632.621	0.00061726
632.818	0.00060698
633.016	0.00062656
633.213	0.0006092
633.41	0.00063323
633.607	0.00061419
633.804	0.00060225
634.001	0.00061934
634.199	0.0006392
634.396	0.00066335
634.593	0.00066981
634.79	0.0006473
634.987	0.00064843
635.184	0.00067571
635.381	0.00069956
635.578	0.00074073
635.775	0.00072561
635.972	0.00075088
636.169	0.0007393
636.366	0.00075974
636.563	0.00072365
636.76	0.00067122
636.957	0.00057688
637.153	0.00052973
637.35	0.00051228
637.547	0.0005075
637.744	0.00047232
637.941	0.00047758
638.138	0.0004812
638.334	0.00050958
638.531	0.00051421
638.728	0.00046564
638.925	0.0004864
639.121	0.00048512
639.318	0.00049389
639.515	0.00050624
639.711	0.00054269
639.908	0.00054702
640.105	0.00061622
640.301	0.00062637
640.498	0.00064346
640.695	0.00063411
640.891	0.00061603
641.088	0.00060487
641.284	0.00066834
641.481	0.00068524
641.677	0.00066298
641.874	0.00065056
642.07	0.00064851
642.267	0.00067517
642.463	0.00065603
642.66	0.00059017
642.856	0.00051259
643.053	0.00052298
643.249	0.00052791
643.445	0.00055362
643.642	0.00057728
643.838	0.00057499
644.034	0.00060681
644.231	0.00065389
644.427	0.00063072
644.623	0.00061056
644.82	0.00058862
645.016	0.00058503
645.212	0.00063362
645.408	0.00063456
645.604	0.00059773
645.801	0.00060122
645.997	0.00055507
646.193	0.0005273
646.389	0.0005089
646.585	0.000463
646.781	0.00047083
646.977	0.00048576
647.173	0.00051349
647.37	0.00056036
647.566	0.00058769
647.762	0.00060177
647.958	0.00061713
648.154	0.00062075
648.35	0.00063182
648.546	0.00064799
648.742	0.00068785
648.937	0.00068515
649.133	0.00064581
649.329	0.00064802
649.525	0.00060783
649.721	0.00060525
649.917	0.00057391
650.113	0.00054489
650.309	0.00059851
650.504	0.0006111
650.7	0.00060823
650.896	0.00061308
651.092	0.00056801
651.287	0.00052694
651.483	0.00052332
651.679	0.00047804
651.875	0.00047857
652.07	0.00048782
652.266	0.00046591
652.462	0.00047401
652.657	0.00049882
652.853	0.00050938
653.048	0.00051218
653.244	0.00049915
653.44	0.00049197
653.635	0.00053627
653.831	0.00054545
654.026	0.00056005
654.222	0.00056268
654.417	0.00056974
654.613	0.00061572
654.808	0.00057931
655.004	0.00057197
655.199	0.00061435
655.394	0.00060743
655.59	0.00058376
655.785	0.00056532
655.98	0.00054864
656.176	0.00060045
656.371	0.00060642
656.566	0.00059835
656.762	0.00063923
656.957	0.00068338
657.152	0.00072882
657.348	0.00067697
657.543	0.0006612
657.738	0.00066636
657.933	0.00065258
658.128	0.0006345
658.324	0.00063396
658.519	0.00063148
658.714	0.00062711
658.909	0.00060753
659.104	0.00056593
659.299	0.00057578
659.494	0.00056437
659.689	0.00057839
659.884	0.00058225
660.079	0.00064837
660.274	0.00065952
660.469	0.00070518
660.664	0.00070194
660.859	0.00070147
661.054	0.00066111
661.249	0.00060589
661.444	0.00056118
661.639	0.00055317
661.834	0.00050883
662.029	0.00050557
662.224	0.00051034
662.418	0.00050704
662.613	0.0005564
662.808	0.00059209
663.003	0.00060274
663.198	0.00062279
663.392	0.00063156
663.587	0.00064884
663.782	0.00067081
663.977	0.00064694
664.171	0.00065142
664.366	0.00068104
664.561	0.00068353
664.755	0.00068109
664.95	0.00066187
665.144	0.0006505
665.339	0.00065446
665.534	0.00061473
665.728	0.00055607
665.923	0.00051439
666.117	0.00048658
666.312	0.00048192
666.506	0.00044241
666.701	0.00047252
666.895	0.00048114
667.09	0.00050366
667.284	0.00056303
667.479	0.00060759
667.673	0.00059936
667.867	0.00065264
668.062	0.00061932
668.256	0.00061677
668.45	0.00062399
668.645	0.00058119
668.839	0.00055309
669.033	0.00052774
669.228	0.00045292
669.422	0.00040093
669.616	0.00044356
669.81	0.00048937
670.004	0.00053407
670.199	0.00055401
670.393	0.00061673
670.587	0.00064411
670.781	0.00069734
670.975	0.0006827
671.169	0.00066127
671.363	0.00069407
671.558	0.00072845
671.752	0.0007033
671.946	0.00073846
672.14	0.00074245
672.334	0.00071786
672.528	0.00069651
672.722	0.00062425
672.916	0.00060386
673.11	0.00059863
673.304	0.00056942
673.497	0.00053488
673.691	0.00054178
673.885	0.00053956
674.079	0.00055609
674.273	0.00050296
674.467	0.00056242
674.661	0.00059677
674.854	0.00062377
675.048	0.00064004
675.242	0.00064746
675.436	0.00063408
675.629	0.00068201
675.823	0.00063113
676.017	0.00064255
676.211	0.00063903
676.404	0.00063797
676.598	0.0006343
676.792	0.00068852
676.985	0.00067608
677.179	0.0006869
677.372	0.00069146
677.566	0.00069077
677.76	0.00069705
677.953	0.00070956
678.147	0.00067666
678.34	0.00061165
678.534	0.00057314
678.727	0.0005301
678.921	0.00051216
679.114	0.00048419
679.307	0.00050327
679.501	0.000502
679.694	0.0005389
679.888	0.00057158
680.081	0.00055319
680.274	0.00057385
680.468	0.00060463
680.661	0.00056009
680.854	0.00052958
681.048	0.00050665
681.241	0.00048648
681.434	0.0005047
681.627	0.00051897
681.821	0.00048963
682.014	0.00050093
682.207	0.00050015
682.4	0.00053996
682.593	0.00057941
682.786	0.00059993
682.98	0.00056026
683.173	0.00052907
683.366	0.00049819
683.559	0.00047631
683.752	0.0004262
683.945	0.00040024
684.138	0.00039575
684.331	0.0004042
684.524	0.00040799
684.717	0.00045329
684.91	0.00048781
685.103	0.00055771
685.296	0.00056107
685.489	0.0005756
685.682	0.00061738
685.874	0.00067399
686.067	0.00070343
686.26	0.0007549
686.453	0.00074744
686.646	0.00073767
686.839	0.00071973
687.031	0.00067361
687.224	0.0006583
687.417	0.0006094
687.61	0.0005793
687.802	0.00057204
687.995	0.00057343
688.188	0.00058242
688.38	0.00060213
688.573	0.00059354
688.766	0.00054772
688.958	0.00051869
689.151	0.0004866
689.343	0.00052035
689.536	0.00052106
689.729	0.00052737
689.921	0.00053024
690.114	0.00053833
690.306	0.00057129
690.499	0.00060241
690.691	0.0005945
690.884	0.00061064
691.076	0.00062459
691.268	0.00063657
691.461	0.00069815
691.653	0.00072283
691.846	0.000767
692.038	0.00077195
692.23	0.00075156
692.423	0.00071588
692.615	0.00070854
692.807	0.00069581
692.999	0.00061855
693.192	0.00057166
693.384	0.00054756
693.576	0.00057111
693.768	0.00064118
693.961	0.00064267
694.153	0.00063391
694.345	0.00070188
694.537	0.00067414
694.729	0.00064623
694.921	0.00059986
695.113	0.00055837
695.305	0.00052596
695.498	0.00050182
695.69	0.00043672
695.882	0.00040587
696.074	0.00039388
696.266	0.00039944
696.458	0.00036474
696.65	0.00036958
696.842	0.00036427
697.033	0.00039298
697.225	0.00045511
697.417	0.00050061
697.609	0.00047868
697.801	0.00046739
697.993	0.000474
698.185	0.00051272
698.376	0.00054242
698.568	0.00052072
698.76	0.00053401
698.952	0.00057064
699.144	0.00062124
699.335	0.00064759
699.527	0.00065149
699.719	0.00060412
699.91	0.00060349
700.102	0.00053605
700.294	0.00050338
700.485	0.00043435
700.677	0.00038628
700.869	0.0003427
701.06	0.00034856
701.252	0.00036653
701.443	0.00040978
701.635	0.00040526
701.826	0.00040605
702.018	0.00043722
702.209	0.00044023
702.401	0.00042621
702.592	0.0003894
702.784	0.00039579
702.975	0.00041081
703.166	0.00046931
703.358	0.00044517
703.549	0.00045818
703.741	0.00048592
703.932	0.00048457
704.123	0.00047387
704.315	0.00046603
704.506	0.00042865
704.697	0.00049023
704.888	0.00049813
705.08	0.00050214
705.271	0.00054603
705.462	0.00054098
705.653	0.00058063
705.844	0.00060503
706.035	0.00056737
706.227	0.0006126
706.418	0.00057554
706.609	0.00053269
706.8	0.00049506
706.991	0.00045789
707.182	0.00044232
707.373	0.00043111
707.564	0.00036315
707.755	0.00038092
707.946	0.00040326
708.137	0.00042694
708.328	0.00042556
708.519	0.00046581
708.71	0.00044269
708.901	0.00045931
709.092	0.000472
709.283	0.000475
709.473	0.00046971
709.664	0.00045657
709.855	0.00044503
710.046	0.00047824
710.237	0.00050338
710.427	0.00052078
710.618	0.00052977
710.809	0.0005317
711	0.0005504
711.19	0.00049877
711.381	0.00049103
711.572	0.00043388
711.762	0.00038986
711.953	0.00040235
712.144	0.00040917
712.334	0.0004081
712.525	0.00042101
712.715	0.0004175
712.906	0.00044312
713.097	0.00042463
713.287	0.00034254
713.478	0.00035595
713.668	0.00030899
713.859	0.00030103
714.049	0.00027017
714.239	0.00026077
714.43	0.00027198
714.62	0.00031082
714.811	0.0002658
715.001	0.00029348
715.191	0.00033186
715.382	0.00041257
715.572	0.00044224
715.762	0.00049427
715.953	0.00055739
716.143	0.00062542
716.333	0.0006644
716.523	0.00068084
716.714	0.00061578
716.904	0.00059915
717.094	0.000595
717.284	0.00055029
717.474	0.00054293
717.664	0.00053647
717.855	0.00046648
718.045	0.00051099
718.235	0.00050934
718.425	0.00047704
718.615	0.00049525
718.805	0.00044283
718.995	0.00041898
719.185	0.00042926
719.375	0.00039019
719.565	0.00037023
719.755	0.0003689
719.945	0.00030309
720.135	0.00033623
720.325	0.00035987
720.515	0.00036658
720.704	0.00034582
720.894	0.00040125
721.084	0.00040343
721.274	0.00042855
721.464	0.00043647
721.654	0.00042577
721.843	0.00042659
722.033	0.00045968
722.223	0.00042136
722.413	0.00045832
722.602	0.00051413
722.792	0.00046928
722.982	0.00043847
723.171	0.00042453
723.361	0.00041873
723.55	0.00038782
723.74	0.00034808
723.93	0.00030923
724.119	0.00034269
724.309	0.00037553
724.498	0.00042059
724.688	0.0004252
724.877	0.0004697
725.067	0.00045502
725.256	0.00048351
725.446	0.00050457
725.635	0.00051616
725.825	0.00051833
726.014	0.00050138
726.203	0.00046087
726.393	0.00049729
726.582	0.00047323
726.771	0.00043685
726.961	0.00040768
727.15	0.0004339
727.339	0.00040656
727.529	0.00041616
727.718	0.00037055
727.907	0.00031887
728.096	0.00031623
728.286	0.00031807
728.475	0.00025624
728.664	0.00030062
728.853	0.00034461
729.042	0.00037173
729.231	0.00038976
729.42	0.00037365
729.609	0.00038156
729.799	0.0003643
729.988	0.00036305
730.177	0.00033699
730.366	0.00036494
730.555	0.00041132
730.744	0.00041575
730.933	0.00037399
731.122	0.00037606
731.31	0.00037219
731.499	0.00032143
731.688	0.00028751
731.877	0.00026348
732.066	0.00031286
732.255	0.00036982
732.444	0.00041339
732.632	0.00041153
732.821	0.00043769
733.01	0.00045205
733.199	0.00043649
733.388	0.00043398
733.576	0.00047124
733.765	0.00047109
733.954	0.00051574
734.142	0.00054536
734.331	0.00056616
734.52	0.00055886
734.708	0.0005046
734.897	0.00046128
735.086	0.00043462
735.274	0.00037595
735.463	0.00036359
735.651	0.00029274
735.84	0.00032968
736.028	0.00036056
736.217	0.00031663
736.405	0.00033854
736.594	0.000362
736.782	0.00039264
736.971	0.00043983
737.159	0.00044732
737.347	0.00043869
737.536	0.00045068
737.724	0.00043356
737.912	0.00042317
738.101	0.00037885
738.289	0.00034429
738.477	0.00031012
738.666	0.00030054
738.854	0.00033276
739.042	0.00031358
739.23	0.00029928
739.418	0.00033453
739.607	0.00038206
739.795	0.00035821
739.983	0.00033024
740.171	0.00027394
740.359	0.00020846
740.547	0.00015664
740.735	0.00011124
740.923	0.00011704
741.112	0.00012756
741.3	0.00018324
741.488	0.00021804
741.676	0.00031043
741.864	0.00035091
742.052	0.00036582
742.239	0.00035793
742.427	0.0004111
742.615	0.00041929
742.803	0.00039458
742.991	0.00037121
743.179	0.00035274
743.367	0.00032142
743.555	0.0002701
743.742	0.0002441
743.93	0.00022118
744.118	0.00024522
744.306	0.00021521
744.494	0.00019361
744.681	0.00022577
744.869	0.00020632
745.057	0.00019654
745.244	0.00019509
745.432	0.00020902
745.62	0.00026929
745.807	0.0003213
745.995	0.00028679
746.182	0.00031672
746.37	0.00030246
746.558	0.00024048
746.745	0.0002019
746.933	0.00014431
747.12	0.00018393
747.308	0.00024577
747.495	0.00029427
747.683	0.00039395
747.87	0.00051522
748.057	0.00061458
748.245	0.00067902
748.432	0.00063277
748.62	0.0005886
748.807	0.00055763
748.994	0.00046131
749.182	0.00035816
749.369	0.00032552
749.556	0.00030096
749.743	0.00030707
749.931	0.00036562
750.118	0.00036102
750.305	0.00039635
750.492	0.0004295
750.68	0.00040934
750.867	0.00040697
751.054	0.00041597
751.241	0.00037799
751.428	0.00041647
751.615	0.00042956
751.802	0.00046914
751.989	0.00049346
752.176	0.00053768
752.363	0.00055874
752.55	0.00056225
752.737	0.00055458
752.924	0.00053582
753.111	0.00051903
753.298	0.00050131
753.485	0.00048623
753.672	0.00049945
753.859	0.00057006
754.046	0.00058503
754.233	0.00062116
754.42	0.00064995
754.606	0.00064583
754.793	0.00068216
754.98	0.00071396
755.167	0.00065384
755.353	0.0005931
755.54	0.00054513
755.727	0.0005149
755.914	0.00054302
756.1	0.00050253
756.287	0.00046336
756.474	0.00044754
756.66	0.00044822
756.847	0.00044606
757.033	0.00038352
757.22	0.00034686
757.407	0.00034318
757.593	0.00031394
757.78	0.00037154
757.966	0.00040102
758.153	0.00040386
758.339	0.00042014
758.526	0.00037582
758.712	0.00036901
758.898	0.00037481
759.085	0.00032064
759.271	0.00031208
759.458	0.00029713
759.644	0.00034602
759.83	0.00041765
760.017	0.0004592
760.203	0.00049057
760.389	0.00051573
760.576	0.00057509
760.762	0.00059319
760.948	0.00065507
761.134	0.00064281
761.32	0.00061353
761.507	0.00060517
761.693	0.00060526
761.879	0.00053808
762.065	0.00056652
762.251	0.00048302
762.437	0.00046815
762.623	0.00045825
762.809	0.00044731
762.995	0.00042258
763.181	0.00045721
763.367	0.00041343
763.553	0.00044969
763.739	0.00048713
763.925	0.00049594
764.111	0.00049756
764.297	0.00051195
764.483	0.00055066
764.669	0.00058311
764.855	0.00058466
765.041	0.00058217
765.227	0.00059685
765.412	0.00061142
765.598	0.00066099
765.784	0.00058959
765.97	0.00060619
766.156	0.00058979
766.341	0.00058154
766.527	0.00053345
766.713	0.00051565
766.898	0.0004286
767.084	0.0004741
767.27	0.00040946
767.455	0.00037672
767.641	0.0003059
767.827	0.00033651
768.012	0.00037213
768.198	0.00038119
768.383	0.00028281
768.569	0.00031618
768.754	0.00035974
768.94	0.00039023
769.125	0.00035885
769.311	0.0003259
769.496	0.00034424
769.682	0.0004126
769.867	0.00046543
770.052	0.00048611
770.238	0.00046426
770.423	0.00045409
770.608	0.00041515
770.794	0.00041556
770.979	0.00039195
771.164	0.00033018
771.35	0.00032188
771.535	0.00040505
771.72	0.00049686
771.905	0.00055782
772.09	0.00057543
772.276	0.00060564
772.461	0.00063018
772.646	0.00058371
772.831	0.00053081
773.016	0.00050919
773.201	0.00051956
773.386	0.00052578
773.571	0.00055133
773.756	0.00057322
773.941	0.00054805
774.126	0.00054047
774.311	0.00050292
774.496	0.00045593
774.681	0.00044138
774.866	0.0004068
775.051	0.00034952
775.236	0.00037609
775.421	0.00032359
775.606	0.00030688
775.791	0.00025611
775.976	0.00021696
776.16	0.00022674
776.345	0.00026487
776.53	0.00035077
776.715	0.00046948
776.899	0.00051667
777.084	0.00060441
777.269	0.0006469
777.454	0.00067533
777.638	0.0006436
777.823	0.00051527
778.008	0.0004036
778.192	0.00035242
778.377	0.00031906
778.561	0.00035206
778.746	0.00034438
778.931	0.00034228
779.115	0.00039185
779.3	0.00042198
779.484	0.00042983
779.669	0.00041371
779.853	0.00033667
780.037	0.00029191
780.222	0.00034189
780.406	0.00040775
780.591	0.00050018
780.775	0.00056708
780.959	0.00056257
781.144	0.00056345
781.328	0.0005863
781.512	0.00058702
781.697	0.00055616
781.881	0.00053431
782.065	0.00050903
782.249	0.00056939
782.434	0.00057309
782.618	0.00056242
782.802	0.00057655
782.986	0.00062761
783.17	0.00064165
783.354	0.00069379
783.539	0.00070093
783.723	0.00073039
783.907	0.00075632
784.091	0.00066895
784.275	0.00056264
784.459	0.00050725
784.643	0.00044082
784.827	0.00042225
785.011	0.00044403
785.195	0.00042122
785.379	0.00048602
785.563	0.00054334
785.747	0.00055328
785.93	0.00056562
786.114	0.00061697
786.298	0.00058484
786.482	0.00063141
786.666	0.0006193
786.85	0.0005994
787.033	0.0005767
787.217	0.00060397
787.401	0.00057353
787.585	0.00068385
787.768	0.00069254
787.952	0.00071168
788.136	0.00072138
788.319	0.00073531
788.503	0.00065412
788.687	0.00063972
788.87	0.00054081
789.054	0.00046549
789.237	0.00041194
789.421	0.00038754
789.605	0.00034961
789.788	0.00034722
789.972	0.00032379
790.155	0.00034438
790.338	0.00041085
790.522	0.00046632
790.705	0.00047874
790.889	0.00050314
791.072	0.00049549
791.256	0.00050679
791.439	0.00051202
791.622	0.00047266
791.806	0.00046814
791.989	0.00053263
792.172	0.00062256
792.355	0.00069177
792.539	0.00070658
792.722	0.00070596
792.905	0.0007051
793.088	0.00073624
793.271	0.00072222
793.455	0.00070411
793.638	0.00068914
793.821	0.00069049
794.004	0.00064558
794.187	0.00063899
794.37	0.00054464
794.553	0.00050858
794.736	0.00042582
794.919	0.00038733
795.102	0.00030765
795.285	0.00030575
795.468	0.00032649
795.651	0.00035166
795.834	0.00037552
796.017	0.00046163
796.2	0.00052518
796.383	0.00057713
796.566	0.00062366
796.749	0.00061005
796.931	0.00063881
797.114	0.00060376
797.297	0.00051671
797.48	0.00049718
797.663	0.00048722
797.845	0.00048944
798.028	0.0004964
798.211	0.00053174
798.393	0.00052551
798.576	0.00054922
798.759	0.00053018
798.941	0.00055886
799.124	0.00059331
799.307	0.00060105
799.489	0.00060228
799.672	0.00062038
799.854	0.00062371
800.037	0.00067467
800.219	0.00063765
800.402	0.00060315
800.584	0.00057125
800.767	0.00054319
800.949	0.00056048
801.132	0.00063923
801.314	0.00059637
801.496	0.00058152
801.679	0.00051005
801.861	0.00055119
802.043	0.00054843
802.226	0.00044663
802.408	0.00029522
802.59	0.00027214
802.772	0.00030048
802.955	0.00033201
803.137	0.00034814
803.319	0.00033654
803.501	0.00045403
803.684	0.00055112
803.866	0.00057814
804.048	0.00054086
804.23	0.00056072
804.412	0.00053769
804.594	0.00051111
804.776	0.00043432
804.958	0.00044842
805.14	0.00043186
805.322	0.00050047
805.504	0.00053826
805.686	0.00053273
805.868	0.00052801
806.05	0.00056966
806.232	0.00051659
806.414	0.0005599
806.596	0.00052361
806.778	0.00048561
806.96	0.00052612
807.141	0.00060028
807.323	0.00062173
807.505	0.0006792
807.687	0.00072143
807.869	0.00077928
808.05	0.00081936
808.232	0.00080244
808.414	0.00074914
808.595	0.00078676
808.777	0.00069677
808.959	0.00060823
809.14	0.00054586
809.322	0.00052521
809.504	0.00049914
809.685	0.00052449
809.867	0.00044548
810.048	0.00046099
810.23	0.00046612
810.411	0.00047136
810.593	0.00042317
810.774	0.00046516
810.956	0.00045037
811.137	0.00047662
811.319	0.00054016
811.5	0.00059133
811.681	0.00065099
811.863	0.00064738
812.044	0.00060268
812.225	0.0005975
812.407	0.00060391
812.588	0.00063287
812.769	0.00064302
812.951	0.00061182
813.132	0.00065305
813.313	0.00063593
813.494	0.00061143
813.675	0.00059099
813.857	0.00054599
814.038	0.00050089
814.219	0.00051449
814.4	0.00049285
814.581	0.00050764
814.762	0.00057215
814.943	0.00060701
815.124	0.00063336
815.305	0.00062958
815.486	0.0006038
815.667	0.00057996
815.848	0.00057425
816.029	0.00050813
816.21	0.00048891
816.391	0.0004312
816.572	0.00045535
816.753	0.00050366
816.934	0.00057867
817.115	0.00067915
817.295	0.00076184
817.476	0.00076805
817.657	0.00078666
817.838	0.00083406
818.019	0.00082492
818.199	0.00078247
818.38	0.00070779
818.561	0.00072036
818.741	0.0007806
818.922	0.00079349
819.103	0.00074608
819.283	0.00074501
819.464	0.0007923
819.645	0.00077465
819.825	0.00068281
820.006	0.00052534
820.186	0.00049298
820.367	0.00047709
820.547	0.00048338
820.728	0.00042653
820.908	0.00046284
821.089	0.00050617
821.269	0.00065387
821.45	0.00071944
821.63	0.00071423
821.81	0.00070496
821.991	0.00072871
822.171	0.00071403
822.351	0.00064884
822.532	0.0006351
822.712	0.00059902
822.892	0.00056889
823.072	0.00052473
823.253	0.00047928
823.433	0.000429
823.613	0.00050264
823.793	0.00049591
823.973	0.00054439
824.154	0.00053849
824.334	0.00055806
824.514	0.00057514
824.694	0.00060471
824.874	0.0005683
825.054	0.00045253
825.234	0.00036319
825.414	0.00041083
825.594	0.00037426
825.774	0.00042331
825.954	0.00039177
826.134	0.00043107
826.314	0.00048867
826.494	0.00051458
826.674	0.00045125
826.854	0.00042769
827.033	0.00033532
827.213	0.00034006
827.393	0.00025195
827.573	0.00020809
827.753	0.00016276
827.932	0.00021845
828.112	0.00024249
828.292	0.00033123
828.472	0.00035959
828.651	0.00045672
828.831	0.00046219
829.011	0.00048765
829.19	0.00044262
829.37	0.00042599
829.549	0.0003652
829.729	0.00026936
829.909	0.00016278
830.088	0.00017908
830.268	0.0001682
830.447	0.00025969
830.627	0.00027509
830.806	0.00033422
830.986	0.00049416
831.165	0.00062895
831.344	0.00069963
831.524	0.00071498
831.703	0.00069247
831.883	0.00068641
832.062	0.00064566
832.241	0.00055629
832.421	0.00048392
832.6	0.00043068
832.779	0.00052109
832.958	0.00051886
833.138	0.0006096
833.317	0.00064798
833.496	0.00076463
833.675	0.00082055
833.854	0.00090338
834.034	0.00088823
834.213	0.00093762
834.392	0.00082434
834.571	0.00072538
834.75	0.00056678
834.929	0.00046625
835.108	0.00034092
835.287	0.00029854
835.466	0.00011361
835.645	0.0000792
835.824	0.00014137
836.003	0.0002632
836.182	0.00029767
836.361	0.00031358
836.54	0.00025627
836.719	0.00036921
836.897	0.00035413
837.076	0.00034849
837.255	0.00018061
837.434	0.00015943
837.613	0.00013683
837.791	0.00019358
837.97	0.00020249
838.149	0.00032591
838.328	0.00035499
838.506	0.00054249
838.685	0.0006518
838.864	0.00073061
839.042	0.00070034
839.221	0.00065174
839.4	0.00052963
839.578	0.00051408
839.757	0.00036049
839.935	0.00030056
840.114	0.00034983
840.292	0.00045137
840.471	0.00048712
840.649	0.00063153
840.828	0.00065684
841.006	0.000777
841.185	0.00081744
841.363	0.00079043
841.541	0.00065835
841.72	0.0006325
841.898	0.00059382
842.076	0.00059603
842.255	0.00055984
842.433	0.0004968
842.611	0.00040575
842.789	0.00039958
842.968	0.00040084
843.146	0.00039088
843.324	0.00040751
843.502	0.00039215
843.68	0.00042303
843.859	0.00058057
844.037	0.00067012
844.215	0.00062475
844.393	0.00056466
844.571	0.00047358
844.749	0.00046891
844.927	0.00037798
845.105	0.00031032
845.283	0.00031431
845.461	0.00040177
845.639	0.0004339
845.817	0.00052531
845.995	0.0006269
846.173	0.00070625
846.351	0.00066596
846.529	0.00066554
846.706	0.00060661
846.884	0.00063392
847.062	0.00057838
847.24	0.00049098
847.418	0.0004875
847.595	0.00052873
847.773	0.00049794
847.951	0.00056454
848.129	0.00060498
848.306	0.00070346
848.484	0.00068597
848.662	0.00074032
848.839	0.00076127
849.017	0.0007795
849.194	0.00072697
849.372	0.00068708
849.549	0.0006025
849.727	0.00059486
849.905	0.0005336
850.082	0.00042189
850.26	0.00042517
850.437	0.00045891
850.614	0.0005334
850.792	0.00054931
850.969	0.00055363
851.147	0.00055297
851.324	0.00065307
851.501	0.00062055
851.679	0.00059408
851.856	0.00049741
852.033	0.00050464
852.211	0.00056186
852.388	0.00060057
852.565	0.00056455
852.742	0.00058896
852.92	0.00051525
853.097	0.00055707
853.274	0.00061211
853.451	0.00059615
853.628	0.00061265
853.805	0.00059951
853.982	0.00061905
854.159	0.00073018
854.336	0.00075722
854.514	0.00070756
854.691	0.00072417
854.868	0.00073805
855.045	0.00077215
855.221	0.00070838
855.398	0.00057337
855.575	0.00051203
855.752	0.0004757
855.929	0.00050677
856.106	0.00050828
856.283	0.00055429
856.46	0.00064407
856.637	0.00086601
856.813	0.00095993
856.99	0.00104386
857.167	0.00101764
857.344	0.00094941
857.52	0.00083382
857.697	0.00072479
857.874	0.00051637
858.05	0.00038037
858.227	0.00031699
858.404	0.00029528
858.58	0.0003547
858.757	0.00041856
858.933	0.00039603
859.11	0.00048261
859.287	0.00055554
859.463	0.00048622
859.64	0.00045901
859.816	0.00039473
859.993	0.00033839
860.169	0.00041455
860.345	0.00039406
860.522	0.00040541
860.698	0.00038337
860.875	0.00040732
861.051	0.00046373
861.227	0.00043684
861.404	0.00052378
861.58	0.00072858
861.756	0.00084966
861.932	0.00099572
862.109	0.0010105
862.285	0.00094834
862.461	0.00102741
862.637	0.00091012
862.813	0.00081186
862.99	0.00067851
863.166	0.00059231
863.342	0.00049803
863.518	0.00040058
863.694	0.00039662
863.87	0.00047696
864.046	0.00034061
864.222	0.00034617
864.398	0.00031458
864.574	0.00039495
864.75	0.00053789
864.926	0.00050336
865.102	0.00046024
865.278	0.00039094
865.454	0.00032814
865.63	0.00034203
865.805	0.00032773
865.981	0.00025949
866.157	0.00030752
866.333	0.00029914
866.509	0.00051257
866.684	0.00064028
866.86	0.00077567
867.036	0.00083428
867.212	0.00093892
867.387	0.00090634
867.563	0.00082105
867.739	0.00069984
867.914	0.00063699
868.09	0.00042828
868.265	0.00032848
868.441	0.00023806
868.617	0.00019834
868.792	0.00026228
868.968	0.00026544
869.143	0.00025666
869.319	0.00035399
869.494	0.00039958
869.67	0.0004604
869.845	0.00051137
870.02	0.00049362
870.196	0.00055671
870.371	0.000492
870.546	0.00043959
870.722	0.0003255
870.897	0.00014138
871.072	0.00002726
871.248	-0.00006081
871.423	-0.00007088
871.598	0.0000098
871.773	0.00011274
871.949	0.00020878
872.124	0.0003526
872.299	0.0004102
872.474	0.00056255
872.649	0.00047074
872.824	0.00040606
872.999	0.00032
873.174	0.00022769
873.349	0.00011367
873.524	0.00000281
873.699	-0.00004506
873.874	0.00001186
874.049	0.00000247
874.224	0.00005066
874.399	0.00021747
874.574	0.00039757
874.749	0.0006677
874.924	0.00071402
875.099	0.00079058
875.274	0.00093683
875.449	0.00097101
875.623	0.0009909
875.798	0.00088064
875.973	0.00071561
876.148	0.00063853
876.322	0.00047237
876.497	0.00027552
876.672	0.00019428
876.846	0.0000565
877.021	0.00006464
877.196	0.00013391
877.37	0.00018161
877.545	0.00030743
877.72	0.00045034
877.894	0.00051719
878.069	0.00046544
878.243	0.00031523
878.418	0.00006259
878.592	-0.00006275
878.767	-0.00028949
878.941	-0.00050905
879.116	-0.00074741
879.29	-0.00078218
879.464	-0.00073424
879.639	-0.00054522
879.813	-0.00043326
879.987	-0.0002177
880.162	-0.00004568
880.336	0.00018758
880.51	0.00036282
880.685	0.0005666
880.859	0.00058132
881.033	0.00056723
881.207	0.00052161
881.381	0.00044983
881.556	0.00034107
881.73	0.00030583
881.904	0.00018407
882.078	0.00022006
882.252	0.00021412
882.426	0.0002747
882.6	0.00039533
882.774	0.00046709
882.948	0.0004553
883.122	0.00040783
883.296	0.00041742
883.47	0.00052092
883.644	0.00054434
883.818	0.00046549
883.992	0.00048691
884.166	0.00044442
884.34	0.00055962
884.514	0.0004555
884.687	0.00032436
884.861	0.00030019
885.035	0.00028503
885.209	0.0002211
885.382	0.00029427
885.556	0.00029219
885.73	0.00048896
885.904	0.00066839
886.077	0.00067612
886.251	0.00063782
886.425	0.00068988
886.598	0.00061065
886.772	0.00052486
886.945	0.0003035
887.119	0.00016978
887.292	-0.00000426
887.466	0.00006848
887.64	-0.00003193
887.813	-0.00002773
887.986	0.00012772
888.16	0.00027135
888.333	0.00033329
888.507	0.00045598
888.68	0.00048167
888.854	0.00051375
889.027	0.00059817
889.2	0.00041148
889.374	0.00032828
889.547	0.00026677
889.72	0.00021745
889.893	0.00011226
890.067	0.00018837
890.24	0.00015513
890.413	0.00021576
890.586	0.00023869
890.759	0.00028433
890.933	0.00037704
891.106	0.00046339
891.279	0.00051352
891.452	0.00050723
891.625	0.00051301
891.798	0.00057674
891.971	0.00049151
892.144	0.00043735
892.317	0.00041101
892.49	0.00031522
892.663	0.00026383
892.836	0.00025226
893.009	0.00020646
893.182	0.00024225
893.355	0.00027903
893.527	0.00020628
893.7	0.00018785
893.873	0.00030801
894.046	0.00033283
894.219	0.00033126
894.391	0.00033776
894.564	0.00040871
894.737	0.00057237
894.91	0.00064935
895.082	0.00049856
895.255	0.00041582
895.428	0.00034362
895.6	0.00024616
895.773	0.00022564
895.945	0.00014514
896.118	0.00007224
896.291	0.00015682
896.463	0.00016991
896.636	0.00017867
896.808	0.00014392
896.981	0.00006558
897.153	-0.00004994
897.326	-0.00006839
897.498	-0.00017093
897.67	-0.00022148
897.843	-0.00014479
898.015	-0.0001274
898.187	-0.00016149
898.36	-0.00019809
898.532	-0.00026197
898.704	-0.00026757
898.877	-0.00020856
899.049	-0.00025772
899.221	-0.00021031
899.393	-0.00013579
899.566	0.00009786
899.738	0.00022013
899.91	0.00032861
900.082	0.00040243
900.254	0.00027256
900.426	0.00034147
900.598	0.00033034
900.77	0.00021691
900.942	0.00009213
901.114	-0.00000748
901.286	-0.00000527
901.458	0.00015464
901.63	0.0001193
901.802	0.00012624
901.974	0.00017304
902.146	0.00036998
902.318	0.00050921
902.49	0.00042698
902.662	0.00048109
902.834	0.0004948
903.005	0.00048353
903.177	0.00045038
903.349	0.00036814
903.521	0.00033237
903.693	0.00038175
903.864	0.0002659
904.036	0.00020327
904.208	0.00019151
904.379	0.00017538
904.551	0.00011611
904.723	0.00004425
904.894	-0.00005049
905.066	-0.00008412
905.237	-0.00004368
905.409	-0.00003956
905.58	-0.00005435
905.752	-0.00012276
905.923	-0.00016871
906.095	-0.00011352
906.266	-0.00011678
906.438	-0.00014956
906.609	-0.00022111
906.78	-0.00023696
906.952	-0.00016385
907.123	-0.00024
907.295	-0.00031311
907.466	-0.0003014
907.637	-0.0002538
907.808	-0.00025055
907.98	-0.00028681
908.151	-0.00019972
908.322	-0.00008223
908.493	0.00000787
908.665	0.00010537
908.836	0.00013073
909.007	0.0001209
909.178	0.00024346
909.349	0.00017418
909.52	0.00020274
909.691	0.00022088
909.862	0.00013019
910.033	0.00011472
910.204	0.0001465
910.375	0.00016102
910.546	0.00035748
910.717	0.00047579
910.888	0.00061568
911.059	0.00076132
911.23	0.00081028
911.401	0.00085398
911.572	0.00078295
911.742	0.00061581
911.913	0.00044354
912.084	0.0001657
912.255	0.00017102
912.426	0.00017261
912.596	0.0001598
912.767	0.00022238
912.938	0.00034619
913.108	0.00042106
913.279	0.00063227
913.45	0.00056373
913.62	0.00060998
913.791	0.00063637
913.962	0.00068669
914.132	0.00064345
914.303	0.00069947
914.473	0.00063516
914.644	0.00063233
914.814	0.00047228
914.985	0.00026097
915.155	0.00022475
915.326	0.00014045
915.496	0.0000495
915.666	-0.0001052
915.837	-0.00012233
916.007	-0.00008925
916.177	0.00009887
916.348	0.00002846
916.518	0.00003356
916.688	0.00010717
916.858	0.00030408
917.029	0.00043229
917.199	0.00057851
917.369	0.00058157
917.539	0.00055357
917.709	0.00056046
917.88	0.0005445
918.05	0.00062055
918.22	0.00058289
918.39	0.00047352
918.56	0.0005157
918.73	0.00058747
918.9	0.00054432
919.07	0.00041014
919.24	0.00011092
919.41	-0.00009137
919.58	-0.00015038
919.75	-0.00020135
919.92	-0.00021628
920.09	-0.00016668
920.26	-0.00003104
920.429	0.00018648
920.599	0.00030864
920.769	0.00036535
920.939	0.00025589
921.109	0.00016949
921.278	-0.00000809
921.448	-0.00015357
921.618	-0.00026016
921.787	-0.00030537
921.957	-0.00038547
922.127	-0.00039539
922.296	-0.00033184
922.466	-0.00021017
922.636	-0.00012523
922.805	0.00010032
922.975	0.00014266
923.144	0.00034647
923.314	0.0004464
923.483	0.0004598
923.653	0.00053349
923.822	0.00058216
923.992	0.00039087
924.161	0.00038393
924.331	0.00017564
924.5	0.00016793
924.669	0.00019036
924.839	0.00006577
925.008	0.00000591
925.177	0.00016723
925.347	0.00010687
925.516	0.00014852
925.685	0.00020185
925.854	0.00022435
926.023	0.0004619
926.193	0.0005643
926.362	0.00044913
926.531	0.0004878
926.7	0.00052948
926.869	0.00049327
927.038	0.00034445
927.207	0.00015773
927.376	-0.00002928
927.545	-0.00013611
927.715	-0.00022661
927.884	-0.00033316
928.052	-0.00021115
928.221	-0.00007595
928.39	0.00006794
928.559	0.00027156
928.728	0.00050643
928.897	0.00064974
929.066	0.0007254
929.235	0.00061598
929.404	0.00044916
929.572	0.00042881
929.741	0.00034985
929.91	0.00012875
930.079	0.00006928
930.247	0.00008888
930.416	0.00000411
930.585	0.00019721
930.753	0.00009114
930.922	0.0001405
931.091	0.00017168
931.259	0.00014715
931.428	0.00008961
931.596	0.00004789
931.765	-0.00015807
931.934	-0.00026466
932.102	-0.00027916
932.27	-0.00018361
932.439	-0.00001
932.607	0.00007397
932.776	0.00013918
932.944	0.00034284
933.113	0.00036853
933.281	0.00033413
933.449	0.00013081
933.618	0.00001792
933.786	0.00004663
933.954	0.00011492
934.123	0.00016242
934.291	0.0004153
934.459	0.00050024
934.627	0.00059265
934.795	0.00055102
934.964	0.00034986
935.132	0.00026563
935.3	0.00005235
935.468	-0.00001415
935.636	-0.00026242
935.804	-0.00005948
935.972	-0.00000782
936.14	0.00010246
936.308	0.0001074
936.476	0.00016887
936.644	0.00017425
936.812	0.00038962
936.98	0.00011221
937.148	-0.0001309
937.316	0.00017824
937.484	-0.00003193
937.652	-0.00006423
937.82	-0.00030243
937.987	-0.00027514
938.155	-0.00002433
938.323	0.00045876
938.491	0.00013039
938.658	0.00066698
938.826	0.00075259
938.994	0.00094883
939.162	0.00093064
939.329	0.00112279
939.497	0.00112043
939.665	0.0013303
939.832	0.00086031
940	0.00128978
940.167	0.00141948
940.335	0.00126379
940.502	0.00092061
940.67	0.00049519
940.837	0.00042856
941.005	0.00106844
941.172	0.00037948
941.34	0.00030813
941.507	0.00042363
941.674	0.00035577
941.842	0.00066744
942.009	0.00065892
942.177	0.00043447
942.344	0.00087388
942.511	0.00107857
942.678	0.00086508
942.846	0.00048339
943.013	-0.00018515
943.18	-0.00051736
943.347	-0.00068412
943.514	-0.00017559
943.682	-0.0016291
943.849	-0.00145498
944.016	-0.00148868
944.183	-0.0012125
944.35	-0.00164592
944.517	-0.00137508
944.684	-0.0018095
944.851	-0.00112196
945.018	-0.00079856
945.185	-0.00048323
945.352	-0.000133
945.519	0.00039484
945.686	0.00050511
945.853	0.0008072
946.02	0.00107035
946.187	0.00033179
946.353	0.00005645
946.52	-0.00024939
946.687	0.00029451
946.854	-0.00036135
947.021	-0.00108169
947.187	-0.00126819
947.354	-0.00057116
947.521	0.00017466
947.687	0.00031949
947.854	0.00019137
948.021	-0.00026539
948.187	0.00040009
948.354	0.00062109
948.52	0.00023315
948.687	0.00030121
948.854	0.00007328
949.02	-0.00081655
949.187	0.00018894
949.353	-0.00037817
949.52	-0.00078298
949.686	0.0000029
949.852	-0.00019812
950.019	0.00038363
950.185	0.00062806
950.352	0.00027264
950.518	0.00027993
950.684	0.00050541
950.851	0.00004359
951.017	0.00000648
951.183	-0.00039321
951.349	-0.00021588
951.516	-0.00054701
951.682	-0.00063595
951.848	-0.00084268
952.014	-0.00161351
952.18	-0.00175947
952.346	-0.00138345
952.512	-0.00113919
952.679	-0.00044459
952.845	0.0001662
953.011	0.00049289
953.177	0.00106251
953.343	0.0011249
953.509	0.00106612
953.675	0.00077792
953.841	0.00057207
954.007	0.00077544
954.172	0.0009281
954.338	0.00148722
954.504	0.0016715
954.67	0.0018486
954.836	0.00210636
955.002	0.00209247
955.167	0.000974
955.333	0.00058536
955.499	-0.00008597
955.665	-0.00053151
955.83	-0.00063119
955.996	-0.00132863
956.162	-0.00145085
956.327	-0.00073142
956.493	-0.00074239
956.659	-0.00053317
956.824	-0.00046302
956.99	-0.00079503
957.155	-0.00048383
957.321	-0.00041315
957.486	-0.0005703
957.652	-0.00016762
957.817	-0.00035414
957.983	-0.00046771
958.148	-0.00028918
958.314	-0.00023088
958.479	-0.00041654
958.644	-0.00038569
958.81	-0.0006755
958.975	-0.00075096
959.14	-0.00057076
959.306	-0.00057124
959.471	-0.0007842
959.636	-0.00084908
959.801	-0.00115936
959.967	-0.00150438
960.132	-0.00120705
960.297	-0.00100572
960.462	-0.00102472
960.627	-0.00078075
960.792	-0.00085419
960.957	-0.00086523
961.123	-0.00051474
961.288	-0.00076572
961.453	-0.00089377
961.618	-0.0012552
961.783	-0.00105477
961.948	-0.00059781
962.113	-0.00043067
962.277	-0.00049086
962.442	-0.00019783
962.607	-0.00030095
962.772	0.00003327
962.937	-0.00020203
963.102	-0.00029319
963.267	-0.0005786
963.431	-0.00078951
963.596	-0.00098472
963.761	-0.00119774
963.926	-0.00148981
964.09	-0.00143448
964.255	-0.001476
964.42	-0.00142497
964.584	-0.00127503
964.749	-0.00095494
964.914	-0.00079411
965.078	-0.00063567
965.243	-0.00061488
965.407	-0.00061005
965.572	-0.00081821
965.736	-0.00056258
965.901	-0.00088479
966.065	-0.00051329
966.23	-0.00056548
966.394	-0.0006992
966.559	-0.00032324
966.723	0.00029836
966.887	0.00028228
967.052	0.00024755
967.216	0.00023191
967.38	0.00035133
967.545	0.00050193
967.709	0.00000826
967.873	-0.00014205
968.037	-0.00042073
968.202	-0.00038463
968.366	-0.00044239
968.53	-0.00026148
968.694	-0.00030476
968.858	-0.00022874
969.022	-0.0002849
969.187	-0.00013235
969.351	-0.00030629
969.515	-0.00017787
969.679	-0.00026904
969.843	-0.00010407
970.007	-0.00032681
970.171	-0.00033919
970.335	-0.00017034
970.499	-0.00038988
970.662	-0.00047195
970.826	-0.00044869
970.99	-0.00061823
971.154	-0.00071963
971.318	-0.00085299
971.482	-0.00099519
971.645	-0.00074445
971.809	-0.00103253
971.973	-0.00121983
972.137	-0.00111319
972.3	-0.001031
972.464	-0.00113679
972.628	-0.00078614
972.791	-0.00071126
972.955	-0.00074871
973.119	-0.00057178
973.282	-0.00085548
973.446	-0.00077252
973.609	-0.00057249
973.773	-0.00101451
973.936	-0.00089039
974.1	-0.00047232
974.263	-0.00029557
974.427	-0.00013726
974.59	-0.00023724
974.754	-0.00015959
974.917	0.00025847
975.08	0.00053596
975.244	0.00010853
975.407	-0.00007601
975.57	-0.0001033
975.734	0.00010441
975.897	-0.00026175
976.06	-0.00064413
976.223	-0.00103538
976.387	-0.00108323
976.55	-0.00115811
976.713	-0.001175
976.876	-0.00109504
977.039	-0.00060052
977.202	-0.00056773
977.365	-0.00034902
977.528	0.00004008
977.692	0.00007265
977.855	0.00015382
978.018	0.00015308
978.181	0.00005641
978.344	-0.00012126
978.506	0.0000314
978.669	-0.00053329
978.832	-0.00029727
978.995	-0.00029083
979.158	-0.00013629
979.321	-0.00026577
979.484	0.00018115
979.646	-0.00012689
979.809	-0.00001694
979.972	-0.0004543
980.135	-0.00062924
980.297	-0.00069455
980.46	-0.00073135
980.623	-0.00091261
980.786	-0.00096666
980.948	-0.00077627
981.111	-0.00093369
981.273	-0.00083851
981.436	-0.0010406
981.599	-0.00087052
981.761	-0.00085628
981.924	-0.00098651
982.086	-0.001213
982.249	-0.00082053
982.411	-0.00073396
982.573	-0.00056039
982.736	-0.0008459
982.898	-0.00085882
983.061	-0.0008606
983.223	-0.00078598
983.385	-0.00076521
983.548	-0.00079997
983.71	-0.00098155
983.872	-0.0007711
984.034	-0.00115156
984.197	-0.00116596
984.359	-0.00107366
984.521	-0.00126023
984.683	-0.00107773
984.845	-0.00094868
985.008	-0.00092025
985.17	-0.00042685
985.332	-0.0004525
985.494	-0.00017865
985.656	0.0001821
985.818	0.00029966
985.98	0.00001182
986.142	-0.00040016
986.304	-0.00069457
986.466	-0.00024486
986.628	-0.00025671
986.79	-0.00069635
986.952	-0.0008789
987.113	-0.00026809
987.275	0.00011112
987.437	0.00026368
987.599	-0.00051797
987.761	-0.0011672
987.922	-0.00108042
988.084	-0.00108634
988.246	-0.00149731
988.408	-0.00108451
988.569	-0.00130984
988.731	-0.00126769
988.893	-0.00110113
989.054	-0.00061857
989.216	-0.00040399
989.377	-0.000596
989.539	-0.00093268
989.701	-0.00061397
989.862	-0.00006869
990.024	0.00034854
990.185	-0.00029987
990.347	-0.00076221
990.508	-0.00067075
990.669	-0.00068016
990.831	-0.00122689
990.992	-0.00133985
991.154	-0.00179583
991.315	-0.00186708
991.476	-0.00171006
991.638	-0.00128781
991.799	-0.00125231
991.96	-0.00046023
992.121	-0.00060715
992.283	0.00016868
992.444	0.00033828
992.605	-0.00010175
992.766	-0.00052337
992.927	-0.00050127
993.088	-0.00143777
993.249	-0.00142956
993.41	-0.00183597
993.572	-0.00194609
993.733	-0.00142666
993.894	-0.00120758
994.055	-0.00101508
994.216	-0.00088102
994.376	-0.00099476
994.537	-0.00109641
994.698	-0.00084551
994.859	-0.00068499
995.02	-0.00043361
995.181	-0.00043188
995.342	-0.00017547
995.503	0.00052203
995.663	0.00050417
995.824	0.00022319
995.985	0.00066642
996.146	-0.00007895
996.306	0.0000264
996.467	-0.00016726
996.628	-0.00053101
996.788	-0.00070892
996.949	-0.00055225
997.11	-0.00125348
997.27	-0.0008214
997.431	-0.00159939
997.591	-0.0013828
997.752	-0.00135923
997.912	-0.00077817
998.073	-0.00101039
998.233	-0.00170997
998.394	-0.00192435
998.554	-0.00176756
998.714	-0.00160778
998.875	-0.00129662
999.035	-0.00120343
999.196	-0.00080846
999.356	-0.00023228
999.516	-0.00005525
999.676	-0.0001794
999.837	0.00036865
999.997	0.00040338
1000.157	-0.00029309
1000.317	-0.00034905
1000.477	0.00011752
1000.638	0.00025279
1000.798	0.00065023
1000.958	-0.00014715
1001.118	-0.00009239
1001.278	0.00069512
1001.438	0.00128817
1001.598	0.0010936
1001.758	0.00117871
1001.918	0.00187656
1002.078	0.00220772
1002.238	0.00248244
1002.398	0.00217866
1002.558	0.00206998
1002.718	0.00126807
1002.878	0.00087757
1003.037	0.00003094
1003.197	0.00035739
1003.357	0.00019793
1003.517	0.00082429
1003.677	-0.00000055
1003.836	0.00086013
1003.996	0.00104068
1004.156	0.00099117
1004.315	0.0001987
1004.475	-0.00065126
1004.635	-0.00098963
1004.794	-0.00114048
1004.954	-0.00246607
1005.114	-0.00228285
1005.273	-0.00251948
1005.433	-0.00208261
1005.592	-0.00198632
1005.752	-0.00242161
1005.911	-0.00235212
1006.071	-0.0009593
1006.23	-0.00128219
1006.389	-0.00117326
1006.549	-0.00067634
1006.708	-0.00019231
1006.868	-0.00093432
1007.027	-0.00024925
1007.186	-0.00109299
1007.345	-0.00112106
1007.505	-0.00075869
1007.664	0.00028283
1007.823	0.00020073
1007.982	0.00172451
1008.142	0.00229559
1008.301	0.00387784
1008.46	0.00440996
1008.619	0.0044194
1008.778	0.00327144
1008.937	0.00309569
1009.096	0.00258558
1009.255	0.00187864
1009.414	0.00137505
1009.573	0.00134453
1009.732	0.00096695
1009.891	0.00073391
1010.05	0.00129461
1010.209	0.00101285
1010.368	0.00064288
1010.527	0.00147195
1010.686	0.00246451
1010.845	0.00163941
1011.003	0.00113249
1011.162	0.00112599
1011.321	0.00128601
1011.48	0.00233707
1011.638	0.00124034
1011.797	0.00116143
1011.956	0.00392102
1012.115	0.00445074
1012.273	0.00329666
1012.432	0.0034419
1012.59	0.00198044
1012.749	0.00251198
1012.908	0.00155783
1013.066	-0.00008228
1013.225	0.00006089
1013.383	0.00165892
1013.542	-0.00075081
1013.7	0.0007657
1013.859	0.00091209
1014.017	0.00007226
1014.175	0.00119631
1014.334	0.00174145
1014.492	0.0020478
1014.65	0.00516088
1014.809	0.00470535
1014.967	0.00555193
1015.125	0.00737113
1015.284	0.00658468
1015.442	0.00569026
1015.6	0.00510992
1015.758	0.00421289
1015.916	0.00362723
1016.075	0.00153211
1016.233	-0.00105302
1016.391	0.00013193
1016.549	-0.00019887
1016.707	-0.00122226
1016.865	-0.00047977
1017.023	-0.00202627
1017.181	-0.00024885
1017.339	0.00146942
1017.497	0.00049948
1017.655	0.00023891
1017.813	-0.00102181
1017.971	-0.00243991
1018.129	-0.00134071
1018.286	-0.00256278
1018.444	-0.00308813
1018.602	-0.00405028
1018.76	-0.00438419
1018.918	-0.00208403
1019.075	-0.00001398
1019.233	0.00080956
1019.391	-0.00141111
1019.549	0.00003182
1019.706	-0.00070658
1019.864	0.00020482
1020.022	-0.00003455
1020.179	-0.00265991
1020.337	-0.00303115
1020.494	0.00014235
1020.652	-0.00148219
1020.809	0.00152122
1020.967	0.00342111
1021.124	0.00209943
1021.282	0.00283734
1021.439	0.00212499
1021.597	0.00291452
1021.754	0.0047597
1021.911	0.00261859
1022.069	0.00156968
1022.226	0.0006448
1022.384	0.00206167
1022.541	0.0036691
1022.698	0.00091134
1022.855	-0.0014974
1023.013	-0.001782
1023.17	-0.00338553
1023.327	-0.00067976
1023.484	0.0004679
1023.641	-0.00101488
1023.798	0.00091201
1023.956	0.00262856
1024.113	0.00444291
1024.27	0.00762627
1024.427	0.00630741
1024.584	0.00488867
1024.741	0.00205953
1024.898	0.00067631
1025.055	0.00033795
1025.212	-0.00046242
1025.369	-0.00230267
1025.525	0.00149182
1025.682	0.0018474
1025.839	0.00996027
1025.996	0.01426019
1026.153	0.01282867
1026.31	0.01539609
1026.466	0.01496251
1026.623	0.01162116
1026.78	0.01103214
1026.937	0.00351707
1027.093	0.00005707
1027.25	0.00130922
1027.407	0.00020013
1027.563	-0.0000226
1027.72	-0.00211812
1027.876	-0.00192486
1028.033	-0.00041666
1028.19	-0.00055095
1028.346	0.001802
1028.503	-0.00085566
1028.659	-0.00245947
1028.816	0.00229829
1028.972	0.00270545
1029.128	0.00379098
1029.285	0.00225168
1029.441	0.00026789
1029.598	0.00215083
1029.754	0.00512557
1029.91	0.00038129
1030.067	-0.00050256
1030.223	-0.00052737
1030.379	-0.00093754
1030.535	-0.00070718
1030.691	-0.00209798
1030.848	-0.00506853
1031.004	-0.00373234
1031.16	-0.00418399
1031.316	-0.00261618
1031.472	-0.00005109
1031.628	0.00207087
1031.784	0.00500858
1031.94	0.00871957
1032.096	0.00976178
1032.252	0.00502632
1032.408	-0.00076093
1032.564	0.00236744
1032.72	-0.00088653
1032.876	-0.00292301
1033.032	0.00111425
1033.188	0.00229433
1033.344	0.01380057
1033.5	0.02404273
1033.655	0.02181153
1033.811	0.0269378
1033.967	0.03569431
