Data from 0_1_mm_pl_0pc_Absorbance__0__15-44-51-125.txt Node

Date: Fri Feb 24 15:44:51 CET 2023
User: Ange
Spectrometer: FLMT08341
Trigger mode: 0
Integration Time (sec): 1.000000E-2
Scans to average: 400
Electric dark correction enabled: true
Nonlinearity correction enabled: false
Boxcar width: 3
XAxis mode: Wavelengths
Number of Pixels in Spectrum: 3648
>>>>>Begin Spectral Data<<<<<
345.271	-0.01799675
345.487	-0.02077937
345.704	-0.01570606
345.921	-0.01963225
346.137	-0.03149224
346.354	-0.02416735
346.571	-0.05122644
346.787	-0.05730025
347.004	0.16198288
347.22	0.08822174
347.437	0.05038264
347.653	-0.10812134
347.87	2.22353693
348.086	-0
348.303	0.048579
348.519	0.05934974
348.736	0.04409799
348.952	0.0408065
349.169	0.03831219
349.385	0.03794223
349.601	0.03639591
349.818	0.03773445
350.034	0.03621423
350.251	0.03536269
350.467	0.03436267
350.683	0.0337926
350.9	0.0349053
351.116	0.03437876
351.332	0.03167972
351.549	0.03232214
351.765	0.03153772
351.981	0.0325675
352.197	0.03296106
352.414	0.03389091
352.63	0.03344042
352.846	0.03367728
353.062	0.0326465
353.278	0.03340275
353.495	0.03241307
353.711	0.03161094
353.927	0.0308864
354.143	0.03137485
354.359	0.03193428
354.575	0.03135034
354.792	0.03030577
355.008	0.03030365
355.224	0.03075513
355.44	0.02984898
355.656	0.02998151
355.872	0.02959727
356.088	0.03113521
356.304	0.03121476
356.52	0.02947747
356.736	0.02899902
356.952	0.02827954
357.168	0.02768738
357.384	0.02851562
357.6	0.02644833
357.816	0.02666739
358.032	0.02735941
358.248	0.02757113
358.464	0.0276074
358.679	0.02755793
358.895	0.02584271
359.111	0.02524442
359.327	0.02430953
359.543	0.0235987
359.759	0.02245063
359.974	0.02239776
360.19	0.0210481
360.406	0.0210171
360.622	0.02243983
360.838	0.02236533
361.053	0.02332498
361.269	0.02344666
361.485	0.02227451
361.701	0.02237115
361.916	0.02258989
362.132	0.02124008
362.348	0.02133274
362.563	0.02028778
362.779	0.01988844
362.995	0.01979159
363.21	0.01978343
363.426	0.01970173
363.641	0.01938004
363.857	0.01837424
364.073	0.01748778
364.288	0.01715936
364.504	0.01778742
364.719	0.01777772
364.935	0.01696419
365.15	0.01676987
365.366	0.01606818
365.581	0.01683245
365.797	0.01669219
366.012	0.01556738
366.228	0.01502684
366.443	0.01450171
366.658	0.01432153
366.874	0.01451014
367.089	0.01444823
367.305	0.01436089
367.52	0.01434586
367.735	0.01329172
367.951	0.0135991
368.166	0.01332644
368.381	0.01386096
368.597	0.01235729
368.812	0.01240362
369.027	0.01279988
369.243	0.01432983
369.458	0.01391815
369.673	0.01418063
369.888	0.01431335
370.104	0.01506411
370.319	0.01407278
370.534	0.01361787
370.749	0.0125152
370.964	0.01205205
371.179	0.01206538
371.395	0.01112572
371.61	0.01113703
371.825	0.01184001
372.04	0.01213712
372.255	0.01225354
372.47	0.01279247
372.685	0.01277837
372.9	0.01334084
373.115	0.01387511
373.33	0.01356267
373.545	0.013688
373.76	0.01291647
373.975	0.01225659
374.19	0.01176254
374.405	0.01142058
374.62	0.01088829
374.835	0.01050991
375.05	0.00943582
375.265	0.00996238
375.48	0.01085481
375.695	0.0108809
375.91	0.01061802
376.125	0.01079926
376.339	0.01060428
376.554	0.01103862
376.769	0.01091492
376.984	0.0098858
377.199	0.00979172
377.414	0.00909732
377.628	0.00856603
377.843	0.00890518
378.058	0.00826123
378.273	0.00842983
378.487	0.00941334
378.702	0.00948436
378.917	0.00997304
379.131	0.00981188
379.346	0.00964576
379.561	0.00989063
379.775	0.01000922
379.99	0.00864058
380.205	0.00828808
380.419	0.00798341
380.634	0.00781745
380.848	0.00722487
381.063	0.0073684
381.278	0.00710534
381.492	0.00760128
381.707	0.00732152
381.921	0.00729881
382.136	0.0072943
382.35	0.00793445
382.565	0.00735907
382.779	0.00764316
382.994	0.00737004
383.208	0.00768196
383.422	0.00773105
383.637	0.00821109
383.851	0.00795373
384.066	0.00805956
384.28	0.00792426
384.494	0.00814841
384.709	0.00836734
384.923	0.00789795
385.137	0.00748827
385.352	0.0074396
385.566	0.00748415
385.78	0.00713217
385.995	0.00676071
386.209	0.00619733
386.423	0.00633891
386.637	0.00652137
386.852	0.00616026
387.066	0.00608174
387.28	0.00608962
387.494	0.00602187
387.708	0.00572592
387.923	0.0056226
388.137	0.00536786
388.351	0.00545435
388.565	0.00551034
388.779	0.00513584
388.993	0.00532068
389.207	0.00566444
389.421	0.00535991
389.635	0.00497505
389.85	0.00519376
390.064	0.00506318
390.278	0.00525185
390.492	0.00456588
390.706	0.00452602
390.92	0.00479359
391.134	0.00457805
391.348	0.00442053
391.561	0.00416367
391.775	0.00399649
391.989	0.00439173
392.203	0.00442507
392.417	0.00436158
392.631	0.0047244
392.845	0.00462093
393.059	0.00461796
393.273	0.00419604
393.486	0.00449164
393.7	0.00415232
393.914	0.00418109
394.128	0.00396047
394.342	0.00381927
394.555	0.00409747
394.769	0.00446876
394.983	0.00433555
395.197	0.00426626
395.41	0.00389861
395.624	0.00394017
395.838	0.00357043
396.051	0.00331314
396.265	0.00325392
396.479	0.00283572
396.692	0.00300764
396.906	0.00307723
397.12	0.00301697
397.333	0.00332578
397.547	0.0034636
397.76	0.00353318
397.974	0.00369051
398.187	0.00339172
398.401	0.00340771
398.614	0.00342039
398.828	0.00326859
399.041	0.00307769
399.255	0.00308134
399.468	0.00288981
399.682	0.00302515
399.895	0.00353424
400.109	0.00376639
400.322	0.0039849
400.536	0.0039129
400.749	0.00379455
400.962	0.0038707
401.176	0.00380733
401.389	0.00354237
401.602	0.00323745
401.816	0.00312919
402.029	0.00305677
402.242	0.00305238
402.456	0.00325839
402.669	0.00357433
402.882	0.00346938
403.095	0.00369324
403.309	0.00361862
403.522	0.00354669
403.735	0.00354759
403.948	0.00339698
404.161	0.00315968
404.375	0.00288192
404.588	0.0024838
404.801	0.00263167
405.014	0.00259593
405.227	0.00259284
405.44	0.0028029
405.653	0.0028695
405.866	0.00302705
406.079	0.003153
406.293	0.00278709
406.506	0.00301126
406.719	0.00290097
406.932	0.00242938
407.145	0.00207183
407.358	0.00215661
407.571	0.00195337
407.784	0.00204422
407.996	0.00194953
408.209	0.00189509
408.422	0.00213624
408.635	0.00205997
408.848	0.00184261
409.061	0.00192329
409.274	0.00179705
409.487	0.00160459
409.7	0.00167719
409.912	0.00175477
410.125	0.00192061
410.338	0.00202055
410.551	0.00210952
410.764	0.00219664
410.976	0.00228642
411.189	0.00222195
411.402	0.00181544
411.615	0.00182512
411.827	0.00169173
412.04	0.00153826
412.253	0.00150991
412.465	0.00136197
412.678	0.00115392
412.891	0.00126214
413.103	0.00129429
413.316	0.00130438
413.529	0.00135277
413.741	0.00136124
413.954	0.00149754
414.166	0.00159319
414.379	0.00155032
414.591	0.0014337
414.804	0.00158386
415.016	0.00150171
415.229	0.00152253
415.441	0.00136594
415.654	0.00154977
415.866	0.00172362
416.079	0.00163505
416.291	0.00162424
416.504	0.00159395
416.716	0.00166199
416.928	0.00176994
417.141	0.00155172
417.353	0.00148538
417.566	0.00168717
417.778	0.00139663
417.99	0.00151022
418.203	0.00144479
418.415	0.00142116
418.627	0.0013871
418.839	0.0013768
419.052	0.00107207
419.264	0.00116165
419.476	0.00107166
419.688	0.00083106
419.901	0.00085182
420.113	0.00099085
420.325	0.00093624
420.537	0.00104332
420.749	0.00120947
420.961	0.00119081
421.174	0.00130051
421.386	0.00122512
421.598	0.00102506
421.81	0.00096357
422.022	0.00092693
422.234	0.00073832
422.446	0.00063345
422.658	0.00066039
422.87	0.00068471
423.082	0.0005759
423.294	0.00073945
423.506	0.00096577
423.718	0.00095419
423.93	0.00094428
424.142	0.00080183
424.354	0.0008639
424.566	0.00094711
424.778	0.00070614
424.99	0.00056414
425.202	0.00058557
425.414	0.0007579
425.625	0.00066003
425.837	0.0005305
426.049	0.00062142
426.261	0.00069037
426.473	0.00054398
426.684	0.00055975
426.896	0.00048754
427.108	0.00061554
427.32	0.00041067
427.531	0.00046732
427.743	0.00053552
427.955	0.00067804
428.167	0.00084484
428.378	0.00090086
428.59	0.000891
428.802	0.00093099
429.013	0.00086129
429.225	0.00076293
429.436	0.00073235
429.648	0.00052088
429.86	0.00043302
430.071	0.00066454
430.283	0.00099292
430.494	0.00102881
430.706	0.00105536
430.917	0.00107892
431.129	0.00114447
431.34	0.00125622
431.552	0.00096576
431.763	0.00073718
431.975	0.00057204
432.186	0.0005254
432.398	0.00051662
432.609	0.00044804
432.821	0.00042786
433.032	0.00036372
433.243	0.00042286
433.455	0.00056572
433.666	0.00058706
433.877	0.00046924
434.089	0.00037772
434.3	0.00030987
434.511	0.00043284
434.723	0.00044658
434.934	0.00040254
435.145	0.00024573
435.356	0.0002759
435.568	0.0002077
435.779	0.00021471
435.99	0.00016379
436.201	0.00000043
436.412	-0.0000503
436.624	0.00004302
436.835	-0.0000148
437.046	0.00004893
437.257	0.00014237
437.468	0.000225
437.679	0.00026198
437.89	0.00036873
438.101	0.00044348
438.312	0.00061593
438.523	0.00073896
438.734	0.00063081
438.945	0.00054328
439.156	0.0006707
439.367	0.0006281
439.578	0.00055317
439.789	0.00036122
440	0.00040137
440.211	0.0003166
440.422	0.00041307
440.633	0.00035563
440.844	0.00040473
441.055	0.00025963
441.266	0.00046086
441.477	0.00038601
441.687	0.00039358
441.898	0.00027031
442.109	0.00028955
442.32	0.00012741
442.531	0.00019708
442.741	0.00011503
442.952	0.00015648
443.163	0.00025811
443.374	0.00030296
443.584	0.00041285
443.795	0.00046364
444.006	0.00052565
444.216	0.00054975
444.427	0.00062304
444.638	0.00063152
444.848	0.00068192
445.059	0.00057219
445.27	0.00059304
445.48	0.00069548
445.691	0.00061282
445.901	0.0005295
446.112	0.00048528
446.323	0.00036907
446.533	0.00036421
446.744	0.00037367
446.954	0.00018002
447.165	0.00026827
447.375	0.00008845
447.586	0.00011167
447.796	0.0002382
448.006	0.00020765
448.217	0.00016024
448.427	0.00031663
448.638	0.00024686
448.848	0.00032621
449.058	0.00014817
449.269	0.00014084
449.479	0.00016146
449.689	0.00018495
449.9	0.00026596
450.11	0.00020823
450.32	0.00017387
450.531	0.00018701
450.741	0.00015714
450.951	0.00003124
451.161	0.00006557
451.372	-0.00003087
451.582	-0.00004406
451.792	0.00008786
452.002	0.0002118
452.212	0.00017321
452.422	0.0001688
452.633	0.0001577
452.843	0.00021062
453.053	0.00027884
453.263	0.00018574
453.473	0.00016629
453.683	0.00021103
453.893	0.0003282
454.103	0.00020573
454.313	0.0002196
454.523	0.00020093
454.733	0.00022817
454.943	0.00020375
455.153	0.00010434
455.363	0.00007838
455.573	0.00007053
455.783	0.00009843
455.993	0.00009516
456.203	0.00007482
456.413	0.00012461
456.623	0.0002352
456.833	0.00036292
457.042	0.00038467
457.252	0.0003584
457.462	0.00034274
457.672	0.0004747
457.882	0.00040222
458.091	0.00030938
458.301	0.00023565
458.511	0.00038626
458.721	0.00040155
458.931	0.00034162
459.14	0.00034668
459.35	0.00030172
459.56	0.00045849
459.769	0.00048762
459.979	0.00050486
460.189	0.00042534
460.398	0.00060929
460.608	0.00043293
460.817	0.00050861
461.027	0.00041613
461.237	0.00039366
461.446	0.00031369
461.656	0.0003281
461.865	0.00027482
462.075	0.0003082
462.284	0.00038982
462.494	0.00035191
462.703	0.00031599
462.913	0.00029132
463.122	0.00031795
463.332	0.00044234
463.541	0.00054114
463.751	0.00041619
463.96	0.00048857
464.169	0.00048901
464.379	0.00059271
464.588	0.00062014
464.797	0.00057445
465.007	0.00057846
465.216	0.0006814
465.425	0.00065598
465.635	0.00068335
465.844	0.00062493
466.053	0.00062747
466.263	0.000569
466.472	0.00059544
466.681	0.00058901
466.89	0.00059427
467.099	0.0006372
467.309	0.00068666
467.518	0.00073921
467.727	0.00074593
467.936	0.00066507
468.145	0.00069661
468.354	0.00085148
468.563	0.00083548
468.772	0.0008302
468.982	0.00084126
469.191	0.00083897
469.4	0.00090719
469.609	0.00092143
469.818	0.00083516
470.027	0.00083198
470.236	0.00079255
470.445	0.00078557
470.654	0.00079062
470.863	0.00062506
471.072	0.00061708
471.28	0.00071423
471.489	0.00071855
471.698	0.00075897
471.907	0.00069751
472.116	0.00074221
472.325	0.0008574
472.534	0.00087611
472.743	0.00071763
472.951	0.00073117
473.16	0.00074564
473.369	0.00085086
473.578	0.00080968
473.786	0.00085326
473.995	0.00086029
474.204	0.0009413
474.413	0.00097241
474.621	0.00100062
474.83	0.00093517
475.039	0.00097157
475.247	0.00097513
475.456	0.00096104
475.665	0.00091185
475.873	0.00092988
476.082	0.00094008
476.291	0.00106031
476.499	0.00112181
476.708	0.00115118
476.916	0.00116601
477.125	0.00130262
477.333	0.0013274
477.542	0.00135296
477.75	0.00128955
477.959	0.00125597
478.167	0.00123733
478.376	0.00132229
478.584	0.00136098
478.793	0.00137461
479.001	0.00135973
479.209	0.00139224
479.418	0.00139859
479.626	0.0014583
479.834	0.00146679
480.043	0.00144263
480.251	0.00147853
480.459	0.00152789
480.668	0.00155566
480.876	0.00163287
481.084	0.0016041
481.293	0.0015418
481.501	0.00152005
481.709	0.00157256
481.917	0.00153009
482.125	0.00150568
482.334	0.00149754
482.542	0.00149635
482.75	0.00154471
482.958	0.00163428
483.166	0.00158153
483.374	0.00167359
483.583	0.00173756
483.791	0.00176492
483.999	0.00184664
484.207	0.00182314
484.415	0.00178355
484.623	0.00184268
484.831	0.00181334
485.039	0.00179928
485.247	0.00182196
485.455	0.00189384
485.663	0.00197314
485.871	0.00197093
486.079	0.00190821
486.287	0.00199235
486.495	0.00202203
486.702	0.00204371
486.91	0.0020068
487.118	0.00205863
487.326	0.00208785
487.534	0.00216366
487.742	0.00217103
487.95	0.00220642
488.157	0.00226147
488.365	0.00234215
488.573	0.00233968
488.781	0.00236793
488.988	0.0023705
489.196	0.00238346
489.404	0.00237096
489.612	0.00235269
489.819	0.00235147
490.027	0.00241708
490.235	0.00244836
490.442	0.00254158
490.65	0.00261494
490.857	0.00269931
491.065	0.00274655
491.273	0.00274146
491.48	0.00269652
491.688	0.00278999
491.895	0.00280448
492.103	0.00278665
492.31	0.00277527
492.518	0.0028189
492.725	0.00284405
492.933	0.00291976
493.14	0.00288407
493.348	0.00289569
493.555	0.00295681
493.763	0.00296894
493.97	0.00297091
494.177	0.00304844
494.385	0.00305302
494.592	0.00310856
494.8	0.00312347
495.007	0.00306895
495.214	0.0031474
495.422	0.00319702
495.629	0.00321093
495.836	0.00329181
496.043	0.0032952
496.251	0.00333737
496.458	0.00346411
496.665	0.0034399
496.872	0.00348462
497.08	0.00353292
497.287	0.00355116
497.494	0.00365376
497.701	0.00375427
497.908	0.00377549
498.115	0.00388329
498.322	0.00387969
498.53	0.00388008
498.737	0.00391945
498.944	0.0038805
499.151	0.00389672
499.358	0.00392606
499.565	0.00391502
499.772	0.00397565
499.979	0.00400738
500.186	0.00410308
500.393	0.00420208
500.6	0.00422956
500.807	0.00425879
501.014	0.00437604
501.221	0.00443087
501.427	0.00448555
501.634	0.00449535
501.841	0.00447641
502.048	0.00457862
502.255	0.00460929
502.462	0.00463906
502.669	0.00469532
502.875	0.00474681
503.082	0.00475378
503.289	0.00486502
503.496	0.00488111
503.702	0.00494736
503.909	0.00501325
504.116	0.00508421
504.323	0.00515062
504.529	0.00523387
504.736	0.00526492
504.943	0.00532183
505.149	0.00538704
505.356	0.00542526
505.563	0.00548344
505.769	0.00553942
505.976	0.00563856
506.182	0.00570535
506.389	0.00569371
506.595	0.00576136
506.802	0.0057795
507.008	0.00577704
507.215	0.00586387
507.421	0.00583873
507.628	0.00587662
507.834	0.00594759
508.041	0.00597177
508.247	0.00598552
508.454	0.00602019
508.66	0.00602171
508.866	0.00608888
509.073	0.00617435
509.279	0.00621103
509.486	0.00630293
509.692	0.00636147
509.898	0.00643189
510.105	0.00652271
510.311	0.00656384
510.517	0.00658866
510.723	0.00666078
510.93	0.00673708
511.136	0.00684654
511.342	0.00692213
511.548	0.00700516
511.754	0.00708228
511.961	0.00713671
512.167	0.0072233
512.373	0.00726777
512.579	0.00727558
512.785	0.00732878
512.991	0.00735443
513.197	0.00738074
513.404	0.00743804
513.61	0.00749109
513.816	0.00756154
514.022	0.00768587
514.228	0.00777127
514.434	0.00783389
514.64	0.00793569
514.846	0.0080725
515.052	0.00817549
515.258	0.00822666
515.464	0.00829526
515.669	0.00837461
515.875	0.00845902
516.081	0.00853155
516.287	0.0085491
516.493	0.00860247
516.699	0.0086396
516.905	0.00869813
517.111	0.00877545
517.316	0.00884865
517.522	0.00887793
517.728	0.00894816
517.934	0.00902772
518.139	0.00909899
518.345	0.00919153
518.551	0.0092806
518.757	0.00935681
518.962	0.00947841
519.168	0.00956116
519.374	0.00962139
519.579	0.00969825
519.785	0.00975664
519.991	0.00979292
520.196	0.0098669
520.402	0.00990331
520.607	0.00998175
520.813	0.01004634
521.018	0.0101604
521.224	0.01024188
521.429	0.01032931
521.635	0.01038232
521.84	0.01052301
522.046	0.01059559
522.251	0.0106741
522.457	0.01073946
522.662	0.01083366
522.868	0.01092532
523.073	0.01102492
523.279	0.01106443
523.484	0.01117578
523.689	0.0112844
523.895	0.01135948
524.1	0.01140929
524.305	0.01145779
524.511	0.01155126
524.716	0.01168786
524.921	0.01177875
525.126	0.01184749
525.332	0.01196265
525.537	0.01209986
525.742	0.0122345
525.947	0.01230755
526.153	0.01237215
526.358	0.01242216
526.563	0.01249358
526.768	0.01257889
526.973	0.01268928
527.178	0.0127757
527.383	0.01287466
527.588	0.01295002
527.794	0.01306907
527.999	0.01316062
528.204	0.01329449
528.409	0.01338224
528.614	0.01345659
528.819	0.01357565
529.024	0.01365027
529.229	0.01377174
529.434	0.01390042
529.639	0.01394747
529.843	0.0140554
530.048	0.01419684
530.253	0.01429252
530.458	0.01441131
530.663	0.01449542
530.868	0.01463742
531.073	0.01479021
531.278	0.01487761
531.482	0.01498295
531.687	0.01507127
531.892	0.01515754
532.097	0.01526465
532.302	0.01538224
532.506	0.01548128
532.711	0.0156038
532.916	0.0157022
533.12	0.01586884
533.325	0.01609741
533.53	0.01621279
533.734	0.01631394
533.939	0.01647699
534.144	0.0165579
534.348	0.01667481
534.553	0.01681658
534.757	0.01698546
534.962	0.01709812
535.167	0.01722062
535.371	0.01727064
535.576	0.01742241
535.78	0.01759222
535.985	0.01769733
536.189	0.01773407
536.394	0.01794467
536.598	0.0180892
536.803	0.01828186
537.007	0.01843232
537.211	0.01854134
537.416	0.01868131
537.62	0.01884402
537.825	0.01890663
538.029	0.01906295
538.233	0.01917512
538.438	0.0193099
538.642	0.01946935
538.846	0.01959844
539.05	0.01977159
539.255	0.01990911
539.459	0.02000753
539.663	0.02012061
539.867	0.02026054
540.072	0.02037354
540.276	0.02053339
540.48	0.02066627
540.684	0.02085266
540.888	0.02102711
541.092	0.02121476
541.297	0.02133969
541.501	0.02150012
541.705	0.02163951
541.909	0.02173524
542.113	0.02183617
542.317	0.02197551
542.521	0.02214376
542.725	0.02232758
542.929	0.0224823
543.133	0.02263323
543.337	0.02276109
543.541	0.02292422
543.745	0.02308261
543.949	0.0232011
544.153	0.02337669
544.357	0.02356842
544.56	0.02373352
544.764	0.02393101
544.968	0.02413454
545.172	0.02429848
545.376	0.02450378
545.58	0.02465202
545.783	0.02477747
545.987	0.02496358
546.191	0.02514213
546.395	0.02531444
546.598	0.02546469
546.802	0.02557054
547.006	0.02576909
547.21	0.02592332
547.413	0.02608291
547.617	0.02625161
547.821	0.02640128
548.024	0.02662872
548.228	0.026848
548.431	0.02701031
548.635	0.02726211
548.839	0.02745443
549.042	0.02763736
549.246	0.02784711
549.449	0.02799824
549.653	0.0282219
549.856	0.02840881
550.06	0.02855671
550.263	0.02877262
550.467	0.02899891
550.67	0.0291917
550.874	0.02938906
551.077	0.0295493
551.28	0.02975035
551.484	0.02998869
551.687	0.03015326
551.891	0.03036688
552.094	0.03053667
552.297	0.03079985
552.501	0.03101865
552.704	0.03122079
552.907	0.03135966
553.11	0.03155383
553.314	0.03171952
553.517	0.03194616
553.72	0.03207012
553.923	0.03226799
554.127	0.03243269
554.33	0.03264586
554.533	0.0328542
554.736	0.03305672
554.939	0.03329184
555.142	0.03358759
555.345	0.03382041
555.549	0.03406443
555.752	0.03428694
555.955	0.0345069
556.158	0.03471861
556.361	0.03491993
556.564	0.0350683
556.767	0.03526679
556.97	0.03554699
557.173	0.03578116
557.376	0.035988
557.579	0.03620933
557.782	0.03646025
557.984	0.03671039
558.187	0.03695645
558.39	0.03716976
558.593	0.03741569
558.796	0.03765439
558.999	0.03790013
559.202	0.03811483
559.404	0.03830579
559.607	0.0385755
559.81	0.03875502
560.013	0.0389799
560.216	0.03924251
560.418	0.03951872
560.621	0.03973727
560.824	0.04000067
561.026	0.04022641
561.229	0.04049963
561.432	0.04073587
561.634	0.04096411
561.837	0.04120323
562.04	0.04148823
562.242	0.04176175
562.445	0.04195746
562.647	0.04222358
562.85	0.04247433
563.053	0.04272714
563.255	0.04296243
563.458	0.04322422
563.66	0.04348118
563.863	0.04374427
564.065	0.04398503
564.268	0.04425683
564.47	0.04454133
564.672	0.04478213
564.875	0.0450096
565.077	0.04526275
565.28	0.04555529
565.482	0.04581133
565.684	0.04603171
565.887	0.04626192
566.089	0.04651239
566.291	0.04678524
566.494	0.04705026
566.696	0.04730924
566.898	0.04758791
567.1	0.04786686
567.303	0.04816102
567.505	0.04842616
567.707	0.04868448
567.909	0.04893431
568.111	0.04915099
568.314	0.04940914
568.516	0.04974226
568.718	0.05000721
568.92	0.050306
569.122	0.05056324
569.324	0.05088892
569.526	0.05118014
569.728	0.05145351
569.93	0.05168739
570.132	0.05194023
570.334	0.05220606
570.536	0.05248826
570.738	0.05271953
570.94	0.052981
571.142	0.05329029
571.344	0.05358829
571.546	0.05384439
571.748	0.05416456
571.95	0.05441602
572.152	0.05468187
572.354	0.05501498
572.555	0.05525516
572.757	0.05552265
572.959	0.05583732
573.161	0.05610319
573.363	0.05639155
573.564	0.05673985
573.766	0.05702358
573.968	0.05736098
574.17	0.05768025
574.371	0.05796184
574.573	0.05821207
574.775	0.0585376
574.976	0.05877513
575.178	0.05907328
575.38	0.05932086
575.581	0.05957661
575.783	0.05987683
575.985	0.06022865
576.186	0.06050619
576.388	0.06081646
576.589	0.06108436
576.791	0.06138072
576.992	0.061726
577.194	0.06202386
577.395	0.06230418
577.597	0.06262425
577.798	0.06295693
578	0.06327236
578.201	0.06367851
578.402	0.06394778
578.604	0.06422636
578.805	0.0645442
579.007	0.06488316
579.208	0.06518916
579.409	0.0654864
579.611	0.06575228
579.812	0.06605592
580.013	0.06642139
580.215	0.06670469
580.416	0.06700893
580.617	0.06730346
580.818	0.06763026
581.019	0.0679298
581.221	0.06827446
581.422	0.06859522
581.623	0.06895144
581.824	0.06919516
582.025	0.06950221
582.226	0.06980608
582.428	0.07011813
582.629	0.07039136
582.83	0.07073206
583.031	0.07100099
583.232	0.07139635
583.433	0.07174862
583.634	0.07206406
583.835	0.07236655
584.036	0.07271232
584.237	0.0729961
584.438	0.07336461
584.639	0.07369936
584.84	0.07405383
585.041	0.07441124
585.242	0.07470062
585.442	0.07502743
585.643	0.07538614
585.844	0.07568841
586.045	0.07598528
586.246	0.07622557
586.447	0.07651857
586.647	0.07687001
586.848	0.0772018
587.049	0.07749251
587.25	0.07781694
587.45	0.07812382
587.651	0.07849182
587.852	0.07882688
588.053	0.07923323
588.253	0.07957266
588.454	0.07989964
588.655	0.08020384
588.855	0.08055815
589.056	0.08087746
589.256	0.08123809
589.457	0.08148992
589.658	0.0818133
589.858	0.08212285
590.059	0.08250664
590.259	0.08286251
590.46	0.0832304
590.66	0.08351023
590.861	0.0838894
591.061	0.08420164
591.262	0.08457032
591.462	0.08491207
591.662	0.08518874
591.863	0.08547481
592.063	0.08583523
592.264	0.08616565
592.464	0.08650742
592.664	0.08683716
592.865	0.08721229
593.065	0.08750058
593.265	0.087848
593.465	0.08818987
593.666	0.08846652
593.866	0.08878309
594.066	0.08912147
594.266	0.08939401
594.467	0.08975816
594.667	0.09004239
594.867	0.09040897
595.067	0.09073504
595.267	0.09104139
595.467	0.09133809
595.668	0.09166248
595.868	0.0920013
596.068	0.09234814
596.268	0.0926014
596.468	0.09298261
596.668	0.09333209
596.868	0.09366142
597.068	0.09396251
597.268	0.09429995
597.468	0.0946221
597.668	0.0949727
597.868	0.09526284
598.068	0.09563761
598.268	0.09598163
598.467	0.09637241
598.667	0.09664794
598.867	0.09698137
599.067	0.09730022
599.267	0.09760329
599.467	0.09785059
599.667	0.09813095
599.866	0.09840329
600.066	0.09872981
600.266	0.09906627
600.466	0.09938539
600.665	0.09969955
600.865	0.1000498
601.065	0.10038627
601.264	0.10064898
601.464	0.10093957
601.664	0.10127449
601.863	0.10157365
602.063	0.10190571
602.263	0.10212216
602.462	0.10245408
602.662	0.10281315
602.861	0.10318803
603.061	0.10343943
603.26	0.10378367
603.46	0.10406353
603.659	0.10449234
603.859	0.10477071
604.058	0.10498896
604.258	0.1053587
604.457	0.10573307
604.657	0.10593494
604.856	0.10618491
605.056	0.10643576
605.255	0.10674948
605.454	0.10711568
605.654	0.10728822
605.853	0.10752673
606.052	0.10785548
606.252	0.10821766
606.451	0.10853774
606.65	0.10882562
606.849	0.10905844
607.049	0.10939886
607.248	0.10970783
607.447	0.11001498
607.646	0.11028995
607.845	0.11055541
608.045	0.11074743
608.244	0.11119292
608.443	0.11145599
608.642	0.11178704
608.841	0.11207309
609.04	0.11233853
609.239	0.11265721
609.438	0.11295832
609.637	0.11321531
609.836	0.11356004
610.035	0.11380712
610.234	0.11415159
610.433	0.11447332
610.632	0.11474561
610.831	0.11520626
611.03	0.11543242
611.229	0.11576206
611.428	0.11608107
611.627	0.11635124
611.826	0.11669576
612.025	0.11708921
612.224	0.11728086
612.422	0.11757648
612.621	0.11781329
612.82	0.11808846
613.019	0.11833979
613.218	0.11859418
613.416	0.11877274
613.615	0.1191243
613.814	0.11942784
614.012	0.11972648
614.211	0.11993081
614.41	0.12030583
614.608	0.12063523
614.807	0.12094414
615.006	0.1212638
615.204	0.1215663
615.403	0.12187616
615.602	0.12227781
615.8	0.1225928
615.999	0.12279463
616.197	0.1230924
616.396	0.12338992
616.594	0.12362592
616.793	0.12391786
616.991	0.12412577
617.19	0.12427009
617.388	0.12465097
617.586	0.12494454
617.785	0.12513505
617.983	0.12541363
618.182	0.12564787
618.38	0.12591691
618.578	0.12625021
618.777	0.12649597
618.975	0.1267612
619.173	0.12711753
619.372	0.1274384
619.57	0.12771052
619.768	0.12802545
619.966	0.12835842
620.165	0.12857472
620.363	0.12890074
620.561	0.12901233
620.759	0.1292588
620.957	0.12956494
621.155	0.12989775
621.354	0.13009161
621.552	0.130445
621.75	0.13062922
621.948	0.1310427
622.146	0.13135679
622.344	0.13158712
622.542	0.13181572
622.74	0.13212251
622.938	0.13229293
623.136	0.13262541
623.334	0.13289458
623.532	0.13302589
623.73	0.13326897
623.928	0.13358646
624.126	0.13387367
624.324	0.13423618
624.522	0.13439569
624.719	0.13463373
624.917	0.13502261
625.115	0.13525027
625.313	0.1355102
625.511	0.13578638
625.708	0.1358618
625.906	0.13612645
626.104	0.13636468
626.302	0.13669004
626.499	0.1369976
626.697	0.137223
626.895	0.13736754
627.093	0.13770794
627.29	0.1380791
627.488	0.13835266
627.686	0.13859092
627.883	0.13880023
628.081	0.13895756
628.278	0.13940478
628.476	0.13966018
628.673	0.13986226
628.871	0.14008992
629.068	0.14031425
629.266	0.14067744
629.463	0.14093635
629.661	0.14110785
629.858	0.14135877
630.056	0.14156835
630.253	0.1417831
630.451	0.14202766
630.648	0.14221849
630.845	0.14249805
631.043	0.14268854
631.24	0.1429596
631.438	0.14324765
631.635	0.1435414
631.832	0.14367494
632.029	0.14391855
632.227	0.14416528
632.424	0.1444335
632.621	0.14466748
632.818	0.1448443
633.016	0.1450657
633.213	0.1453076
633.41	0.14566322
633.607	0.14590696
633.804	0.14616015
634.001	0.14635568
634.199	0.14666673
634.396	0.14690094
634.593	0.14711405
634.79	0.14727193
634.987	0.14752261
635.184	0.14774262
635.381	0.14806194
635.578	0.14832562
635.775	0.14852564
635.972	0.14883067
636.169	0.14903271
636.366	0.14920072
636.563	0.14940716
636.76	0.14954145
636.957	0.14976617
637.153	0.14993604
637.35	0.15017103
637.547	0.15040117
637.744	0.1506391
637.941	0.15087721
638.138	0.15114786
638.334	0.151295
638.531	0.15163266
638.728	0.15183766
638.925	0.15220382
639.121	0.15244868
639.318	0.15270503
639.515	0.15291254
639.711	0.1532391
639.908	0.15337235
640.105	0.15358346
640.301	0.15367419
640.498	0.15388118
640.695	0.15409904
640.891	0.1543275
641.088	0.15447648
641.284	0.15477526
641.481	0.15498277
641.677	0.15520079
641.874	0.15536576
642.07	0.15562315
642.267	0.15593221
642.463	0.15615162
642.66	0.15637838
642.856	0.1565825
643.053	0.15673961
643.249	0.15704064
643.445	0.15722267
643.642	0.15738354
643.838	0.15764336
644.034	0.15787166
644.231	0.1581528
644.427	0.15845439
644.623	0.15868548
644.82	0.15888695
645.016	0.15909288
645.212	0.15922706
645.408	0.15942196
645.604	0.15970327
645.801	0.15993148
645.997	0.16015008
646.193	0.1603335
646.389	0.16062478
646.585	0.16090909
646.781	0.16119713
646.977	0.16135907
647.173	0.16153346
647.37	0.16168306
647.566	0.16197346
647.762	0.16214332
647.958	0.1623862
648.154	0.16251548
648.35	0.16275757
648.546	0.16296152
648.742	0.16331446
648.937	0.16337555
649.133	0.16363167
649.329	0.16388425
649.525	0.16410195
649.721	0.16430512
649.917	0.16463148
650.113	0.16476692
650.309	0.16519238
650.504	0.16533994
650.7	0.1654482
650.896	0.16576546
651.092	0.16599558
651.287	0.16615268
651.483	0.16644092
651.679	0.16653682
651.875	0.16682485
652.07	0.16706382
652.266	0.16723293
652.462	0.1674485
652.657	0.16766453
652.853	0.1678003
653.048	0.16804142
653.244	0.16813795
653.44	0.16836872
653.635	0.16851111
653.831	0.16874295
654.026	0.16899354
654.222	0.1692379
654.417	0.1695384
654.613	0.16983303
654.808	0.17005937
655.004	0.17031572
655.199	0.17048812
655.394	0.17064049
655.59	0.17093888
655.785	0.17110989
655.98	0.17136862
656.176	0.17154653
656.371	0.17187729
656.566	0.17212983
656.762	0.17232267
656.957	0.17250253
657.152	0.17264341
657.348	0.17281283
657.543	0.17306092
657.738	0.17319951
657.933	0.17332425
658.128	0.17356046
658.324	0.17368756
658.519	0.17394492
658.714	0.17418548
658.909	0.17436993
659.104	0.17457085
659.299	0.1748631
659.494	0.17504613
659.689	0.17530601
659.884	0.17551622
660.079	0.1756634
660.274	0.17590022
660.469	0.1761179
660.664	0.17635369
660.859	0.17662545
661.054	0.17686917
661.249	0.17709342
661.444	0.17733744
661.639	0.17753904
661.834	0.1777542
662.029	0.1780152
662.224	0.17819945
662.418	0.17838024
662.613	0.17857792
662.808	0.1787783
663.003	0.17900161
663.198	0.17919932
663.392	0.17930428
663.587	0.17963298
663.782	0.17978389
663.977	0.18001044
664.171	0.18028514
664.366	0.18052197
664.561	0.18077745
664.755	0.18109355
664.95	0.18118495
665.144	0.18148599
665.339	0.18177889
665.534	0.18201625
665.728	0.18229454
665.923	0.18258526
666.117	0.1828074
666.312	0.18308667
666.506	0.18341653
666.701	0.18357701
666.895	0.18377573
667.09	0.1839381
667.284	0.18415366
667.479	0.18432462
667.673	0.18452949
667.867	0.18473367
668.062	0.18496373
668.256	0.18521072
668.45	0.18551061
668.645	0.18570786
668.839	0.18597159
669.033	0.18622278
669.228	0.18642582
669.422	0.18673241
669.616	0.1869674
669.81	0.18723346
670.004	0.18741541
670.199	0.18773292
670.393	0.18796587
670.587	0.18818488
670.781	0.18840148
670.975	0.18869806
671.169	0.1888421
671.363	0.18908225
671.558	0.18924406
671.752	0.18954973
671.946	0.18982033
672.14	0.19006732
672.334	0.1902495
672.528	0.19063387
672.722	0.19088986
672.916	0.19117491
673.11	0.19133628
673.304	0.19163555
673.497	0.19178891
673.691	0.19207433
673.885	0.19213584
674.079	0.19238269
674.273	0.19252665
674.467	0.19280836
674.661	0.19296207
674.854	0.19329648
675.048	0.19357103
675.242	0.19393194
675.436	0.19423519
675.629	0.19455729
675.823	0.194789
676.017	0.19509095
676.211	0.1952499
676.404	0.19547561
676.598	0.19568484
676.792	0.19590095
676.985	0.19617428
677.179	0.19646132
677.372	0.19665338
677.566	0.19705647
677.76	0.19733437
677.953	0.19758483
678.147	0.19791498
678.34	0.19820406
678.534	0.19841063
678.727	0.19874234
678.921	0.19899038
679.114	0.19917862
679.307	0.19949376
679.501	0.19972625
679.694	0.19993173
679.888	0.20020725
680.081	0.20045368
680.274	0.20062061
680.468	0.2009567
680.661	0.20125307
680.854	0.20166096
681.048	0.20199461
681.241	0.20231839
681.434	0.20255086
681.627	0.2029048
681.821	0.20312267
682.014	0.20342675
682.207	0.20355487
682.4	0.20377255
682.593	0.20408655
682.786	0.20435807
682.98	0.20458612
683.173	0.20495165
683.366	0.20514905
683.559	0.205412
683.752	0.2057692
683.945	0.20601809
684.138	0.2064016
684.331	0.20667
684.524	0.20696603
684.717	0.20723896
684.91	0.207575
685.103	0.20779871
685.296	0.20809174
685.489	0.20838838
685.682	0.20868049
685.874	0.20893224
686.067	0.20921433
686.26	0.20952128
686.453	0.20978807
686.646	0.21004023
686.839	0.21028131
687.031	0.21056725
687.224	0.21071694
687.417	0.21109551
687.61	0.21126668
687.802	0.2115299
687.995	0.21189219
688.188	0.21219119
688.38	0.21249997
688.573	0.21289436
688.766	0.21312248
688.958	0.21343187
689.151	0.21367936
689.343	0.21392148
689.536	0.21412125
689.729	0.21438441
689.921	0.21467755
690.114	0.21488666
690.306	0.21519143
690.499	0.21550098
690.691	0.21578173
690.884	0.21610773
691.076	0.2164312
691.268	0.21669106
691.461	0.21692349
691.653	0.2172437
691.846	0.21758056
692.038	0.21784206
692.23	0.21805187
692.423	0.21832139
692.615	0.21863147
692.807	0.2190195
692.999	0.21929687
693.192	0.2195302
693.384	0.21983216
693.576	0.22013373
693.768	0.22044227
693.961	0.22062145
694.153	0.22092033
694.345	0.22120774
694.537	0.2215606
694.729	0.22184164
694.921	0.22213259
695.113	0.22243128
695.305	0.22278295
695.498	0.22298666
695.69	0.22328614
695.882	0.22350483
696.074	0.22382478
696.266	0.22416
696.458	0.22438722
696.65	0.22475298
696.842	0.22512089
697.033	0.22538828
697.225	0.22567099
697.417	0.22600611
697.609	0.22629401
697.801	0.22662662
697.993	0.22693322
698.185	0.22722588
698.376	0.22755511
698.568	0.22789127
698.76	0.22815158
698.952	0.22842272
699.144	0.22869026
699.335	0.22894846
699.527	0.22924385
699.719	0.22951012
699.91	0.22988121
700.102	0.23014954
700.294	0.23048776
700.485	0.2308587
700.677	0.23112348
700.869	0.23146484
701.06	0.23182085
701.252	0.23206359
701.443	0.2324106
701.635	0.23273341
701.826	0.23305438
702.018	0.23338885
702.209	0.23363893
702.401	0.23387487
702.592	0.23423843
702.784	0.23449823
702.975	0.23479715
703.166	0.23502593
703.358	0.23525979
703.549	0.235656
703.741	0.23600999
703.932	0.236226
704.123	0.2365471
704.315	0.23684773
704.506	0.23726811
704.697	0.23765864
704.888	0.23794276
705.08	0.23819656
705.271	0.23855228
705.462	0.23878782
705.653	0.23906773
705.844	0.23926344
706.035	0.23952159
706.227	0.23974738
706.418	0.2400204
706.609	0.24031156
706.8	0.24076473
706.991	0.24105218
707.182	0.2413874
707.373	0.2416926
707.564	0.24208292
707.755	0.24244074
707.946	0.24277465
708.137	0.24299807
708.328	0.24329912
708.519	0.24358093
708.71	0.24385955
708.901	0.24406483
709.092	0.24442984
709.283	0.24467632
709.473	0.24496995
709.664	0.24533675
709.855	0.24563554
710.046	0.24602439
710.237	0.24638485
710.427	0.24664257
710.618	0.2470203
710.809	0.2473011
711	0.24764562
711.19	0.2479825
711.381	0.24828714
711.572	0.24858123
711.762	0.24889522
711.953	0.24906939
712.144	0.24940735
712.334	0.24965918
712.525	0.24999508
712.715	0.25023785
712.906	0.25053455
713.097	0.25080315
713.287	0.25116058
713.478	0.25144045
713.668	0.25174497
713.859	0.25199776
714.049	0.25229419
714.239	0.25260042
714.43	0.25289811
714.62	0.25320383
714.811	0.25352524
715.001	0.25382251
715.191	0.25410336
715.382	0.25441539
715.572	0.25475629
715.762	0.25507411
715.953	0.2555006
716.143	0.25584189
716.333	0.25609907
716.523	0.25646488
716.714	0.25686249
716.904	0.25715673
717.094	0.25750068
717.284	0.25771827
717.474	0.25799457
717.664	0.25838321
717.855	0.25863576
718.045	0.25882588
718.235	0.25912593
718.425	0.2594115
718.615	0.25970138
718.805	0.26001604
718.995	0.26031682
719.185	0.26070733
719.375	0.26111253
719.565	0.26148895
719.755	0.26184195
719.945	0.26215533
720.135	0.26252824
720.325	0.26289742
720.515	0.26320765
720.704	0.26353096
720.894	0.26380565
721.084	0.26408379
721.274	0.26439974
721.464	0.2646912
721.654	0.26499166
721.843	0.26523967
722.033	0.26554858
722.223	0.26582473
722.413	0.26618016
722.602	0.26648743
722.792	0.26680673
722.982	0.26706449
723.171	0.26739809
723.361	0.26767373
723.55	0.26805531
723.74	0.26828258
723.93	0.2686327
724.119	0.26887704
724.309	0.26921044
724.498	0.26949014
724.688	0.26980395
724.877	0.27000918
725.067	0.27030303
725.256	0.27058057
725.446	0.27086406
725.635	0.27104436
725.825	0.27129901
726.014	0.27152174
726.203	0.27180856
726.393	0.27206375
726.582	0.27226769
726.771	0.27257175
726.961	0.27286655
727.15	0.27308472
727.339	0.27330254
727.529	0.27356864
727.718	0.27371352
727.907	0.27392301
728.096	0.27410191
728.286	0.27428708
728.475	0.27457379
728.664	0.27480074
728.853	0.27495697
729.042	0.27527009
729.231	0.27552747
729.42	0.27570172
729.609	0.2759234
729.799	0.27604493
729.988	0.27630773
730.177	0.27649582
730.366	0.27671322
730.555	0.27689926
730.744	0.27714979
730.933	0.27736141
731.122	0.2776479
731.31	0.2778308
731.499	0.27804231
731.688	0.27827922
731.877	0.27848083
732.066	0.27875878
732.255	0.2789389
732.444	0.27909915
732.632	0.27931598
732.821	0.27957084
733.01	0.27970476
733.199	0.27984263
733.388	0.27991078
733.576	0.28011814
733.765	0.28029706
733.954	0.28046729
734.142	0.28062821
734.331	0.28089743
734.52	0.2811785
734.708	0.2814389
734.897	0.281626
735.086	0.28182206
735.274	0.2819668
735.463	0.28218475
735.651	0.28229034
735.84	0.28249085
736.028	0.28269217
736.217	0.28295699
736.405	0.28317866
736.594	0.2834706
736.782	0.28367729
736.971	0.28391415
737.159	0.2841362
737.347	0.28434008
737.536	0.28450901
737.724	0.28469508
737.912	0.28481025
738.101	0.28491364
738.289	0.28509703
738.477	0.28523006
738.666	0.28537677
738.854	0.28552816
739.042	0.28576098
739.23	0.28590802
739.418	0.28617358
739.607	0.28626692
739.795	0.28640717
739.983	0.28658968
740.171	0.28678477
740.359	0.286892
740.547	0.28713017
740.735	0.28727662
740.923	0.2875082
741.112	0.2877715
741.3	0.28795671
741.488	0.28808517
741.676	0.28833131
741.864	0.28847424
742.052	0.28867949
742.239	0.28885032
742.427	0.28901536
742.615	0.28908672
742.803	0.28930072
742.991	0.28937342
743.179	0.28953752
743.367	0.28964825
743.555	0.2898368
743.742	0.2899499
743.93	0.2901961
744.118	0.29032037
744.306	0.29052382
744.494	0.29065411
744.681	0.29079056
744.869	0.29089463
745.057	0.29100942
745.244	0.29111768
745.432	0.29125807
745.62	0.29140297
745.807	0.29161135
745.995	0.29176225
746.182	0.2919286
746.37	0.2920722
746.558	0.29226332
746.745	0.29229998
746.933	0.29242362
747.12	0.29246932
747.308	0.29261404
747.495	0.29270773
747.683	0.29287692
747.87	0.29297896
748.057	0.29323015
748.245	0.29333448
748.432	0.29352962
748.62	0.29360237
748.807	0.29367964
748.994	0.2937744
749.182	0.29394856
749.369	0.29404788
749.556	0.29419159
749.743	0.29426283
749.931	0.29438265
750.118	0.29456813
750.305	0.29462163
750.492	0.29460746
750.68	0.29470904
750.867	0.2948009
751.054	0.29499631
751.241	0.29504438
751.428	0.29515487
751.615	0.2952794
751.802	0.2954271
751.989	0.29550775
752.176	0.29560725
752.363	0.29562453
752.55	0.2957697
752.737	0.29585062
752.924	0.29599641
753.111	0.29614555
753.298	0.29624022
753.485	0.29631177
753.672	0.29638516
753.859	0.29654134
754.046	0.2966375
754.233	0.29660644
754.42	0.29668001
754.606	0.29676578
754.793	0.29684577
754.98	0.29695763
755.167	0.29695969
755.353	0.29702007
755.54	0.29723696
755.727	0.29730965
755.914	0.29744859
756.1	0.29752334
756.287	0.29758387
756.474	0.29760784
756.66	0.29769269
756.847	0.29774878
757.033	0.29774899
757.22	0.29769171
757.407	0.29780472
757.593	0.29785231
757.78	0.29796181
757.966	0.29803459
758.153	0.29806438
758.339	0.29809835
758.526	0.29817489
758.712	0.29815647
758.898	0.29822546
759.085	0.29830998
759.271	0.29829255
759.458	0.29829383
759.644	0.29838225
759.83	0.29846236
760.017	0.29854447
760.203	0.29852943
760.389	0.29857529
760.576	0.2986244
760.762	0.29866304
760.948	0.29864003
761.134	0.29864557
761.32	0.29859669
761.507	0.29861129
761.693	0.29861042
761.879	0.29860523
762.065	0.29865152
762.251	0.29870638
762.437	0.29872767
762.623	0.29880507
762.809	0.29883499
762.995	0.29885511
763.181	0.29893093
763.367	0.29893687
763.553	0.29893415
763.739	0.29897332
763.925	0.29897296
764.111	0.29896893
764.297	0.29900025
764.483	0.29893116
764.669	0.29889927
764.855	0.29887169
765.041	0.29880297
765.227	0.29873983
765.412	0.29875164
765.598	0.29867532
765.784	0.2986649
765.97	0.2986742
766.156	0.29873036
766.341	0.29871865
766.527	0.29869974
766.713	0.29870491
766.898	0.29868099
767.084	0.2987123
767.27	0.29862965
767.455	0.2985184
767.641	0.29852893
767.827	0.29854444
768.012	0.29849055
768.198	0.29847611
768.383	0.298454
768.569	0.29846249
768.754	0.2984547
768.94	0.2983827
769.125	0.29827502
769.311	0.29818385
769.496	0.2981031
769.682	0.29796981
769.867	0.29792731
770.052	0.29790585
770.238	0.29784444
770.423	0.29783552
770.608	0.29781962
770.794	0.29779458
770.979	0.29777556
771.164	0.29768008
771.35	0.29761024
771.535	0.29753419
771.72	0.29748978
771.905	0.29746347
772.09	0.29736705
772.276	0.29727859
772.461	0.29720548
772.646	0.29709105
772.831	0.29702802
773.016	0.29698808
773.201	0.29685443
773.386	0.29683467
773.571	0.29677079
773.756	0.29670587
773.941	0.29656389
774.126	0.29655498
774.311	0.29639629
774.496	0.29634314
774.681	0.29627573
774.866	0.29627334
775.051	0.2961572
775.236	0.29615103
775.421	0.29602883
775.606	0.2959295
775.791	0.29572808
775.976	0.29562778
776.16	0.29544254
776.345	0.29535124
776.53	0.29528897
776.715	0.2951473
776.899	0.29505017
777.084	0.29504103
777.269	0.29489002
777.454	0.29476301
777.638	0.29463936
777.823	0.29446113
778.008	0.29433942
778.192	0.29425508
778.377	0.29411313
778.561	0.29399721
778.746	0.29386767
778.931	0.29375763
779.115	0.29374148
779.3	0.29368445
779.484	0.29351175
779.669	0.29332523
779.853	0.29316652
780.037	0.29303742
780.222	0.2928739
780.406	0.29261276
780.591	0.29240741
780.775	0.2922861
780.959	0.29221071
781.144	0.29201998
781.328	0.29189955
781.512	0.29172312
781.697	0.29162416
781.881	0.2914283
782.065	0.29126531
782.249	0.29103976
782.434	0.29100407
782.618	0.29081901
782.802	0.29078342
782.986	0.29059105
783.17	0.2904447
783.354	0.29030975
783.539	0.29017071
783.723	0.28990418
783.907	0.28977334
784.091	0.2895287
784.275	0.28935742
784.459	0.28918065
784.643	0.28902514
784.827	0.28887684
785.011	0.28876008
785.195	0.28859295
785.379	0.28844731
785.563	0.28822114
785.747	0.28809679
785.93	0.2879804
786.114	0.28773379
786.298	0.28743455
786.482	0.28718833
786.666	0.28694998
786.85	0.28677745
787.033	0.28654329
787.217	0.28625813
787.401	0.28611245
787.585	0.28597074
787.768	0.2857957
787.952	0.28558572
788.136	0.28538078
788.319	0.28511689
788.503	0.28483818
788.687	0.28465119
788.87	0.28444258
789.054	0.28414419
789.237	0.28393088
789.421	0.28375506
789.605	0.2836717
789.788	0.28348487
789.972	0.28320423
790.155	0.28291438
790.338	0.28274881
790.522	0.28255681
790.705	0.28232202
790.889	0.28198714
791.072	0.28178163
791.256	0.28161363
791.439	0.28144405
791.622	0.28122139
791.806	0.28100514
791.989	0.28077853
792.172	0.2806249
792.355	0.2804276
792.539	0.28025477
792.722	0.27997577
792.905	0.27970577
793.088	0.27942791
793.271	0.27920222
793.455	0.27894966
793.638	0.27868336
793.821	0.27837414
794.004	0.27819957
794.187	0.27804809
794.37	0.27788601
794.553	0.27763173
794.736	0.27737214
794.919	0.27707755
795.102	0.27680302
795.285	0.27655045
795.468	0.27627963
795.651	0.2760063
795.834	0.27578925
796.017	0.27555847
796.2	0.27530064
796.383	0.27508767
796.566	0.27488802
796.749	0.274649
796.931	0.27435776
797.114	0.27402749
797.297	0.27371661
797.48	0.27341752
797.663	0.27316629
797.845	0.27283932
798.028	0.27258459
798.211	0.27236993
798.393	0.27211346
798.576	0.27189012
798.759	0.27165166
798.941	0.27130939
799.124	0.27103368
799.307	0.27079111
799.489	0.27053931
799.672	0.27025608
799.854	0.26992761
800.037	0.26969136
800.219	0.26948858
800.402	0.26926456
800.584	0.26890286
800.767	0.26856183
800.949	0.26831325
801.132	0.26809771
801.314	0.26776174
801.496	0.2674382
801.679	0.26705345
801.861	0.26670669
802.043	0.26633592
802.226	0.26599003
802.408	0.26565526
802.59	0.2654359
802.772	0.26513846
802.955	0.26486801
803.137	0.26461828
803.319	0.26436899
803.501	0.2640705
803.684	0.26378777
803.866	0.2633856
804.048	0.26304125
804.23	0.26282272
804.412	0.26257023
804.594	0.26224246
804.776	0.26198823
804.958	0.26167771
805.14	0.26149831
805.322	0.26130142
805.504	0.26097021
805.686	0.26065784
805.868	0.2603899
806.05	0.26004531
806.232	0.25966649
806.414	0.25933898
806.596	0.2589688
806.778	0.25860249
806.96	0.25823958
807.141	0.25790403
807.323	0.25758871
807.505	0.25731479
807.687	0.25694916
807.869	0.25666294
808.05	0.25631774
808.232	0.25599133
808.414	0.25570019
808.595	0.25543958
808.777	0.25513184
808.959	0.25480322
809.14	0.25438153
809.322	0.25411586
809.504	0.25374921
809.685	0.25340401
809.867	0.2530196
810.048	0.25265747
810.23	0.25235087
810.411	0.2520594
810.593	0.25173237
810.774	0.25142666
810.956	0.25106724
811.137	0.25070394
811.319	0.25037103
811.5	0.25004891
811.681	0.24969085
811.863	0.24930428
812.044	0.24892678
812.225	0.24865301
812.407	0.24833101
812.588	0.24800193
812.769	0.24758712
812.951	0.24719494
813.132	0.24685545
813.313	0.24654949
813.494	0.24614342
813.675	0.24581644
813.857	0.24554543
814.038	0.24527972
814.219	0.24501202
814.4	0.24467679
814.581	0.24442956
814.762	0.2440413
814.943	0.24371963
815.124	0.24327393
815.305	0.24288284
815.486	0.24249926
815.667	0.24212329
815.848	0.24166207
816.029	0.24128484
816.21	0.24085494
816.391	0.24053388
816.572	0.2401155
816.753	0.23972536
816.934	0.23939593
817.115	0.2390855
817.295	0.23877847
817.476	0.23838694
817.657	0.23799479
817.838	0.23766242
818.019	0.23733937
818.199	0.236955
818.38	0.2365411
818.561	0.23616673
818.741	0.23585913
818.922	0.23541091
819.103	0.2350363
819.283	0.23467986
819.464	0.23435063
819.645	0.23403008
819.825	0.23361176
820.006	0.23321764
820.186	0.23290737
820.367	0.23260711
820.547	0.23212979
820.728	0.23168661
820.908	0.23126989
821.089	0.23099889
821.269	0.23064891
821.45	0.23032121
821.63	0.22985418
821.81	0.22954242
821.991	0.22920965
822.171	0.22885478
822.351	0.22840446
822.532	0.22805142
822.712	0.22759991
822.892	0.22725082
823.072	0.22689128
823.253	0.22642704
823.433	0.22603888
823.613	0.22567424
823.793	0.22530293
823.973	0.22494495
824.154	0.2245917
824.334	0.22426543
824.514	0.22394285
824.694	0.22356521
824.874	0.22310509
825.054	0.22261597
825.234	0.22225658
825.414	0.22179022
825.594	0.22130773
825.774	0.22093757
825.954	0.2205224
826.134	0.22021797
826.314	0.21985452
826.494	0.21945671
826.674	0.21904036
826.854	0.21867093
827.033	0.21817104
827.213	0.21782875
827.393	0.21733253
827.573	0.2169033
827.753	0.21642338
827.932	0.21612814
828.112	0.21573503
828.292	0.21540325
828.472	0.21493007
828.651	0.21470204
828.831	0.21428438
829.011	0.21400841
829.19	0.2135864
829.37	0.21316693
829.549	0.21280333
829.729	0.21238467
829.909	0.2118824
830.088	0.21147439
830.268	0.21092896
830.447	0.21051388
830.627	0.21011606
830.806	0.2097085
830.986	0.20929397
831.165	0.20894313
831.344	0.20863643
831.524	0.20831838
831.703	0.2078465
831.883	0.20740858
832.062	0.20694961
832.241	0.20652902
832.421	0.20607049
832.6	0.20566887
832.779	0.20523389
832.958	0.20487013
833.138	0.20451125
833.317	0.20414242
833.496	0.20381226
833.675	0.20345744
833.854	0.20304594
834.034	0.20266384
834.213	0.20225603
834.392	0.20187634
834.571	0.2014989
834.75	0.2011336
834.929	0.20058118
835.108	0.20014598
835.287	0.19976049
835.466	0.19935161
835.645	0.19887525
835.824	0.19836912
836.003	0.19787725
836.182	0.19766202
836.361	0.19728238
836.54	0.19682317
836.719	0.19642916
836.897	0.19605361
837.076	0.19562447
837.255	0.19524801
837.434	0.19476562
837.613	0.19427815
837.791	0.19390477
837.97	0.19348781
838.149	0.19302138
838.328	0.19264291
838.506	0.19219492
838.685	0.19177895
838.864	0.19141717
839.042	0.19095118
839.221	0.1905746
839.4	0.19022005
839.578	0.18979708
839.757	0.18932277
839.935	0.18880323
840.114	0.18837564
840.292	0.18800824
840.471	0.18758266
840.649	0.18713354
840.828	0.18683007
841.006	0.18651917
841.185	0.18616183
841.363	0.18591051
841.541	0.18549512
841.72	0.1851546
841.898	0.18478061
842.076	0.18429541
842.255	0.18387025
842.433	0.18345703
842.611	0.18279947
842.789	0.18235779
842.968	0.18194301
843.146	0.18150686
843.324	0.18113506
843.502	0.18077239
843.68	0.18046229
843.859	0.18015344
844.037	0.17986437
844.215	0.1794144
844.393	0.17895979
844.571	0.17850728
844.749	0.17808286
844.927	0.17760051
845.105	0.17716135
845.283	0.17668185
845.461	0.17625818
845.639	0.17598344
845.817	0.17558897
845.995	0.17518826
846.173	0.17481614
846.351	0.17445665
846.529	0.17401783
846.706	0.1735493
846.884	0.17311667
847.062	0.17267645
847.24	0.17222575
847.418	0.17175129
847.595	0.17132076
847.773	0.17086687
847.951	0.17048046
848.129	0.17004202
848.306	0.1696953
848.484	0.16939006
848.662	0.16910153
848.839	0.16875399
849.017	0.16847089
849.194	0.16808762
849.372	0.16771232
849.549	0.16724667
849.727	0.1667575
849.905	0.16620049
850.082	0.16573763
850.26	0.16520008
850.437	0.16474854
850.614	0.16429877
850.792	0.16388598
850.969	0.16355279
851.147	0.16329072
851.324	0.16292131
851.501	0.16268475
851.679	0.16240406
851.856	0.16198076
852.033	0.16165178
852.211	0.16120045
852.388	0.16069033
852.565	0.16031138
852.742	0.15980804
852.92	0.15935206
853.097	0.15899539
853.274	0.15857122
853.451	0.15812315
853.628	0.15776889
853.805	0.15746564
853.982	0.15712435
854.159	0.15677777
854.336	0.15642058
854.514	0.15605708
854.691	0.15568123
854.868	0.15522156
855.045	0.15459318
855.221	0.15415785
855.398	0.15364149
855.575	0.15318632
855.752	0.1528129
855.929	0.152543
856.106	0.15223028
856.283	0.15195244
856.46	0.15173163
856.637	0.15147921
856.813	0.15105717
856.99	0.15067634
857.167	0.15023348
857.344	0.14984074
857.52	0.14942689
857.697	0.14884423
857.874	0.14837808
858.05	0.14811394
858.227	0.14764405
858.404	0.14731119
858.58	0.14699025
858.757	0.14665356
858.933	0.14637807
859.11	0.14603561
859.287	0.14556686
859.463	0.14522061
859.64	0.14468082
859.816	0.14427281
859.993	0.14384739
860.169	0.14347981
860.345	0.14309312
860.522	0.14279685
860.698	0.14247169
860.875	0.14223833
861.051	0.14183796
861.227	0.14150278
861.404	0.14107817
861.58	0.14066142
861.756	0.14025851
861.932	0.13988218
862.109	0.13944823
862.285	0.13909057
862.461	0.13870088
862.637	0.13829301
862.813	0.13795701
862.99	0.13751463
863.166	0.13702084
863.342	0.13668779
863.518	0.13616276
863.694	0.13585698
863.87	0.13547566
864.046	0.13506234
864.222	0.13471091
864.398	0.13447384
864.574	0.13395402
864.75	0.13365521
864.926	0.13323953
865.102	0.13287921
865.278	0.13243878
865.454	0.13209854
865.63	0.13163596
865.805	0.13137725
865.981	0.13101852
866.157	0.13063205
866.333	0.1302447
866.509	0.12992348
866.684	0.12952204
866.86	0.12923285
867.036	0.12883495
867.212	0.12851915
867.387	0.12822666
867.563	0.12793706
867.739	0.12763023
867.914	0.12723243
868.09	0.12680317
868.265	0.12634593
868.441	0.12594238
868.617	0.12544962
868.792	0.12508389
868.968	0.12469724
869.143	0.12440383
869.319	0.12413835
869.494	0.12382454
869.67	0.12347822
869.845	0.12315012
870.02	0.12273941
870.196	0.12241699
870.371	0.12204309
870.546	0.12161928
870.722	0.12131292
870.897	0.12094753
871.072	0.12060455
871.248	0.12022002
871.423	0.11982321
871.598	0.1194883
871.773	0.11911092
871.949	0.11879003
872.124	0.11847668
872.299	0.11811612
872.474	0.11782114
872.649	0.11754167
872.824	0.1171795
872.999	0.11689662
873.174	0.11649659
873.349	0.1161275
873.524	0.11583692
873.699	0.11548366
873.874	0.11507935
874.049	0.11478467
874.224	0.11441232
874.399	0.11413082
874.574	0.11374922
874.749	0.11329205
874.924	0.11290289
875.099	0.11260793
875.274	0.11221877
875.449	0.11185112
875.623	0.11135653
875.798	0.11096372
875.973	0.11062715
876.148	0.11017208
876.322	0.10981713
876.497	0.10947969
876.672	0.10921978
876.846	0.1089693
877.021	0.10873134
877.196	0.1083671
877.37	0.10818122
877.545	0.10781479
877.72	0.10746082
877.894	0.10709524
878.069	0.10685169
878.243	0.10649176
878.418	0.10630288
878.592	0.10599203
878.767	0.10563228
878.941	0.10534788
879.116	0.10493494
879.29	0.10454177
879.464	0.10422255
879.639	0.10383014
879.813	0.10351148
879.987	0.1032943
880.162	0.1029105
880.336	0.102666
880.51	0.1024441
880.685	0.1021679
880.859	0.10186404
881.033	0.10146548
881.207	0.10102039
881.381	0.10070357
881.556	0.10036522
881.73	0.09995223
881.904	0.09961368
882.078	0.09928664
882.252	0.0990161
882.426	0.09881448
882.6	0.0984896
882.774	0.09816689
882.948	0.09790952
883.122	0.09757171
883.296	0.09732238
883.47	0.09706714
883.644	0.09675078
883.818	0.09640963
883.992	0.09620265
884.166	0.0958026
884.34	0.09552516
884.514	0.09517254
884.687	0.09476383
884.861	0.09442431
885.035	0.09419303
885.209	0.09384378
885.382	0.09369515
885.556	0.09338473
885.73	0.09314923
885.904	0.09292277
886.077	0.09259803
886.251	0.09227229
886.425	0.09187045
886.598	0.09150425
886.772	0.09111949
886.945	0.09073696
887.119	0.09036566
887.292	0.09000149
887.466	0.08972182
887.64	0.08955022
887.813	0.08920506
887.986	0.08899819
888.16	0.08882171
888.333	0.0885705
888.507	0.08840997
888.68	0.08809342
888.854	0.08772761
889.027	0.08747248
889.2	0.08722162
889.374	0.08677642
889.547	0.08655481
889.72	0.08624139
889.893	0.08593616
890.067	0.08565429
890.24	0.08532877
890.413	0.08496095
890.586	0.08476577
890.759	0.08443154
890.933	0.08416005
891.106	0.08393699
891.279	0.08377447
891.452	0.08348221
891.625	0.08328126
891.798	0.08308317
891.971	0.08284004
892.144	0.08249065
892.317	0.08222187
892.49	0.08173565
892.663	0.08147037
892.836	0.08116295
893.009	0.08081628
893.182	0.08048774
893.355	0.08032882
893.527	0.08002794
893.7	0.07997607
893.873	0.07979292
894.046	0.07949807
894.219	0.07926309
894.391	0.07903571
894.564	0.0787552
894.737	0.07856116
894.91	0.0780996
895.082	0.07777297
895.255	0.07759557
895.428	0.0772551
895.6	0.07697441
895.773	0.07662037
895.945	0.07628379
896.118	0.0759891
896.291	0.07577287
896.463	0.07552756
896.636	0.07537744
896.808	0.07509709
896.981	0.07491114
897.153	0.0747023
897.326	0.07453169
897.498	0.07416511
897.67	0.07378517
897.843	0.07347438
898.015	0.07317495
898.187	0.07284089
898.36	0.07251085
898.532	0.07226766
898.704	0.07203163
898.877	0.0717329
899.049	0.07154167
899.221	0.0713904
899.393	0.07125376
899.566	0.0710063
899.738	0.07079484
899.91	0.07067489
900.082	0.07046422
900.254	0.07021273
900.426	0.06990529
900.598	0.06959195
900.77	0.06939977
900.942	0.06912097
901.114	0.06873155
901.286	0.06851873
901.458	0.06818109
901.63	0.06796209
901.802	0.06773052
901.974	0.06747311
902.146	0.06724376
902.318	0.06704818
902.49	0.06676845
902.662	0.06647112
902.834	0.06623802
903.005	0.06605405
903.177	0.06586331
903.349	0.06561342
903.521	0.0653694
903.693	0.06516616
903.864	0.06494742
904.036	0.06471546
904.208	0.06436038
904.379	0.0640535
904.551	0.06386321
904.723	0.06365395
904.894	0.06342606
905.066	0.06325962
905.237	0.06311102
905.409	0.06301305
905.58	0.06283881
905.752	0.06258197
905.923	0.06233411
906.095	0.0621247
906.266	0.06193278
906.438	0.0616527
906.609	0.06137343
906.78	0.06108878
906.952	0.06087749
907.123	0.06055699
907.295	0.06040231
907.466	0.0601594
907.637	0.05997694
907.808	0.05982073
907.98	0.05971362
908.151	0.05958171
908.322	0.05957908
908.493	0.05940162
908.665	0.05928119
908.836	0.05899272
909.007	0.05866244
909.178	0.05839418
909.349	0.05808623
909.52	0.05783939
909.691	0.05755911
909.862	0.057247
910.033	0.05702237
910.204	0.05681499
910.375	0.05666147
910.546	0.05650443
910.717	0.05626721
910.888	0.05601271
911.059	0.05592442
911.23	0.05578276
911.401	0.05570751
911.572	0.05546768
911.742	0.05522022
911.913	0.05502525
912.084	0.05475433
912.255	0.05446331
912.426	0.05427137
912.596	0.05392773
912.767	0.0537512
912.938	0.05358337
913.108	0.05343224
913.279	0.05338855
913.45	0.05319943
913.62	0.05297711
913.791	0.05294442
913.962	0.05280825
914.132	0.05279995
914.303	0.05249877
914.473	0.05225875
914.644	0.05203272
914.814	0.05190437
914.985	0.05164091
915.155	0.05137541
915.326	0.0509299
915.496	0.05072503
915.666	0.05059378
915.837	0.05044672
916.007	0.05022151
916.177	0.05007165
916.348	0.04992399
916.518	0.04986358
916.688	0.0497598
916.858	0.0495261
917.029	0.04931864
917.199	0.04920161
917.369	0.04898866
917.539	0.04884126
917.709	0.04852347
917.88	0.04828598
918.05	0.04799542
918.22	0.0477851
918.39	0.04754083
918.56	0.04738142
918.73	0.0470571
918.9	0.04699739
919.07	0.04677811
919.24	0.04692313
919.41	0.04686978
919.58	0.04668553
919.75	0.04636157
919.92	0.04620292
920.09	0.0459828
920.26	0.0459515
920.429	0.04549814
920.599	0.04528476
920.769	0.04509887
920.939	0.04506553
921.109	0.04500782
921.278	0.04477878
921.448	0.04459536
921.618	0.04454203
921.787	0.04432005
921.957	0.04407394
922.127	0.04380587
922.296	0.04360822
922.466	0.04344994
922.636	0.04329991
922.805	0.04313264
922.975	0.04299633
923.144	0.04297784
923.314	0.04294568
923.483	0.04266437
923.653	0.04256241
923.822	0.04238955
923.992	0.04212449
924.161	0.04187872
924.331	0.04163829
924.5	0.04130971
924.669	0.04125402
924.839	0.04112147
925.008	0.04087701
925.177	0.04085284
925.347	0.04076529
925.516	0.04058005
925.685	0.04056
925.854	0.04043247
926.023	0.0403423
926.193	0.04030649
926.362	0.04007932
926.531	0.03993831
926.7	0.03973563
926.869	0.03959304
927.038	0.03926879
927.207	0.03908779
927.376	0.03884401
927.545	0.03850236
927.715	0.03839218
927.884	0.03826313
928.052	0.03807768
928.221	0.03806769
928.39	0.03785605
928.559	0.03771118
928.728	0.03775895
928.897	0.03777325
929.066	0.0377389
929.235	0.03759758
929.404	0.03737033
929.572	0.03712734
929.741	0.03699798
929.91	0.03686151
930.079	0.03655723
930.247	0.03630501
930.416	0.03616252
930.585	0.0362589
930.753	0.03635209
930.922	0.03628653
931.091	0.03629736
931.259	0.03618481
931.428	0.0362734
931.596	0.03625843
931.765	0.03608599
931.934	0.03599016
932.102	0.03587777
932.27	0.03587939
932.439	0.0357282
932.607	0.03574581
932.776	0.03570202
932.944	0.03556812
933.113	0.03537285
933.281	0.03523098
933.449	0.03487025
933.618	0.03473069
933.786	0.03429182
933.954	0.03415115
934.123	0.03390384
934.291	0.03375977
934.459	0.03371001
934.627	0.03373907
934.795	0.0337666
934.964	0.03373177
935.132	0.03357074
935.3	0.03373255
935.468	0.03367679
935.636	0.03360598
935.804	0.03363823
935.972	0.03353553
936.14	0.03359795
936.308	0.03330818
936.476	0.03304797
936.644	0.03302839
936.812	0.03288994
936.98	0.03254071
937.148	0.03235205
937.316	0.03210011
937.484	0.03243066
937.652	0.0324334
937.82	0.03218549
937.987	0.03181479
938.155	0.0319205
938.323	0.03206064
938.491	0.03207982
938.658	0.0322898
938.826	0.03237526
938.994	0.03256079
939.162	0.03332223
939.329	0.03329435
939.497	0.03348404
939.665	0.03356243
939.832	0.0334545
940	0.03431385
940.167	0.03457191
940.335	0.03409023
940.502	0.0341504
940.67	0.0344238
940.837	0.03519354
941.005	0.03548681
941.172	0.03440194
941.34	0.03453094
941.507	0.03471714
941.674	0.03494196
941.842	0.03485821
942.009	0.03446604
942.177	0.03343936
942.344	0.03370335
942.511	0.03354293
942.678	0.03456788
942.846	0.03493876
943.013	0.03449397
943.18	0.03485495
943.347	0.03539834
943.514	0.0354288
943.682	0.03620441
943.849	0.03575204
944.016	0.03507931
944.183	0.0349938
944.35	0.03462933
944.517	0.03531908
944.684	0.03533383
944.851	0.03409239
945.018	0.03393773
945.185	0.0339205
945.352	0.03442766
945.519	0.03501911
945.686	0.03397669
945.853	0.03411016
946.02	0.0347627
946.187	0.03481641
946.353	0.03447371
946.52	0.03447623
946.687	0.03381732
946.854	0.03441474
947.021	0.03356551
947.187	0.03337152
947.354	0.03202919
947.521	0.03167201
947.687	0.03076138
947.854	0.03051969
948.021	0.02962216
948.187	0.03006651
948.354	0.02925601
948.52	0.02969467
948.687	0.02995532
948.854	0.030166
949.02	0.02997026
949.187	0.03013719
949.353	0.02961108
949.52	0.02974631
949.686	0.02993849
949.852	0.02986686
950.019	0.0299695
950.185	0.02914412
950.352	0.02849928
950.518	0.028227
950.684	0.02789009
950.851	0.0271967
951.017	0.02696721
951.183	0.02613467
951.349	0.02627263
951.516	0.02607158
951.682	0.02596042
951.848	0.02588734
952.014	0.02624317
952.18	0.02634052
952.346	0.02645642
952.512	0.02610608
952.679	0.02622423
952.845	0.02613468
953.011	0.02668303
953.177	0.02568661
953.343	0.02512329
953.509	0.025236
953.675	0.02552865
953.841	0.02505159
954.007	0.02494888
954.172	0.02414203
954.338	0.02464896
954.504	0.02415306
954.67	0.023719
954.836	0.02340505
955.002	0.02352358
955.167	0.02301828
955.333	0.0225988
955.499	0.02212743
955.665	0.02243522
955.83	0.02210586
955.996	0.02191435
956.162	0.02146528
956.327	0.02124929
956.493	0.02124404
956.659	0.02121236
956.824	0.02089267
956.99	0.02063437
957.155	0.02051411
957.321	0.02040482
957.486	0.02043661
957.652	0.02032056
957.817	0.02040315
957.983	0.02058582
958.148	0.02060486
958.314	0.02038754
958.479	0.02023406
958.644	0.020465
958.81	0.02054493
958.975	0.02054692
959.14	0.0203237
959.306	0.02062756
959.471	0.02065907
959.636	0.02040625
959.801	0.02017168
959.967	0.01975238
960.132	0.01913798
960.297	0.01877151
960.462	0.01864141
960.627	0.01847397
960.792	0.0186701
960.957	0.01861114
961.123	0.01870878
961.288	0.01876833
961.453	0.01902406
961.618	0.01891152
961.783	0.01866787
961.948	0.0188657
962.113	0.01875806
962.277	0.01858477
962.442	0.01839519
962.607	0.01798314
962.772	0.01776939
962.937	0.01793502
963.102	0.0179649
963.267	0.017764
963.431	0.01788157
963.596	0.01778075
963.761	0.01780751
963.926	0.01753888
964.09	0.01721597
964.255	0.01686357
964.42	0.01678221
964.584	0.01667275
964.749	0.01673842
964.914	0.01682952
965.078	0.01671054
965.243	0.0168715
965.407	0.01660579
965.572	0.01683083
965.736	0.016555
965.901	0.01647845
966.065	0.01608078
966.23	0.01598121
966.394	0.01592063
966.559	0.01589371
966.723	0.0156174
966.887	0.01558106
967.052	0.01559012
967.216	0.01594661
967.38	0.01619121
967.545	0.0160724
967.709	0.01612278
967.873	0.01645862
968.037	0.01642038
968.202	0.01653553
968.366	0.01623806
968.53	0.01625721
968.694	0.01645257
968.858	0.01649411
969.022	0.01595405
969.187	0.01583315
969.351	0.01561686
969.515	0.01551737
969.679	0.01532297
969.843	0.01509989
970.007	0.01491405
970.171	0.01503421
970.335	0.01533503
970.499	0.01537427
970.662	0.0155109
970.826	0.01534406
970.99	0.01500665
971.154	0.01532604
971.318	0.01546721
971.482	0.01518351
971.645	0.01513081
971.809	0.01534035
971.973	0.0149312
972.137	0.01519861
972.3	0.01464651
972.464	0.01402946
972.628	0.01382422
972.791	0.01371473
972.955	0.01348779
973.119	0.01387152
973.282	0.0137207
973.446	0.01387646
973.609	0.01407685
973.773	0.01428145
973.936	0.01426522
974.1	0.01375139
974.263	0.01369602
974.427	0.01347529
974.59	0.01349591
974.754	0.01356867
974.917	0.01335957
975.08	0.01304541
975.244	0.01310374
975.407	0.01287829
975.57	0.01317499
975.734	0.012754
975.897	0.0125747
976.06	0.01268218
976.223	0.01308021
976.387	0.01316013
976.55	0.01320975
976.713	0.01296916
976.876	0.01297109
977.039	0.01301979
977.202	0.01298592
977.365	0.01293375
977.528	0.01296239
977.692	0.01269746
977.855	0.01289838
978.018	0.0129651
978.181	0.01261866
978.344	0.01254362
978.506	0.01235943
978.669	0.01222896
978.832	0.01274455
978.995	0.01230125
979.158	0.01260722
979.321	0.01310595
979.484	0.01334903
979.646	0.01351676
979.809	0.01356242
979.972	0.01347677
980.135	0.01379513
980.297	0.01338659
980.46	0.01272742
980.623	0.01224713
980.786	0.01180097
980.948	0.01169136
981.111	0.01131562
981.273	0.01126498
981.436	0.0115665
981.599	0.01195614
981.761	0.01172794
981.924	0.01152942
982.086	0.01196601
982.249	0.01167261
982.411	0.01154793
982.573	0.01125728
982.736	0.0110354
982.898	0.01147689
983.061	0.01198255
983.223	0.0113473
983.385	0.0115729
983.548	0.01153535
983.71	0.01140149
983.872	0.01190563
984.034	0.011533
984.197	0.01134882
984.359	0.01171298
984.521	0.01181392
984.683	0.01163088
984.845	0.01196501
985.008	0.01161418
985.17	0.01203323
985.332	0.01184372
985.494	0.01163941
985.656	0.01158662
985.818	0.01148948
985.98	0.01148125
986.142	0.01151093
986.304	0.01085485
986.466	0.01086258
986.628	0.01072938
986.79	0.01067706
986.952	0.01107995
987.113	0.01081347
987.275	0.01048173
987.437	0.01096963
987.599	0.01100174
987.761	0.01146972
987.922	0.01179759
988.084	0.0111855
988.246	0.01124001
988.408	0.01147666
988.569	0.01178024
988.731	0.01199544
988.893	0.01141398
989.054	0.01101083
989.216	0.01154762
989.377	0.01153737
989.539	0.01137354
989.701	0.01136609
989.862	0.01099128
990.024	0.0106817
990.185	0.01077074
990.347	0.01049045
990.508	0.01071007
990.669	0.01091374
990.831	0.01089253
990.992	0.01161996
991.154	0.01226599
991.315	0.01216399
991.476	0.01274942
991.638	0.01254898
991.799	0.01222876
991.96	0.01157926
992.121	0.01105735
992.283	0.010731
992.444	0.011401
992.605	0.01064295
992.766	0.01075843
992.927	0.01054659
993.088	0.01040713
993.249	0.0104691
993.41	0.01085426
993.572	0.01008747
993.733	0.01004335
993.894	0.0096828
994.055	0.00951854
994.216	0.01042187
994.376	0.01010509
994.537	0.0096352
994.698	0.00971549
994.859	0.01041441
995.02	0.01062607
995.181	0.01088195
995.342	0.01040234
995.503	0.00949736
995.663	0.00928409
995.824	0.00896953
995.985	0.00880115
996.146	0.00876226
996.306	0.00881696
996.467	0.00870122
996.628	0.00997086
996.788	0.01060873
996.949	0.01107016
997.11	0.01075719
997.27	0.01092567
997.431	0.01093221
997.591	0.01079709
997.752	0.01047184
997.912	0.01060854
998.073	0.01145253
998.233	0.01102715
998.394	0.01089093
998.554	0.01113226
998.714	0.01094361
998.875	0.01134659
999.035	0.01124549
999.196	0.01000915
999.356	0.01018524
999.516	0.01072691
999.676	0.01036052
999.837	0.01104379
999.997	0.01149331
1000.157	0.01186983
1000.317	0.01201967
1000.477	0.01294872
1000.638	0.01163322
1000.798	0.01224331
1000.958	0.01186308
1001.118	0.01135763
1001.278	0.01116888
1001.438	0.01148095
1001.598	0.01113752
1001.758	0.01183806
1001.918	0.01178174
1002.078	0.01183981
1002.238	0.01168342
1002.398	0.0112335
1002.558	0.01152884
1002.718	0.01103311
1002.878	0.01086026
1003.037	0.00906863
1003.197	0.00950747
1003.357	0.00921546
1003.517	0.00947414
1003.677	0.00877806
1003.836	0.00836902
1003.996	0.00863757
1004.156	0.01061236
1004.315	0.00990886
1004.475	0.00954763
1004.635	0.00971558
1004.794	0.00923047
1004.954	0.01033472
1005.114	0.0104006
1005.273	0.00969172
1005.433	0.00945435
1005.592	0.00907263
1005.752	0.00903381
1005.911	0.00983317
1006.071	0.00946897
1006.23	0.00924349
1006.389	0.00943421
1006.549	0.01003723
1006.708	0.01162829
1006.868	0.0113366
1007.027	0.01136835
1007.186	0.01048893
1007.345	0.01063519
1007.505	0.01105293
1007.664	0.01108111
1007.823	0.01014213
1007.982	0.01009289
1008.142	0.01039996
1008.301	0.0106695
1008.46	0.01138644
1008.619	0.01055779
1008.778	0.01118099
1008.937	0.01271679
1009.096	0.01276949
1009.255	0.01359459
1009.414	0.01405799
1009.573	0.01386573
1009.732	0.01513954
1009.891	0.01474595
1010.05	0.01445663
1010.209	0.01439898
1010.368	0.01308809
1010.527	0.01323366
1010.686	0.01201127
1010.845	0.01188086
1011.003	0.01168
1011.162	0.01050232
1011.321	0.01098052
1011.48	0.01222419
1011.638	0.01186286
1011.797	0.01341164
1011.956	0.0117748
1012.115	0.01202088
1012.273	0.01276178
1012.432	0.01207
1012.59	0.01081041
1012.749	0.0110936
1012.908	0.01030396
1013.066	0.01141458
1013.225	0.01143072
1013.383	0.01157055
1013.542	0.01283455
1013.7	0.01270124
1013.859	0.01473406
1014.017	0.01414794
1014.175	0.01387133
1014.334	0.01459784
1014.492	0.01539243
1014.65	0.01413838
1014.809	0.01459762
1014.967	0.01313405
1015.125	0.01471064
1015.284	0.0158255
1015.442	0.0143056
1015.6	0.0131797
1015.758	0.01271136
1015.916	0.01327862
1016.075	0.01328348
1016.233	0.01213459
1016.391	0.01217875
1016.549	0.01309767
1016.707	0.01313474
1016.865	0.01554852
1017.023	0.01303155
1017.181	0.01407104
1017.339	0.01508533
1017.497	0.0150202
1017.655	0.01456718
1017.813	0.01626225
1017.971	0.01350533
1018.129	0.01540469
1018.286	0.0145592
1018.444	0.01358602
1018.602	0.01365717
1018.76	0.01506498
1018.918	0.01334657
1019.075	0.01670994
1019.233	0.0169988
1019.391	0.01719664
1019.549	0.01805341
1019.706	0.01939776
1019.864	0.01920027
1020.022	0.01982722
1020.179	0.01656545
1020.337	0.01549704
1020.494	0.01552868
1020.652	0.01697344
1020.809	0.01648248
1020.967	0.01578637
1021.124	0.01703179
1021.282	0.0201643
1021.439	0.02117094
1021.597	0.02166366
1021.754	0.02183089
1021.911	0.02177719
1022.069	0.02148029
1022.226	0.01846661
1022.384	0.01861383
1022.541	0.02158844
1022.698	0.02175481
1022.855	0.02037426
1023.013	0.02086002
1023.17	0.02165224
1023.327	0.02343753
1023.484	0.02200662
1023.641	0.02013394
1023.798	0.02153859
1023.956	0.02579735
1024.113	0.02480871
1024.27	0.0263589
1024.427	0.02631841
1024.584	0.02622187
1024.741	0.02495219
1024.898	0.02191317
1025.055	0.02018852
1025.212	0.0174999
1025.369	0.01678194
1025.525	0.01714884
1025.682	0.01684706
1025.839	0.01501474
1025.996	0.01888179
1026.153	0.01847806
1026.31	0.02113452
1026.466	0.02053019
1026.623	0.02245893
1026.78	0.02533821
1026.937	0.03295085
1027.093	0.03011051
1027.25	0.02784644
1027.407	0.02835162
1027.563	0.03013397
1027.72	0.0302909
1027.876	0.02886555
1028.033	0.0277332
1028.19	0.02766764
1028.346	0.02674335
1028.503	0.02776189
1028.659	0.02686847
1028.816	0.02528589
1028.972	0.02573193
1029.128	0.02630737
1029.285	0.02830939
1029.441	0.03148161
1029.598	0.02662918
1029.754	0.03160067
1029.91	0.03213648
1030.067	0.03043623
1030.223	0.03213768
1030.379	0.03111934
1030.535	0.02806109
1030.691	0.03251966
1030.848	0.03024037
1031.004	0.03287318
1031.16	0.03611001
1031.316	0.03255172
1031.472	0.03805867
1031.628	0.04517777
1031.784	0.04311321
1031.94	0.04041628
1032.096	0.04074276
1032.252	0.03970458
1032.408	0.04078839
1032.564	0.03805042
1032.72	0.04004215
1032.876	0.04569714
1033.032	0.04656373
1033.188	0.04713427
1033.344	0.04677876
1033.5	0.04581598
1033.655	0.04547064
1033.811	0.03994179
1033.967	0.0385021
