Data from 0_1_mm_pl_60pc_Absorbance__0__15-53-15-708.txt Node

Date: Fri Feb 24 15:53:15 CET 2023
User: Ange
Spectrometer: FLMT08341
Trigger mode: 0
Integration Time (sec): 1.000000E-2
Scans to average: 400
Electric dark correction enabled: true
Nonlinearity correction enabled: false
Boxcar width: 3
XAxis mode: Wavelengths
Number of Pixels in Spectrum: 3648
>>>>>Begin Spectral Data<<<<<
345.271	0.04729892
345.487	0.04364906
345.704	0.02243027
345.921	0.03131497
346.137	0.01962796
346.354	0.02334219
346.571	0.03467593
346.787	0.05580359
347.004	-0.08403929
347.22	-0.18832914
347.437	-0.14925885
347.653	-0.37567237
347.87	0.29369492
348.086	0.30003391
348.303	-0
348.519	0.59014484
348.736	0.5970708
348.952	0.61040977
349.169	0.64226706
349.385	0.680412
349.601	0.67621177
349.818	0.66140088
350.034	0.64978744
350.251	0.64463164
350.467	0.64855786
350.683	0.62243923
350.9	0.6198769
351.116	0.61061385
351.332	0.60375495
351.549	0.62570242
351.765	0.65049314
351.981	0.65975027
352.197	0.69231113
352.414	0.72209707
352.63	0.74273918
352.846	0.77076764
353.062	0.74923641
353.278	0.72088835
353.495	0.74219739
353.711	0.74226457
353.927	0.74651403
354.143	0.74177223
354.359	0.72673028
354.575	0.7262221
354.792	0.75949534
355.008	0.73486305
355.224	0.72517237
355.44	0.71764542
355.656	0.71869854
355.872	0.73939647
356.088	0.79351434
356.304	0.79073652
356.52	0.79524056
356.736	0.80146174
356.952	0.80262157
357.168	0.80228399
357.384	0.80959382
357.6	0.76830236
357.816	0.77588418
358.032	0.7998031
358.248	0.82975715
358.464	0.83227743
358.679	0.84523622
358.895	0.84121703
359.111	0.86336569
359.327	0.83680782
359.543	0.83521339
359.759	0.83834247
359.974	0.83885473
360.19	0.82937257
360.406	0.83048766
360.622	0.82056914
360.838	0.82189706
361.053	0.83169206
361.269	0.83293719
361.485	0.84298581
361.701	0.85359039
361.916	0.8367931
362.132	0.83881511
362.348	0.8514319
362.563	0.84888674
362.779	0.83690303
362.995	0.8381566
363.21	0.85028234
363.426	0.86016073
363.641	0.86106957
363.857	0.87218382
364.073	0.86350308
364.288	0.85428136
364.504	0.86831481
364.719	0.86558002
364.935	0.86393805
365.15	0.8704047
365.366	0.86693244
365.581	0.88631089
365.797	0.89470121
366.012	0.87910225
366.228	0.86286555
366.443	0.88249677
366.658	0.8817419
366.874	0.87169064
367.089	0.87763698
367.305	0.88358631
367.52	0.88532482
367.735	0.89022382
367.951	0.87452158
368.166	0.87771829
368.381	0.89964797
368.597	0.88217192
368.812	0.89131358
369.027	0.90003708
369.243	0.90861215
369.458	0.94016377
369.673	0.94379962
369.888	0.94046031
370.104	0.93998744
370.319	0.93821014
370.534	0.92833082
370.749	0.92478772
370.964	0.91927986
371.179	0.91644554
371.395	0.90648471
371.61	0.91675887
371.825	0.90303497
372.04	0.91056926
372.255	0.90728508
372.47	0.89385025
372.685	0.88380701
372.9	0.88012205
373.115	0.86905072
373.33	0.87646901
373.545	0.87155448
373.76	0.87523432
373.975	0.86774446
374.19	0.86265923
374.405	0.86539726
374.62	0.87892374
374.835	0.88907202
375.05	0.89118706
375.265	0.88814436
375.48	0.89731257
375.695	0.92241347
375.91	0.91716234
376.125	0.89605593
376.339	0.8756827
376.554	0.87712432
376.769	0.87636779
376.984	0.86881547
377.199	0.86458553
377.414	0.85762104
377.628	0.87057561
377.843	0.87894643
378.058	0.8734812
378.273	0.88091471
378.487	0.88566717
378.702	0.88588389
378.917	0.88698721
379.131	0.87658299
379.346	0.85975452
379.561	0.85263513
379.775	0.84093978
379.99	0.82905013
380.205	0.81438013
380.419	0.80513586
380.634	0.79221193
380.848	0.80107021
381.063	0.79975493
381.278	0.80473173
381.492	0.7957666
381.707	0.80181899
381.921	0.79969672
382.136	0.81278734
382.35	0.80421789
382.565	0.79973449
382.779	0.79523212
382.994	0.8009237
383.208	0.79036643
383.422	0.79829225
383.637	0.78983809
383.851	0.79532928
384.066	0.79728031
384.28	0.79668847
384.494	0.79481374
384.709	0.79626806
384.923	0.78881646
385.137	0.78089695
385.352	0.77499468
385.566	0.77204727
385.78	0.7659533
385.995	0.75953206
386.209	0.75208516
386.423	0.75444017
386.637	0.7570588
386.852	0.74831933
387.066	0.74375231
387.28	0.73612505
387.494	0.73846938
387.708	0.73654644
387.923	0.73071853
388.137	0.72911563
388.351	0.72856707
388.565	0.72782906
388.779	0.72795775
388.993	0.72991748
389.207	0.72892446
389.421	0.72640199
389.635	0.71908764
389.85	0.71519328
390.064	0.71133721
390.278	0.70939468
390.492	0.70440284
390.706	0.70200764
390.92	0.69920834
391.134	0.70166193
391.348	0.70700826
391.561	0.70239768
391.775	0.69688677
391.989	0.68783866
392.203	0.68532373
392.417	0.68326417
392.631	0.68154532
392.845	0.67339239
393.059	0.67416568
393.273	0.67126007
393.486	0.66654486
393.7	0.66009348
393.914	0.65859758
394.128	0.65309579
394.342	0.64764546
394.555	0.63841514
394.769	0.63617425
394.983	0.63664418
395.197	0.63638165
395.41	0.63251806
395.624	0.63124854
395.838	0.62855516
396.051	0.63297761
396.265	0.628659
396.479	0.62659457
396.692	0.62495344
396.906	0.61980719
397.12	0.61529862
397.333	0.61559779
397.547	0.61051415
397.76	0.61031221
397.974	0.60795226
398.187	0.60502498
398.401	0.60460514
398.614	0.60237424
398.828	0.59893255
399.041	0.59638829
399.255	0.59306828
399.468	0.58946541
399.682	0.58683029
399.895	0.58464434
400.109	0.58111185
400.322	0.57794263
400.536	0.57287645
400.749	0.57290837
400.962	0.57125011
401.176	0.56780816
401.389	0.56432834
401.602	0.55932298
401.816	0.55778545
402.029	0.55812366
402.242	0.55354609
402.456	0.55084724
402.669	0.54718332
402.882	0.54189623
403.095	0.5432692
403.309	0.54073813
403.522	0.53885793
403.735	0.53580604
403.948	0.53335403
404.161	0.53607823
404.375	0.53629607
404.588	0.53388164
404.801	0.53133265
405.014	0.52737218
405.227	0.52691283
405.44	0.52616504
405.653	0.52335745
405.866	0.51927097
406.079	0.51587708
406.293	0.51345562
406.506	0.51121537
406.719	0.5087853
406.932	0.50579479
407.145	0.50151514
407.358	0.50250798
407.571	0.49989595
407.784	0.49904567
407.996	0.49773197
408.209	0.49443833
408.422	0.49129546
408.635	0.4901344
408.848	0.48806801
409.061	0.48522724
409.274	0.48230846
409.487	0.48045872
409.7	0.47929603
409.912	0.47886447
410.125	0.47664053
410.338	0.47415901
410.551	0.4730837
410.764	0.4712354
410.976	0.46914626
411.189	0.46780074
411.402	0.46493491
411.615	0.46373328
411.827	0.46210692
412.04	0.46096596
412.253	0.45909294
412.465	0.45679394
412.678	0.45467499
412.891	0.45407469
413.103	0.45062882
413.316	0.44863289
413.529	0.44781669
413.741	0.44713042
413.954	0.44666987
414.166	0.44497185
414.379	0.44302001
414.591	0.44267834
414.804	0.44094541
415.016	0.43906449
415.229	0.43686047
415.441	0.43424302
415.654	0.43328206
415.866	0.43183616
416.079	0.43091306
416.291	0.42955747
416.504	0.42861219
416.716	0.42794521
416.928	0.42700754
417.141	0.42509872
417.353	0.4236073
417.566	0.42124195
417.778	0.41971837
417.99	0.41687595
418.203	0.41437083
418.415	0.41303679
418.627	0.41222859
418.839	0.41125089
419.052	0.41136737
419.264	0.41052294
419.476	0.41016908
419.688	0.40940848
419.901	0.40811134
420.113	0.40630985
420.325	0.40484998
420.537	0.40224267
420.749	0.40136854
420.961	0.40016059
421.174	0.39858601
421.386	0.3969171
421.598	0.39563394
421.81	0.39442841
422.022	0.39303746
422.234	0.39149208
422.446	0.39004649
422.658	0.38891111
422.87	0.38848136
423.082	0.3875893
423.294	0.38624203
423.506	0.38573959
423.718	0.38438272
423.93	0.38290588
424.142	0.38173983
424.354	0.38009609
424.566	0.37884215
424.778	0.37802133
424.99	0.37674239
425.202	0.37525874
425.414	0.37440588
425.625	0.37379176
425.837	0.37227416
426.049	0.37154015
426.261	0.37044955
426.473	0.36913971
426.684	0.36845001
426.896	0.36782281
427.108	0.36636688
427.32	0.36629658
427.531	0.36496968
427.743	0.36396911
427.955	0.36374139
428.167	0.36264757
428.378	0.36142008
428.59	0.36062945
428.802	0.35961604
429.013	0.35867816
429.225	0.35760592
429.436	0.35642491
429.648	0.35607542
429.86	0.35563538
430.071	0.35494626
430.283	0.3541556
430.494	0.35329469
430.706	0.35262318
430.917	0.35170827
431.129	0.35076435
431.34	0.34977281
431.552	0.34909012
431.763	0.34807774
431.975	0.34775161
432.186	0.34675445
432.398	0.34609712
432.609	0.34475125
432.821	0.34394795
433.032	0.34320314
433.243	0.34221124
433.455	0.34121363
433.666	0.34060527
433.877	0.34031614
434.089	0.339617
434.3	0.33868916
434.511	0.33744576
434.723	0.33705238
434.934	0.33616033
435.145	0.33512512
435.356	0.33388457
435.568	0.33333737
435.779	0.33264578
435.99	0.33179797
436.201	0.33098937
436.412	0.33014283
436.624	0.32963907
436.835	0.32899119
437.046	0.3287177
437.257	0.32804686
437.468	0.32805716
437.679	0.32764656
437.89	0.32732761
438.101	0.32701184
438.312	0.32651251
438.523	0.32556502
438.734	0.32510743
438.945	0.32455717
439.156	0.32348005
439.367	0.32294854
439.578	0.32240638
439.789	0.32141249
440	0.32095474
440.211	0.32009194
440.422	0.31947768
440.633	0.31906979
440.844	0.31809835
441.055	0.31734179
441.266	0.31723466
441.477	0.31642775
441.687	0.31603658
441.898	0.31551021
442.109	0.31491992
442.32	0.3144537
442.531	0.31364403
442.741	0.3124032
442.952	0.3118896
443.163	0.311415
443.374	0.31070189
443.584	0.31019794
443.795	0.30989816
444.006	0.30954762
444.216	0.30920402
444.427	0.30842949
444.638	0.30767799
444.848	0.30690901
445.059	0.30644438
445.27	0.30555768
445.48	0.30495775
445.691	0.30473758
445.901	0.30448698
446.112	0.3042367
446.323	0.30351289
446.533	0.30271043
446.744	0.30226828
446.954	0.30162858
447.165	0.30106051
447.375	0.30090912
447.586	0.30057774
447.796	0.30044638
448.006	0.30024051
448.217	0.3001943
448.427	0.29973119
448.638	0.2992136
448.848	0.29816226
449.058	0.297436
449.269	0.29706359
449.479	0.29649331
449.689	0.29577171
449.9	0.29533518
450.11	0.29490963
450.32	0.29483734
450.531	0.29431172
450.741	0.29388694
450.951	0.29367866
451.161	0.29340779
451.372	0.29318029
451.582	0.2932179
451.792	0.29274091
452.002	0.29255058
452.212	0.29194048
452.422	0.29159753
452.633	0.29101097
452.843	0.29097561
453.053	0.2900135
453.263	0.28981258
453.473	0.2893324
453.683	0.28929672
453.893	0.28859567
454.103	0.28857992
454.313	0.2879091
454.523	0.28769564
454.733	0.28741979
454.943	0.28738864
455.153	0.28701892
455.363	0.28688902
455.573	0.28646293
455.783	0.28623739
455.993	0.28588469
456.203	0.28568987
456.413	0.28528319
456.623	0.28470321
456.833	0.28454665
457.042	0.28415798
457.252	0.2839607
457.462	0.28365342
457.672	0.28322688
457.882	0.28291578
458.091	0.28262087
458.301	0.28215789
458.511	0.28182838
458.721	0.2814991
458.931	0.28120244
459.14	0.28093365
459.35	0.28064627
459.56	0.28042462
459.769	0.2803082
459.979	0.28006475
460.189	0.27964849
460.398	0.27936191
460.608	0.27904836
460.817	0.27876587
461.027	0.27872146
461.237	0.27836092
461.446	0.27815577
461.656	0.27810512
461.865	0.2779375
462.075	0.27769948
462.284	0.27749065
462.494	0.27710316
462.703	0.27682813
462.913	0.27656353
463.122	0.27615953
463.332	0.27585341
463.541	0.27575947
463.751	0.27555466
463.96	0.27544045
464.169	0.27515965
464.379	0.27522077
464.588	0.27526292
464.797	0.27524
465.007	0.27509259
465.216	0.27490243
465.425	0.27489653
465.635	0.27497836
465.844	0.2746378
466.053	0.27436947
466.263	0.27419193
466.472	0.27395365
466.681	0.27393349
466.89	0.27367719
467.099	0.273582
467.309	0.27353191
467.518	0.2735639
467.727	0.27355922
467.936	0.27344745
468.145	0.27331935
468.354	0.27335682
468.563	0.27320821
468.772	0.27301048
468.982	0.2728144
469.191	0.27299616
469.4	0.27285912
469.609	0.27265859
469.818	0.27273423
470.027	0.27265282
470.236	0.27260417
470.445	0.2725297
470.654	0.27210349
470.863	0.2720064
471.072	0.2720496
471.28	0.27172465
471.489	0.27176187
471.698	0.27175707
471.907	0.27164905
472.116	0.27170668
472.325	0.27180551
472.534	0.27179238
472.743	0.27164801
472.951	0.27178294
473.16	0.27175027
473.369	0.27185521
473.578	0.27189782
473.786	0.27186323
473.995	0.27180618
474.204	0.27199703
474.413	0.27182688
474.621	0.27199119
474.83	0.27213059
475.039	0.27207027
475.247	0.27225305
475.456	0.27242033
475.665	0.27244603
475.873	0.27245528
476.082	0.27240526
476.291	0.27237666
476.499	0.27261009
476.708	0.27241913
476.916	0.27239102
477.125	0.27246597
477.333	0.27260992
477.542	0.27271686
477.75	0.27276345
477.959	0.27272021
478.167	0.27298239
478.376	0.27307674
478.584	0.2731024
478.793	0.2730811
479.001	0.27303378
479.209	0.27299486
479.418	0.2729867
479.626	0.27288269
479.834	0.27288315
480.043	0.2730287
480.251	0.27306016
480.459	0.27318022
480.668	0.27342053
480.876	0.27365711
481.084	0.27386323
481.293	0.27399896
481.501	0.27394999
481.709	0.27424313
481.917	0.27439079
482.125	0.2744272
482.334	0.27447355
482.542	0.27465898
482.75	0.27488921
482.958	0.27522455
483.166	0.2753801
483.374	0.27559697
483.583	0.27584613
483.791	0.27606385
483.999	0.2761225
484.207	0.27630058
484.415	0.27642576
484.623	0.27651434
484.831	0.27676956
485.039	0.27698675
485.247	0.27719285
485.455	0.27743715
485.663	0.27764871
485.871	0.27785653
486.079	0.27805001
486.287	0.27815648
486.495	0.2782807
486.702	0.27844106
486.91	0.27864503
487.118	0.27880244
487.326	0.27898694
487.534	0.27917439
487.742	0.27941182
487.95	0.27961805
488.157	0.27988921
488.365	0.28023193
488.573	0.28046469
488.781	0.28075904
488.988	0.28122943
489.196	0.28154481
489.404	0.28180812
489.612	0.28204023
489.819	0.28229675
490.027	0.28259156
490.235	0.28280128
490.442	0.28300905
490.65	0.28321809
490.857	0.2835639
491.065	0.28388082
491.273	0.28414641
491.48	0.28450891
491.688	0.28482886
491.895	0.2850747
492.103	0.2853848
492.31	0.28564405
492.518	0.28594418
492.725	0.28629152
492.933	0.28649956
493.14	0.28678042
493.348	0.2870847
493.555	0.28742205
493.763	0.28774893
493.97	0.28808047
494.177	0.28834838
494.385	0.28872596
494.592	0.28908897
494.8	0.28940168
495.007	0.28972205
495.214	0.29007077
495.422	0.29032524
495.629	0.29068801
495.836	0.29098977
496.043	0.29143589
496.251	0.29182524
496.458	0.29212777
496.665	0.2924545
496.872	0.2928681
497.08	0.29324646
497.287	0.29367634
497.494	0.29396828
497.701	0.29437082
497.908	0.29486106
498.115	0.29533998
498.322	0.29568876
498.53	0.29601275
498.737	0.29634191
498.944	0.29669827
499.151	0.29704493
499.358	0.29739041
499.565	0.29763652
499.772	0.29811748
499.979	0.29857458
500.186	0.29900319
500.393	0.29944604
500.6	0.29982317
500.807	0.30027396
501.014	0.30079565
501.221	0.30117294
501.427	0.30153523
501.634	0.30202296
501.841	0.30248957
502.048	0.3029554
502.255	0.30328264
502.462	0.3037955
502.669	0.30433359
502.875	0.30484571
503.082	0.30522678
503.289	0.30565162
503.496	0.30611996
503.702	0.30660785
503.909	0.30702637
504.116	0.30736187
504.323	0.30776199
504.529	0.30828208
504.736	0.30881105
504.943	0.30928778
505.149	0.30984871
505.356	0.31035048
505.563	0.31090104
505.769	0.31146217
505.976	0.31189632
506.182	0.31240366
506.389	0.31297754
506.595	0.31346752
506.802	0.31391795
507.008	0.31440206
507.215	0.31488365
507.421	0.31538352
507.628	0.31582975
507.834	0.31621027
508.041	0.31667783
508.247	0.31712283
508.454	0.31766455
508.66	0.31811889
508.866	0.31862402
509.073	0.31919656
509.279	0.31976085
509.486	0.32029818
509.692	0.32090266
509.898	0.32147481
510.105	0.32208229
510.311	0.32261072
510.517	0.32305726
510.723	0.32357855
510.93	0.3241337
511.136	0.3247023
511.342	0.32522735
511.548	0.3257505
511.754	0.32639532
511.961	0.32699699
512.167	0.32750206
512.373	0.32804915
512.579	0.32861181
512.785	0.3291717
512.991	0.32976901
513.197	0.33030997
513.404	0.33089647
513.61	0.33154941
513.816	0.33207888
514.022	0.33264431
514.228	0.33320679
514.434	0.33369508
514.64	0.33429099
514.846	0.33493892
515.052	0.33547041
515.258	0.3361368
515.464	0.33667565
515.669	0.3372535
515.875	0.33788023
516.081	0.33844439
516.287	0.33902687
516.493	0.33967652
516.699	0.34021718
516.905	0.34082899
517.111	0.34143847
517.316	0.34208414
517.522	0.34274211
517.728	0.34337038
517.934	0.34395864
518.139	0.34457851
518.345	0.34517246
518.551	0.34582786
518.757	0.34643294
518.962	0.347024
519.168	0.34756951
519.374	0.34816686
519.579	0.34882587
519.785	0.34948143
519.991	0.35006658
520.196	0.35059722
520.402	0.35119154
520.607	0.35185486
520.813	0.3525806
521.018	0.35319112
521.224	0.35371776
521.429	0.35438742
521.635	0.3551137
521.84	0.35566333
522.046	0.35635559
522.251	0.35687979
522.457	0.35748991
522.662	0.35819211
522.868	0.35882067
523.073	0.35944131
523.279	0.36016406
523.484	0.36067016
523.689	0.36131993
523.895	0.36201546
524.1	0.36265945
524.305	0.36328981
524.511	0.36396784
524.716	0.36463353
524.921	0.36530768
525.126	0.36600396
525.332	0.3665854
525.537	0.36726537
525.742	0.36792088
525.947	0.368636
526.153	0.36928043
526.358	0.37002794
526.563	0.37062489
526.768	0.37131215
526.973	0.37199004
527.178	0.3726437
527.383	0.37321718
527.588	0.37389123
527.794	0.37453042
527.999	0.37531547
528.204	0.37600306
528.409	0.37663128
528.614	0.37738418
528.819	0.3780562
529.024	0.37871462
529.229	0.37930192
529.434	0.37990441
529.639	0.38050724
529.843	0.38117957
530.048	0.38175173
530.253	0.38235017
530.458	0.38307859
530.663	0.38377405
530.868	0.38448099
531.073	0.38516834
531.278	0.38580322
531.482	0.38648252
531.687	0.38723123
531.892	0.3878302
532.097	0.38847424
532.302	0.3890885
532.506	0.38976567
532.711	0.39043244
532.916	0.39106328
533.12	0.39168349
533.325	0.39230549
533.53	0.39297728
533.734	0.39369434
533.939	0.39436298
534.144	0.39498003
534.348	0.39568055
534.553	0.39637376
534.757	0.39704496
534.962	0.39775329
535.167	0.39842921
535.371	0.39909403
535.576	0.39989553
535.78	0.40062693
535.985	0.40134317
536.189	0.40201011
536.394	0.40271486
536.598	0.40329309
536.803	0.40395895
537.007	0.40456612
537.211	0.40519399
537.416	0.40582104
537.62	0.40650425
537.825	0.40709068
538.029	0.40791172
538.233	0.40853996
538.438	0.40924232
538.642	0.40984066
538.846	0.41050892
539.05	0.41119952
539.255	0.41182276
539.459	0.41243577
539.663	0.4131689
539.867	0.41378948
540.072	0.41447935
540.276	0.41512442
540.48	0.4158125
540.684	0.41652611
540.888	0.41718743
541.092	0.41774217
541.297	0.41836581
541.501	0.41900773
541.705	0.41964331
541.909	0.42018273
542.113	0.42074065
542.317	0.42131456
542.521	0.42196793
542.725	0.42271565
542.929	0.42340469
543.133	0.42405601
543.337	0.4247622
543.541	0.42548632
543.745	0.42609432
543.949	0.42676523
544.153	0.42724486
544.357	0.42776391
544.56	0.42838216
544.764	0.42901244
544.968	0.42957747
545.172	0.43017411
545.376	0.43079517
545.58	0.43148743
545.783	0.4321623
545.987	0.43271525
546.191	0.43322925
546.395	0.43386552
546.598	0.43452975
546.802	0.43515551
547.006	0.43567759
547.21	0.4361849
547.413	0.43684942
547.617	0.43751027
547.821	0.43809355
548.024	0.43872898
548.228	0.43922555
548.431	0.43984617
548.635	0.44045798
548.839	0.44098176
549.042	0.44160894
549.246	0.44219143
549.449	0.44268898
549.653	0.44332694
549.856	0.4438781
550.06	0.44442388
550.263	0.44499397
550.467	0.44547725
550.67	0.44601623
550.874	0.44652705
551.077	0.44705433
551.28	0.44767197
551.484	0.44825185
551.687	0.44870221
551.891	0.44928201
552.094	0.44974491
552.297	0.4502862
552.501	0.45086383
552.704	0.45130401
552.907	0.45183461
553.11	0.45239331
553.314	0.45288754
553.517	0.45331455
553.72	0.45387382
553.923	0.45436821
554.127	0.45485038
554.33	0.45520766
554.533	0.45569343
554.736	0.45607191
554.939	0.45659417
555.142	0.45710523
555.345	0.4575347
555.549	0.45812559
555.752	0.45863543
555.955	0.45910906
556.158	0.45973012
556.361	0.46028579
556.564	0.46070872
556.767	0.4612036
556.97	0.46160769
557.173	0.46210883
557.376	0.46263708
557.579	0.46299361
557.782	0.46341498
557.984	0.46383491
558.187	0.46432288
558.39	0.46467035
558.593	0.46518334
558.796	0.46554538
558.999	0.46595785
559.202	0.46637554
559.404	0.46676121
559.607	0.46705677
559.81	0.46753397
560.013	0.46784197
560.216	0.46822828
560.418	0.46862751
560.621	0.46900201
560.824	0.46939861
561.026	0.46985223
561.229	0.47016787
561.432	0.47057906
561.634	0.47097549
561.837	0.47128596
562.04	0.47162002
562.242	0.4719953
562.445	0.47223484
562.647	0.47261195
562.85	0.47285012
563.053	0.47314272
563.255	0.47356789
563.458	0.47393938
563.66	0.47424146
563.863	0.47467941
564.065	0.47501568
564.268	0.47538729
564.47	0.47574185
564.672	0.47601528
564.875	0.47636924
565.077	0.47665008
565.28	0.47691275
565.482	0.47725927
565.684	0.47752305
565.887	0.47777494
566.089	0.47800439
566.291	0.47820361
566.494	0.47846242
566.696	0.47866444
566.898	0.47889206
567.1	0.47915161
567.303	0.47939426
567.505	0.4796584
567.707	0.47984796
567.909	0.48003833
568.111	0.48030394
568.314	0.48053236
568.516	0.48074558
568.718	0.48089846
568.92	0.48108978
569.122	0.48128913
569.324	0.48156676
569.526	0.48176043
569.728	0.48193902
569.93	0.48215219
570.132	0.48238705
570.334	0.48259426
570.536	0.48282271
570.738	0.48293699
570.94	0.48304785
571.142	0.48322483
571.344	0.48331869
571.546	0.48345539
571.748	0.48362117
571.95	0.48367591
572.152	0.48376756
572.354	0.48395149
572.555	0.48404697
572.757	0.48427105
572.959	0.48436412
573.161	0.48439716
573.363	0.48456285
573.564	0.48481384
573.766	0.48487179
573.968	0.48499236
574.17	0.48497158
574.371	0.48511778
574.573	0.48526573
574.775	0.48526042
574.976	0.48519908
575.178	0.48526657
575.38	0.48521445
575.581	0.48529054
575.783	0.48533731
575.985	0.48537641
576.186	0.4855563
576.388	0.48563177
576.589	0.48563733
576.791	0.4857935
576.992	0.48588995
577.194	0.48588344
577.395	0.48585955
577.597	0.48587083
577.798	0.4859194
578	0.48597336
578.201	0.48598961
578.402	0.48600172
578.604	0.48597596
578.805	0.48610188
579.007	0.48610215
579.208	0.48619801
579.409	0.48613081
579.611	0.48605213
579.812	0.4860823
580.013	0.48613721
580.215	0.48590299
580.416	0.48587554
580.617	0.48568528
580.818	0.48574008
581.019	0.48571965
581.221	0.48560633
581.422	0.48562489
581.623	0.4857874
581.824	0.48563927
582.025	0.48561138
582.226	0.48554189
582.428	0.48552318
582.629	0.485418
582.83	0.48531883
583.031	0.48513689
583.232	0.48516309
583.433	0.48515624
583.634	0.4850521
583.835	0.48492327
584.036	0.48485808
584.237	0.48465401
584.438	0.4845809
584.639	0.48435661
584.84	0.48433168
585.041	0.48423119
585.242	0.48416373
585.442	0.48407603
585.643	0.48412206
585.844	0.48400778
586.045	0.48399167
586.246	0.48371708
586.447	0.48352569
586.647	0.48331332
586.848	0.48317395
587.049	0.4830029
587.25	0.4828522
587.45	0.48266132
587.651	0.48262061
587.852	0.4825047
588.053	0.48247509
588.253	0.48235037
588.454	0.4821783
588.655	0.48204037
588.855	0.48189394
589.056	0.4817211
589.256	0.48163763
589.457	0.48149459
589.658	0.48135454
589.858	0.48115318
590.059	0.48106769
590.259	0.48096504
590.46	0.48082686
590.66	0.48064806
590.861	0.48049372
591.061	0.48032175
591.262	0.48028298
591.462	0.48016714
591.662	0.48006846
591.863	0.4798958
592.063	0.4798534
592.264	0.47971508
592.464	0.47957946
592.664	0.47944145
592.865	0.47932206
593.065	0.47904033
593.265	0.47898089
593.465	0.47872275
593.666	0.47859674
593.866	0.47838969
594.066	0.47825245
594.266	0.47795041
594.467	0.47777586
594.667	0.4774618
594.867	0.47730675
595.067	0.47704048
595.267	0.47686545
595.467	0.47663542
595.668	0.47651988
595.868	0.47638156
596.068	0.47630623
596.268	0.47604034
596.468	0.47597942
596.668	0.47578298
596.868	0.47555405
597.068	0.47532364
597.268	0.47521397
597.468	0.47490624
597.668	0.47482295
597.868	0.47459632
598.068	0.47449083
598.268	0.47431303
598.467	0.47425039
598.667	0.4739835
598.867	0.47376342
599.067	0.47353941
599.267	0.47333368
599.467	0.47306011
599.667	0.47289998
599.866	0.47264738
600.066	0.47247975
600.266	0.47234791
600.466	0.47223146
600.665	0.47200855
600.865	0.47190259
601.065	0.47175086
601.264	0.47159487
601.464	0.47141553
601.664	0.47138671
601.863	0.47122758
602.063	0.47117743
602.263	0.47088505
602.462	0.47071663
602.662	0.47053009
602.861	0.47046978
603.061	0.47023013
603.26	0.47005408
603.46	0.46978451
603.659	0.46975974
603.859	0.46954945
604.058	0.46935071
604.258	0.46920538
604.457	0.46920141
604.657	0.4688976
604.856	0.46866126
605.056	0.4685095
605.255	0.4683316
605.454	0.46826802
605.654	0.46800113
605.853	0.4677231
606.052	0.46768386
606.252	0.46767987
606.451	0.46752521
606.65	0.4675029
606.849	0.467304
607.049	0.46718477
607.248	0.46701364
607.447	0.4668601
607.646	0.46676313
607.845	0.46669377
608.045	0.46641428
608.244	0.46636216
608.443	0.46631583
608.642	0.4663031
608.841	0.46621122
609.04	0.466011
609.239	0.46592947
609.438	0.46586818
609.637	0.46580796
609.836	0.46567329
610.035	0.46557742
610.234	0.46557214
610.433	0.46557582
610.632	0.46548736
610.831	0.465577
611.03	0.46542511
611.229	0.46554479
611.428	0.46546974
611.627	0.46543819
611.826	0.46543395
612.025	0.46550982
612.224	0.46534953
612.422	0.46539772
612.621	0.46523773
612.82	0.46528838
613.019	0.46518073
613.218	0.46515928
613.416	0.46488319
613.615	0.46493021
613.814	0.46489791
614.012	0.46490063
614.211	0.46469429
614.41	0.46478581
614.608	0.46469958
614.807	0.46476088
615.006	0.46474762
615.204	0.46464978
615.403	0.46459046
615.602	0.46472474
615.8	0.46473863
615.999	0.46469716
616.197	0.46471758
616.396	0.46483728
616.594	0.46478648
616.793	0.46492553
616.991	0.46488076
617.19	0.46466614
617.388	0.46485958
617.586	0.46494305
617.785	0.46484573
617.983	0.46499701
618.182	0.46490418
618.38	0.4648471
618.578	0.46494143
618.777	0.46488678
618.975	0.46490801
619.173	0.46495464
619.372	0.46499769
619.57	0.46501803
619.768	0.46513042
619.966	0.46527333
620.165	0.46529657
620.363	0.46543356
620.561	0.46536112
620.759	0.46546161
620.957	0.46561489
621.155	0.4657871
621.354	0.46582683
621.552	0.46603059
621.75	0.46596669
621.948	0.4661927
622.146	0.46622674
622.344	0.46628211
622.542	0.46634129
622.74	0.46640143
622.938	0.46629075
623.136	0.46646411
623.334	0.46663493
623.532	0.46662348
623.73	0.46668747
623.928	0.46683198
624.126	0.46706059
624.324	0.46739174
624.522	0.46732184
624.719	0.46736664
624.917	0.46762312
625.115	0.46763821
625.313	0.46775255
625.511	0.46793247
625.708	0.46777019
625.906	0.467996
626.104	0.46802898
626.302	0.46822256
626.499	0.46850033
626.697	0.46862923
626.895	0.46856072
627.093	0.46887593
627.29	0.46913168
627.488	0.46931837
627.686	0.46948528
627.883	0.46957578
628.081	0.46956459
628.278	0.46993799
628.476	0.47003168
628.673	0.47012107
628.871	0.47034406
629.068	0.47042732
629.266	0.47067105
629.463	0.47084458
629.661	0.47092733
629.858	0.47108794
630.056	0.47122348
630.253	0.47129546
630.451	0.47149367
630.648	0.47162201
630.845	0.47184215
631.043	0.47199288
631.24	0.47228626
631.438	0.47255447
631.635	0.47283212
631.832	0.47292644
632.029	0.47317637
632.227	0.47345048
632.424	0.47365888
632.621	0.47376454
632.818	0.47386126
633.016	0.47410081
633.213	0.47429407
633.41	0.47451207
633.607	0.47462785
633.804	0.47477295
634.001	0.47489988
634.199	0.47516633
634.396	0.4753296
634.593	0.47550306
634.79	0.4756642
634.987	0.47595328
635.184	0.47620555
635.381	0.47661259
635.578	0.47691389
635.775	0.47707639
635.972	0.47742303
636.169	0.47760785
636.366	0.47777349
636.563	0.47796714
636.76	0.47795368
636.957	0.47808572
637.153	0.47818056
637.35	0.47838877
637.547	0.47858469
637.744	0.47878967
637.941	0.47905702
638.138	0.47938718
638.334	0.47958409
638.531	0.47996764
638.728	0.48014146
638.925	0.4805318
639.121	0.48076253
639.318	0.48093579
639.515	0.48113606
639.711	0.48144522
639.908	0.48149682
640.105	0.48173595
640.301	0.48189304
640.498	0.48212172
640.695	0.48236679
640.891	0.48255186
641.088	0.48265331
641.284	0.4830436
641.481	0.4832293
641.677	0.48336863
641.874	0.48349355
642.07	0.48375663
642.267	0.48418421
642.463	0.48438867
642.66	0.48466823
642.856	0.48481998
643.053	0.48498661
643.249	0.48536252
643.445	0.48551927
643.642	0.48560977
643.838	0.48594102
644.034	0.48615429
644.231	0.48651056
644.427	0.48680594
644.623	0.48697816
644.82	0.48729213
645.016	0.4875698
645.212	0.48776761
645.408	0.48793504
645.604	0.48828677
645.801	0.48859476
645.997	0.4888141
646.193	0.48893206
646.389	0.48928772
646.585	0.48956476
646.781	0.48988182
646.977	0.4900848
647.173	0.4902966
647.37	0.49049899
647.566	0.4907534
647.762	0.49087778
647.958	0.49117784
648.154	0.49128749
648.35	0.49145984
648.546	0.49165832
648.742	0.49209673
648.937	0.49225072
649.133	0.49255569
649.329	0.49278235
649.525	0.49306565
649.721	0.49319687
649.917	0.49353032
650.113	0.4936594
650.309	0.49414104
650.504	0.49426419
650.7	0.49438155
650.896	0.4946043
651.092	0.4948704
651.287	0.49491465
651.483	0.49516685
651.679	0.49520747
651.875	0.49548803
652.07	0.49569406
652.266	0.49587489
652.462	0.49610863
652.657	0.49636516
652.853	0.49646569
653.048	0.4967252
653.244	0.49678455
653.44	0.49702402
653.635	0.49720531
653.831	0.49745588
654.026	0.49779919
654.222	0.498048
654.417	0.49835912
654.613	0.49863124
654.808	0.49875314
655.004	0.49905889
655.199	0.49918826
655.394	0.49929647
655.59	0.49953955
655.785	0.49955571
655.98	0.49981376
656.176	0.50001559
656.371	0.50029899
656.566	0.50059198
656.762	0.50071912
656.957	0.50090508
657.152	0.50113337
657.348	0.50128186
657.543	0.50154968
657.738	0.50167863
657.933	0.50174352
658.128	0.50196058
658.324	0.50212953
658.519	0.50242816
658.714	0.5026286
658.909	0.50277345
659.104	0.50294132
659.299	0.50323139
659.494	0.50343158
659.689	0.50367953
659.884	0.50374672
660.079	0.50386644
660.274	0.50406647
660.469	0.50424027
660.664	0.50448876
660.859	0.50464391
661.054	0.50478336
661.249	0.50499375
661.444	0.50516038
661.639	0.50525489
661.834	0.50530453
662.029	0.50536728
662.224	0.50553188
662.418	0.50571679
662.613	0.50586239
662.808	0.5060013
663.003	0.50620272
663.198	0.50636912
663.392	0.50638484
663.587	0.50664214
663.782	0.50661224
663.977	0.50674669
664.171	0.50694203
664.366	0.50710868
664.561	0.5073049
664.755	0.50758096
664.95	0.50760625
665.144	0.50785126
665.339	0.50804043
665.534	0.50816655
665.728	0.50826488
665.923	0.50837079
666.117	0.50844384
666.312	0.50857902
666.506	0.50873453
666.701	0.50879262
666.895	0.50897683
667.09	0.50911312
667.284	0.50934287
667.479	0.50947057
667.673	0.50954307
667.867	0.50966943
668.062	0.50977474
668.256	0.5098485
668.45	0.51000461
668.645	0.51000058
668.839	0.51013911
669.033	0.51023064
669.228	0.51020162
669.422	0.51034271
669.616	0.51038483
669.81	0.51055625
670.004	0.5106423
670.199	0.51072981
670.393	0.51088694
670.587	0.5110684
670.781	0.51118924
670.975	0.51134478
671.169	0.51130198
671.363	0.51145196
671.558	0.51152917
671.752	0.51163709
671.946	0.51178766
672.14	0.511863
672.334	0.51189988
672.528	0.51219012
672.722	0.51215975
672.916	0.51223783
673.11	0.51218613
673.304	0.51226027
673.497	0.51218401
673.691	0.51231665
673.885	0.51212067
674.079	0.51229617
674.273	0.51233464
674.467	0.51259514
674.661	0.51259877
674.854	0.51271535
675.048	0.51269519
675.242	0.51287141
675.436	0.51287338
675.629	0.51289672
675.823	0.51274103
676.017	0.51282556
676.211	0.51283505
676.404	0.51287151
676.598	0.51289347
676.792	0.51294857
676.985	0.51309988
677.179	0.51327139
677.372	0.51326861
677.566	0.51340543
677.76	0.51353904
677.953	0.51354016
678.147	0.51364945
678.34	0.51368177
678.534	0.51370581
678.727	0.51377971
678.921	0.51387834
679.114	0.51375829
679.307	0.51384056
679.501	0.5138347
679.694	0.51376461
679.888	0.51374835
680.081	0.51378373
680.274	0.5136692
680.468	0.51386197
680.661	0.51388143
680.854	0.51401991
681.048	0.51412726
681.241	0.51410928
681.434	0.51412378
681.627	0.51426907
681.821	0.51424598
682.014	0.5142894
682.207	0.51418533
682.4	0.51416705
682.593	0.51428383
682.786	0.51424032
682.98	0.5141544
683.173	0.51411823
683.366	0.51402198
683.559	0.51401012
683.752	0.51407922
683.945	0.5139801
684.138	0.51405793
684.331	0.51405036
684.524	0.51413307
684.717	0.51416798
684.91	0.51418976
685.103	0.5141728
685.296	0.51434077
685.489	0.51432087
685.682	0.51435926
685.874	0.5144694
686.067	0.51454772
686.26	0.51458412
686.453	0.51451929
686.646	0.51441246
686.839	0.514431
687.031	0.51436265
687.224	0.5141146
687.417	0.51408361
687.61	0.51403643
687.802	0.51398346
687.995	0.51399769
688.188	0.5139425
688.38	0.51392704
688.573	0.51397167
688.766	0.51389003
688.958	0.51382976
689.151	0.51375019
689.343	0.5137298
689.536	0.51364048
689.729	0.51360203
689.921	0.51358023
690.114	0.51344402
690.306	0.51343987
690.499	0.51350063
690.691	0.51343606
690.884	0.51344409
691.076	0.51351609
691.268	0.51341812
691.461	0.51339787
691.653	0.51338963
691.846	0.51339199
692.038	0.51330315
692.23	0.51312226
692.423	0.51298951
692.615	0.51294494
692.807	0.5129718
692.999	0.51285731
693.192	0.51268562
693.384	0.5127001
693.576	0.51268149
693.768	0.51265172
693.961	0.51254245
694.153	0.5124951
694.345	0.51234189
694.537	0.51228866
694.729	0.51213204
694.921	0.5120361
695.113	0.51203037
695.305	0.5120229
695.498	0.5119005
695.69	0.51197141
695.882	0.51195554
696.074	0.51199976
696.266	0.51199749
696.458	0.51184666
696.65	0.51179346
696.842	0.51178971
697.033	0.51172021
697.225	0.51156663
697.417	0.5115326
697.609	0.51150268
697.801	0.51143004
697.993	0.51142791
698.185	0.51129231
698.376	0.51123735
698.568	0.51124101
698.76	0.51113451
698.952	0.51107871
699.144	0.51104845
699.335	0.51101438
699.527	0.51096177
699.719	0.51081256
699.91	0.51075962
700.102	0.51062023
700.294	0.51051403
700.485	0.51042527
700.677	0.51023372
700.869	0.510295
701.06	0.51033056
701.252	0.51026309
701.443	0.51025077
701.635	0.51028622
701.826	0.51027719
702.018	0.51031668
702.209	0.51018868
702.401	0.51009926
702.592	0.51010878
702.784	0.51001839
702.975	0.50992087
703.166	0.50982392
703.358	0.50964387
703.549	0.5096706
703.741	0.50958903
703.932	0.50947772
704.123	0.50942264
704.315	0.50935948
704.506	0.50939555
704.697	0.50934833
704.888	0.50928841
705.08	0.50927113
705.271	0.50928601
705.462	0.50915748
705.653	0.50907006
705.844	0.50889682
706.035	0.50887076
706.227	0.50869761
706.418	0.50853387
706.609	0.50837046
706.8	0.50835383
706.991	0.50824686
707.182	0.50822284
707.373	0.50810844
707.564	0.50807424
707.755	0.50801336
707.946	0.5079438
708.137	0.5077955
708.328	0.50772365
708.519	0.50760932
708.71	0.5075568
708.901	0.50742791
709.092	0.50740651
709.283	0.50741422
709.473	0.50741666
709.664	0.50741347
709.855	0.50735692
710.046	0.50734525
710.237	0.50733252
710.427	0.50726261
710.618	0.50713001
710.809	0.50704403
711	0.50700756
711.19	0.50685257
711.381	0.506895
711.572	0.50684369
711.762	0.50687608
711.953	0.50681464
712.144	0.5067975
712.334	0.50666172
712.525	0.5067661
712.715	0.50663741
712.906	0.50650462
713.097	0.50625639
713.287	0.50623035
713.478	0.50614305
713.668	0.50616065
713.859	0.50604856
714.049	0.5059735
714.239	0.5059975
714.43	0.5061253
714.62	0.50605713
714.811	0.50603989
715.001	0.50598917
715.191	0.50597266
715.382	0.50591297
715.572	0.50590004
715.762	0.50576552
715.953	0.5057723
716.143	0.505804
716.333	0.50574096
716.523	0.50570752
716.714	0.50574224
716.904	0.50570297
717.094	0.50577678
717.284	0.5056934
717.474	0.50561758
717.664	0.50563852
717.855	0.50557311
718.045	0.50545408
718.235	0.5053762
718.425	0.50534489
718.615	0.50541948
718.805	0.50547626
718.995	0.50546632
719.185	0.50555229
719.375	0.50559699
719.565	0.50566253
719.755	0.50558471
719.945	0.50547956
720.135	0.50544238
720.325	0.50550022
720.515	0.50542652
720.704	0.50541348
720.894	0.50535848
721.084	0.50533262
721.274	0.50531557
721.464	0.50531852
721.654	0.50527541
721.843	0.50528186
722.033	0.5053144
722.223	0.50535568
722.413	0.50547774
722.602	0.50554927
722.792	0.50553827
722.982	0.50548001
723.171	0.50551319
723.361	0.50548569
723.55	0.50554449
723.74	0.50545258
723.93	0.5053897
724.119	0.50538799
724.309	0.50546171
724.498	0.50545305
724.688	0.50548973
724.877	0.50545061
725.067	0.5054187
725.256	0.50549385
725.446	0.50549902
725.635	0.5054027
725.825	0.50536469
726.014	0.50529605
726.203	0.50523035
726.393	0.50510559
726.582	0.50496941
726.771	0.50486481
726.961	0.50482534
727.15	0.50475466
727.339	0.50474567
727.529	0.50479351
727.718	0.50489455
727.907	0.50486883
728.096	0.50481856
728.286	0.50470999
728.475	0.50473649
728.664	0.50463372
728.853	0.50448935
729.042	0.50431302
729.231	0.50429321
729.42	0.50434247
729.609	0.50438179
729.799	0.50422435
729.988	0.50425795
730.177	0.50416048
730.366	0.50424451
730.555	0.50417158
730.744	0.50404541
730.933	0.50404112
731.122	0.50405366
731.31	0.50401282
731.499	0.50406843
731.688	0.50406758
731.877	0.50402508
732.066	0.50411923
732.255	0.50408953
732.444	0.50411669
732.632	0.50409231
732.821	0.5040565
733.01	0.50405589
733.199	0.50397387
733.388	0.50380695
733.576	0.50376943
733.765	0.50379345
733.954	0.50383967
734.142	0.50389661
734.331	0.50398979
734.52	0.50409975
734.708	0.50419963
734.897	0.50423625
735.086	0.50414906
735.274	0.50399413
735.463	0.50388158
735.651	0.50367118
735.84	0.50373763
736.028	0.5037005
736.217	0.50369174
736.405	0.50365808
736.594	0.50373437
736.782	0.50383762
736.971	0.50393419
737.159	0.50394375
737.347	0.50398401
737.536	0.50395191
737.724	0.50405584
737.912	0.50404289
738.101	0.50393986
738.289	0.50391832
738.477	0.50388134
738.666	0.5038783
738.854	0.50394801
739.042	0.50401669
739.23	0.50403455
739.418	0.50414422
739.607	0.50416732
739.795	0.50419741
739.983	0.50433694
740.171	0.5043114
740.359	0.50430154
740.547	0.50426932
740.735	0.50421557
740.923	0.50429275
741.112	0.50429957
741.3	0.50421666
741.488	0.50417858
741.676	0.50432826
741.864	0.50441307
742.052	0.50459845
742.239	0.50450333
742.427	0.50457457
742.615	0.50459691
742.803	0.50472855
742.991	0.50452896
743.179	0.50450419
743.367	0.50446068
743.555	0.50461838
743.742	0.50463215
743.93	0.50475181
744.118	0.50475856
744.306	0.50482069
744.494	0.50484447
744.681	0.50489176
744.869	0.50487757
745.057	0.50491444
745.244	0.50491682
745.432	0.50504502
745.62	0.50516441
745.807	0.5053101
745.995	0.50532412
746.182	0.5052634
746.37	0.50529569
746.558	0.5052341
746.745	0.50514429
746.933	0.50516769
747.12	0.5051885
747.308	0.5053859
747.495	0.50552014
747.683	0.50563145
747.87	0.50574654
748.057	0.50592927
748.245	0.5060813
748.432	0.5061463
748.62	0.50599193
748.807	0.50604166
748.994	0.50599767
749.182	0.5060234
749.369	0.50602786
749.556	0.50602024
749.743	0.5060634
749.931	0.5061169
750.118	0.50625159
750.305	0.50634256
750.492	0.50633455
750.68	0.5064429
750.867	0.506465
751.054	0.50657658
751.241	0.50665192
751.428	0.50666543
751.615	0.50672227
751.802	0.50688821
751.989	0.50683229
752.176	0.50702967
752.363	0.5071472
752.55	0.50722501
752.737	0.50731974
752.924	0.50734914
753.111	0.50741875
753.298	0.50757565
753.485	0.50755774
753.672	0.50754649
753.859	0.50774836
754.046	0.50782138
754.233	0.50793154
754.42	0.50808438
754.606	0.50811623
754.793	0.50810358
754.98	0.50822558
755.167	0.50820688
755.353	0.5082852
755.54	0.50840013
755.727	0.50839277
755.914	0.50848618
756.1	0.50861614
756.287	0.50855175
756.474	0.50854504
756.66	0.50861098
756.847	0.50862257
757.033	0.5085308
757.22	0.50851077
757.407	0.50861018
757.593	0.50876363
757.78	0.50878033
757.966	0.50882006
758.153	0.50888726
758.339	0.50904045
758.526	0.50908475
758.712	0.50902806
758.898	0.50920616
759.085	0.50932309
759.271	0.50932948
759.458	0.50939591
759.644	0.50955169
759.83	0.50969318
760.017	0.50988706
760.203	0.5098291
760.389	0.50995854
760.576	0.51022076
760.762	0.51034012
760.948	0.51030769
761.134	0.51038197
761.32	0.51038628
761.507	0.51044547
761.693	0.51061102
761.879	0.51056617
762.065	0.51070837
762.251	0.51091613
762.437	0.5111195
762.623	0.51127497
762.809	0.51144659
762.995	0.51143171
763.181	0.51139531
763.367	0.51137745
763.553	0.51137393
763.739	0.51138557
763.925	0.51138791
764.111	0.51147079
764.297	0.51165822
764.483	0.51189492
764.669	0.51183784
764.855	0.51188928
765.041	0.5119152
765.227	0.51199525
765.412	0.51211757
765.598	0.51208487
765.784	0.51206126
765.97	0.51238671
766.156	0.5125997
766.341	0.51279891
766.527	0.51287183
766.713	0.51283481
766.898	0.51295259
767.084	0.5130675
767.27	0.51292604
767.455	0.51283329
767.641	0.51277907
767.827	0.51275327
768.012	0.51284115
768.198	0.51282808
768.383	0.51280953
768.569	0.51302433
768.754	0.51323837
768.94	0.51332609
769.125	0.51351204
769.311	0.51347957
769.496	0.51352369
769.682	0.51368494
769.867	0.51383379
770.052	0.51385439
770.238	0.51391707
770.423	0.51397131
770.608	0.5141589
770.794	0.51430188
770.979	0.51429749
771.164	0.51426427
771.35	0.51433178
771.535	0.51440086
771.72	0.51445653
771.905	0.51455876
772.09	0.51460856
772.276	0.51479941
772.461	0.51478439
772.646	0.51477568
772.831	0.51486727
773.016	0.51504008
773.201	0.5150228
773.386	0.51515294
773.571	0.51511493
773.756	0.51522614
773.941	0.51521104
774.126	0.51533262
774.311	0.51526424
774.496	0.5153344
774.681	0.51535851
774.866	0.51550313
775.051	0.51551418
775.236	0.51572632
775.421	0.51562508
775.606	0.51562751
775.791	0.5154986
775.976	0.5154985
776.16	0.51546161
776.345	0.51556763
776.53	0.51576052
776.715	0.5159326
776.899	0.51603555
777.084	0.51626583
777.269	0.51637408
777.454	0.51651459
777.638	0.51665864
777.823	0.51652517
778.008	0.51647808
778.192	0.51662389
778.377	0.51671166
778.561	0.51679749
778.746	0.51682873
778.931	0.51684214
779.115	0.51703895
779.3	0.51712562
779.484	0.51705897
779.669	0.5170543
779.853	0.51709026
780.037	0.51720051
780.222	0.51718697
780.406	0.51711137
780.591	0.51721886
780.775	0.51733743
780.959	0.51738358
781.144	0.51738
781.328	0.51733264
781.512	0.51735863
781.697	0.51732701
781.881	0.51730421
782.065	0.51742542
782.249	0.5174187
782.434	0.51749202
782.618	0.51747786
782.802	0.51756847
782.986	0.51778136
783.17	0.51783068
783.354	0.51779873
783.539	0.51785852
783.723	0.51783848
783.907	0.51791871
784.091	0.51791049
784.275	0.51780524
784.459	0.51780094
784.643	0.51780274
784.827	0.5177703
785.011	0.51778004
785.195	0.51789696
785.379	0.5179652
785.563	0.51803673
785.747	0.51809855
785.93	0.51842938
786.114	0.51863509
786.298	0.51862696
786.482	0.51850499
786.666	0.51854224
786.85	0.51861264
787.033	0.51863495
787.217	0.51837958
787.401	0.51836694
787.585	0.51847402
787.768	0.51868007
787.952	0.51860685
788.136	0.51857708
788.319	0.51856897
788.503	0.51849373
788.687	0.51843229
788.87	0.5184019
789.054	0.51835877
789.237	0.51838017
789.421	0.51842762
789.605	0.51847894
789.788	0.51851261
789.972	0.5185984
790.155	0.51855791
790.338	0.5184355
790.522	0.51847554
790.705	0.51839476
790.889	0.51825441
791.072	0.51830394
791.256	0.51832831
791.439	0.51839348
791.622	0.51842187
791.806	0.51861089
791.989	0.51864876
792.172	0.51887297
792.355	0.51895039
792.539	0.51895338
792.722	0.51891875
792.905	0.5189319
793.088	0.51881176
793.271	0.51886025
793.455	0.51880949
793.638	0.51875834
793.821	0.51864743
794.004	0.51870462
794.187	0.51883293
794.37	0.5187908
794.553	0.51885384
794.736	0.51883932
794.919	0.51876119
795.102	0.51880605
795.285	0.51884435
795.468	0.51869887
795.651	0.51864685
795.834	0.51867442
796.017	0.51872184
796.2	0.51875505
796.383	0.51873567
796.566	0.51874185
796.749	0.51876515
796.931	0.51883858
797.114	0.51874166
797.297	0.51862331
797.48	0.51856981
797.663	0.51860517
797.845	0.51862467
798.028	0.51875151
798.211	0.51871553
798.393	0.51869119
798.576	0.51871838
798.759	0.5186885
798.941	0.51857926
799.124	0.51847673
799.307	0.51838265
799.489	0.51835922
799.672	0.51826298
799.854	0.51814512
800.037	0.51811729
800.219	0.51816126
800.402	0.51821432
800.584	0.51812551
800.767	0.51803685
800.949	0.51801184
801.132	0.51815935
801.314	0.51823463
801.496	0.51817862
801.679	0.51801274
801.861	0.51807043
802.043	0.51798741
802.226	0.51788428
802.408	0.51763679
802.59	0.51757766
802.772	0.51757423
802.955	0.5176381
803.137	0.51752703
803.319	0.51761826
803.501	0.51776812
803.684	0.51790745
803.866	0.51775168
804.048	0.51775711
804.23	0.51768587
804.412	0.51780535
804.594	0.51770818
804.776	0.51769744
804.958	0.51757571
805.14	0.51765772
805.322	0.51749674
805.504	0.5175288
805.686	0.51730875
805.868	0.5172626
806.05	0.5170221
806.232	0.51700703
806.414	0.51703904
806.596	0.51701717
806.778	0.51685949
806.96	0.51692677
807.141	0.51682338
807.323	0.51697177
807.505	0.51687089
807.687	0.51678866
807.869	0.5167534
808.05	0.51671424
808.232	0.51658607
808.414	0.51663875
808.595	0.5164878
808.777	0.51636601
808.959	0.51625702
809.14	0.51618101
809.322	0.51617268
809.504	0.5160357
809.685	0.51598506
809.867	0.51583246
810.048	0.51573852
810.23	0.51562989
810.411	0.51561814
810.593	0.51540104
810.774	0.51530397
810.956	0.5151236
811.137	0.51502745
811.319	0.51511566
811.5	0.51502861
811.681	0.5148976
811.863	0.51480817
812.044	0.51469106
812.225	0.51475593
812.407	0.51478369
812.588	0.51464272
812.769	0.51461798
812.951	0.5145196
813.132	0.51452526
813.313	0.51475548
813.494	0.51457339
813.675	0.51445975
813.857	0.51444166
814.038	0.51446324
814.219	0.51448932
814.4	0.5144547
814.581	0.51431157
814.762	0.51417158
814.943	0.51407059
815.124	0.51391003
815.305	0.51369168
815.486	0.51367717
815.667	0.51354225
815.848	0.51330907
816.029	0.51319186
816.21	0.5131394
816.391	0.51315948
816.572	0.51301422
816.753	0.51286808
816.934	0.51282027
817.115	0.51278429
817.295	0.51286173
817.476	0.51271256
817.657	0.51254692
817.838	0.51258628
818.019	0.51238297
818.199	0.51214409
818.38	0.51185542
818.561	0.51166004
818.741	0.5116168
818.922	0.51146119
819.103	0.51137056
819.283	0.51130944
819.464	0.51129721
819.645	0.51133444
819.825	0.51129211
820.006	0.51117697
820.186	0.51108573
820.367	0.51089445
820.547	0.51068472
820.728	0.51042506
820.908	0.51027454
821.089	0.51014722
821.269	0.51006527
821.45	0.510054
821.63	0.50977915
821.81	0.50983881
821.991	0.51001663
822.171	0.50997755
822.351	0.50987627
822.532	0.50971318
822.712	0.50947061
822.892	0.50951068
823.072	0.50937222
823.253	0.50913998
823.433	0.50894168
823.613	0.50880858
823.793	0.50854424
823.973	0.50853889
824.154	0.50836111
824.334	0.50819882
824.514	0.50803596
824.694	0.50800854
824.874	0.50774483
825.054	0.50776762
825.234	0.507533
825.414	0.50732746
825.594	0.50707876
825.774	0.50695814
825.954	0.5067961
826.134	0.50674523
826.314	0.50654829
826.494	0.5065374
826.674	0.50636837
826.854	0.50618254
827.033	0.505847
827.213	0.50585234
827.393	0.50559754
827.573	0.50555947
827.753	0.50528808
827.932	0.50532201
828.112	0.50523693
828.292	0.50533171
828.472	0.50493055
828.651	0.50507666
828.831	0.50477134
829.011	0.5046569
829.19	0.50436002
829.37	0.504261
829.549	0.50398084
829.729	0.50382008
829.909	0.5034453
830.088	0.5033013
830.268	0.50300675
830.447	0.50308929
830.627	0.50302531
830.806	0.50301381
830.986	0.50286797
831.165	0.50281295
831.344	0.50268034
831.524	0.50253516
831.703	0.50218431
831.883	0.50185947
832.062	0.50158627
832.241	0.50151727
832.421	0.50134856
832.6	0.50127941
832.779	0.50136706
832.958	0.50124092
833.138	0.50107735
833.317	0.50114241
833.496	0.50100024
833.675	0.50090556
833.854	0.50090063
834.034	0.50062221
834.213	0.50056076
834.392	0.5004509
834.571	0.50003211
834.75	0.49986136
834.929	0.49951346
835.108	0.49910729
835.287	0.49897154
835.466	0.49850852
835.645	0.4982995
835.824	0.4980354
836.003	0.49785153
836.182	0.49772065
836.361	0.49756612
836.54	0.4971686
836.719	0.49708058
836.897	0.49689522
837.076	0.49690323
837.255	0.49656775
837.434	0.4964366
837.613	0.49616989
837.791	0.49617888
837.97	0.49608867
838.149	0.49586011
838.328	0.49557979
838.506	0.49540708
838.685	0.49507796
838.864	0.49501697
839.042	0.49470205
839.221	0.49457138
839.4	0.49451352
839.578	0.4943561
839.757	0.49401901
839.935	0.49388969
840.114	0.493742
840.292	0.4936086
840.471	0.49341426
840.649	0.49318771
840.828	0.49304829
841.006	0.49309943
841.185	0.49273599
841.363	0.49266683
841.541	0.49241443
841.72	0.49229954
841.898	0.49214891
842.076	0.49188917
842.255	0.49162076
842.433	0.4916614
842.611	0.49114626
842.789	0.49105344
842.968	0.49088264
843.146	0.49065295
843.324	0.49051262
843.502	0.49040197
843.68	0.49039111
843.859	0.49042854
844.037	0.49019339
844.215	0.48987491
844.393	0.48958124
844.571	0.4892716
844.749	0.48911758
844.927	0.48866222
845.105	0.48825929
845.283	0.4879938
845.461	0.48765802
845.639	0.48750729
845.817	0.48727686
845.995	0.4871344
846.173	0.48707253
846.351	0.48684264
846.529	0.48665954
846.706	0.4864721
846.884	0.48635306
847.062	0.4861683
847.24	0.48570212
847.418	0.48527231
847.595	0.48509131
847.773	0.48486135
847.951	0.48465352
848.129	0.48426105
848.306	0.48416326
848.484	0.48402741
848.662	0.48402201
848.839	0.48397041
849.017	0.48389584
849.194	0.48366705
849.372	0.48340949
849.549	0.48295799
849.727	0.48278093
849.905	0.48235726
850.082	0.48195482
850.26	0.48165668
850.437	0.48147685
850.614	0.48136083
850.792	0.4812876
850.969	0.48120848
851.147	0.48115697
851.324	0.48116977
851.501	0.4808532
851.679	0.4806744
851.856	0.48037037
852.033	0.48017639
852.211	0.479787
852.388	0.47934974
852.565	0.47912506
852.742	0.47903386
852.92	0.47875487
853.097	0.47862839
853.274	0.47846719
853.451	0.47815291
853.628	0.47792785
853.805	0.47754098
853.982	0.47713631
854.159	0.4769005
854.336	0.47675152
854.514	0.47649763
854.691	0.47633318
854.868	0.47628586
855.045	0.47605014
855.221	0.47602494
855.398	0.47572354
855.575	0.47537435
855.752	0.47503798
855.929	0.47503873
856.106	0.47467467
856.283	0.47443665
856.46	0.47411154
856.637	0.47409459
856.813	0.47393166
856.99	0.47393622
857.167	0.47357578
857.344	0.47344911
857.52	0.47319084
857.697	0.47269783
857.874	0.47220659
858.05	0.4718205
858.227	0.47135143
858.404	0.47111046
858.58	0.471016
858.757	0.47084218
858.933	0.47094735
859.11	0.47089202
859.287	0.47063401
859.463	0.4703184
859.64	0.47018046
859.816	0.46973787
859.993	0.46940987
860.169	0.46917047
860.345	0.46883889
860.522	0.46875307
860.698	0.46858011
860.875	0.46810482
861.051	0.46799918
861.227	0.46763607
861.404	0.46740762
861.58	0.46734821
861.756	0.46712905
861.932	0.46701605
862.109	0.46668578
862.285	0.46630061
862.461	0.46637112
862.637	0.46608494
862.813	0.46570525
862.99	0.46531309
863.166	0.46480131
863.342	0.46489976
863.518	0.46450068
863.694	0.46418109
863.87	0.46376585
864.046	0.46346237
864.222	0.46326998
864.398	0.46329825
864.574	0.46274749
864.75	0.4627637
864.926	0.46251129
865.102	0.46256684
865.278	0.46220516
865.454	0.46196197
865.63	0.4614374
865.805	0.46125699
865.981	0.46094014
866.157	0.46073557
866.333	0.46005339
866.509	0.46002096
866.684	0.45981619
866.86	0.46007829
867.036	0.45986344
867.212	0.45957615
867.387	0.45922478
867.563	0.45930859
867.739	0.45905287
867.914	0.45887968
868.09	0.4582477
868.265	0.45797444
868.441	0.45768297
868.617	0.45752712
868.792	0.45723273
868.968	0.45683098
869.143	0.45669254
869.319	0.45655317
869.494	0.45613297
869.67	0.45596837
869.845	0.45554834
870.02	0.45526259
870.196	0.45518243
870.371	0.45472194
870.546	0.45432127
870.722	0.45417665
870.897	0.45374359
871.072	0.45355887
871.248	0.45310109
871.423	0.45271166
871.598	0.45260992
871.773	0.45232662
871.949	0.45207764
872.124	0.4521816
872.299	0.45192154
872.474	0.45174008
872.649	0.45139145
872.824	0.45090719
872.999	0.45064357
873.174	0.45052919
873.349	0.45013327
873.524	0.44979235
873.699	0.44972478
873.874	0.44956351
874.049	0.44941872
874.224	0.44934036
874.399	0.44897219
874.574	0.44897666
874.749	0.44890112
874.924	0.44846643
875.099	0.44810821
875.274	0.44782349
875.449	0.447643
875.623	0.44749182
875.798	0.44683898
875.973	0.44647034
876.148	0.4461326
876.322	0.44605449
876.497	0.44561831
876.672	0.44533445
876.846	0.44502354
877.021	0.44466449
877.196	0.44397585
877.37	0.44392117
877.545	0.44373396
877.72	0.44350728
877.894	0.44315474
878.069	0.44264721
878.243	0.44216605
878.418	0.44221713
878.592	0.44179559
878.767	0.44127065
878.941	0.44125259
879.116	0.44081556
879.29	0.44056213
879.464	0.4403337
879.639	0.44003154
879.813	0.44009393
879.987	0.43988091
880.162	0.43956229
880.336	0.4393971
880.51	0.4393419
880.685	0.43950906
880.859	0.43951989
881.033	0.43910611
881.207	0.43877644
881.381	0.43855091
881.556	0.43824919
881.73	0.43791595
881.904	0.43779515
882.078	0.43746872
882.252	0.43710676
882.426	0.43687189
882.6	0.43653218
882.774	0.4364252
882.948	0.43625405
883.122	0.43551953
883.296	0.43523092
883.47	0.43501391
883.644	0.43498503
883.818	0.43444166
883.992	0.43416609
884.166	0.43401339
884.34	0.4340943
884.514	0.43406243
884.687	0.43401876
884.861	0.43356785
885.035	0.43363835
885.209	0.43343662
885.382	0.43317474
885.556	0.43278354
885.73	0.43245161
885.904	0.43219173
886.077	0.43197881
886.251	0.43162712
886.425	0.43136487
886.598	0.43120885
886.772	0.43102673
886.945	0.43048541
887.119	0.42983754
887.292	0.42958035
887.466	0.4297585
887.64	0.42932101
887.813	0.42889339
887.986	0.42879999
888.16	0.42878458
888.333	0.42874465
888.507	0.42865485
888.68	0.42787627
888.854	0.42780233
889.027	0.42751194
889.2	0.4272517
889.374	0.42687507
889.547	0.42686491
889.72	0.42672124
889.893	0.42659258
890.067	0.426196
890.24	0.42598097
890.413	0.42548281
890.586	0.42494308
890.759	0.4245942
890.933	0.42421055
891.106	0.42393503
891.279	0.42382966
891.452	0.42350504
891.625	0.42325417
891.798	0.42332379
891.971	0.42312814
892.144	0.42281088
892.317	0.42270028
892.49	0.42220316
892.663	0.42198336
892.836	0.42198787
893.009	0.42187831
893.182	0.42135478
893.355	0.42124987
893.527	0.42089826
893.7	0.42105454
893.873	0.42088818
894.046	0.42027579
894.219	0.42011034
894.391	0.41998545
894.564	0.41973245
894.737	0.41956855
894.91	0.41919628
895.082	0.41882366
895.255	0.41869426
895.428	0.41822182
895.6	0.41774741
895.773	0.41746792
895.945	0.41702327
896.118	0.41671939
896.291	0.41660996
896.463	0.41648345
896.636	0.41620706
896.808	0.41614243
896.981	0.41581243
897.153	0.41562217
897.326	0.41544821
897.498	0.41510599
897.67	0.41482854
897.843	0.41470345
898.015	0.41461078
898.187	0.41454583
898.36	0.41416361
898.532	0.41359355
898.704	0.41351359
898.877	0.41320441
899.049	0.41291775
899.221	0.41263199
899.393	0.4120845
899.566	0.41213661
899.738	0.4123408
899.91	0.4122803
900.082	0.41224466
900.254	0.41208179
900.426	0.4120681
900.598	0.41218431
900.77	0.41173664
900.942	0.41125801
901.114	0.41072536
901.286	0.41034624
901.458	0.41001261
901.63	0.40958364
901.802	0.4093191
901.974	0.40937409
902.146	0.40918377
902.318	0.40898285
902.49	0.40866084
902.662	0.40836499
902.834	0.4080612
903.005	0.40794779
903.177	0.40757313
903.349	0.40748033
903.521	0.40710143
903.693	0.4070778
903.864	0.40690821
904.036	0.40667676
904.208	0.40592566
904.379	0.40551633
904.551	0.40533314
904.723	0.40517478
904.894	0.40471357
905.066	0.40448709
905.237	0.40444067
905.409	0.40447074
905.58	0.40449051
905.752	0.40397604
905.923	0.40369074
906.095	0.40342888
906.266	0.40309443
906.438	0.40276737
906.609	0.40246292
906.78	0.40199006
906.952	0.40187109
907.123	0.40146346
907.295	0.4013182
907.466	0.40119733
907.637	0.40099017
907.808	0.40079304
907.98	0.40063924
908.151	0.4004296
908.322	0.4006089
908.493	0.40041557
908.665	0.40021232
908.836	0.39971217
909.007	0.39949989
909.178	0.39916806
909.349	0.39895496
909.52	0.39890329
909.691	0.3986167
909.862	0.39853064
910.033	0.39850256
910.204	0.39840944
910.375	0.39849473
910.546	0.39842456
910.717	0.39796149
910.888	0.39811603
911.059	0.39781696
911.23	0.39764931
911.401	0.39721663
911.572	0.39680395
911.742	0.39622487
911.913	0.39591112
912.084	0.39525765
912.255	0.39502465
912.426	0.39458534
912.596	0.39444451
912.767	0.39446055
912.938	0.39465614
913.108	0.39457807
913.279	0.39449048
913.45	0.39425514
913.62	0.39428179
913.791	0.39433145
913.962	0.39403673
914.132	0.39362633
914.303	0.39334485
914.473	0.39325132
914.644	0.39291381
914.814	0.39254753
914.985	0.39206931
915.155	0.39185928
915.326	0.39150188
915.496	0.3911239
915.666	0.3905712
915.837	0.39065115
916.007	0.39019516
916.177	0.3897892
916.348	0.38944642
916.518	0.38944822
916.688	0.38937188
916.858	0.3893082
917.029	0.38891343
917.199	0.38878059
917.369	0.38881694
917.539	0.3887701
917.709	0.38830978
917.88	0.38779685
918.05	0.38736869
918.22	0.38703498
918.39	0.38669268
918.56	0.38635204
918.73	0.38604016
918.9	0.38573622
919.07	0.38549374
919.24	0.38535137
919.41	0.38525734
919.58	0.38493013
919.75	0.38481756
919.92	0.3842023
920.09	0.38419806
920.26	0.38395816
920.429	0.38402276
920.599	0.38370602
920.769	0.3838275
920.939	0.38324614
921.109	0.38311352
921.278	0.38262184
921.448	0.38242833
921.618	0.38202903
921.787	0.3816802
921.957	0.38142168
922.127	0.38099789
922.296	0.38111643
922.466	0.38099514
922.636	0.38113086
922.805	0.38107674
922.975	0.38078988
923.144	0.38063362
923.314	0.38073648
923.483	0.38035911
923.653	0.38005409
923.822	0.37975461
923.992	0.37927726
924.161	0.37917945
924.331	0.3788842
924.5	0.37875735
924.669	0.37837875
924.839	0.37840285
925.008	0.37806626
925.177	0.37786573
925.347	0.37766771
925.516	0.37769273
925.685	0.37751657
925.854	0.37770032
926.023	0.37748648
926.193	0.37760384
926.362	0.37719234
926.531	0.37717602
926.7	0.37637715
926.869	0.37625259
927.038	0.3754005
927.207	0.37506449
927.376	0.37438239
927.545	0.37419226
927.715	0.37351632
927.884	0.3737786
928.052	0.37383606
928.221	0.37361385
928.39	0.37326665
928.559	0.37320237
928.728	0.37341379
928.897	0.37381044
929.066	0.37377271
929.235	0.37282696
929.404	0.37309318
929.572	0.37307272
929.741	0.37291628
929.91	0.37256762
930.079	0.37199364
930.247	0.37133989
930.416	0.37160449
930.585	0.3712053
930.753	0.37116317
930.922	0.37118863
931.091	0.37110627
931.259	0.37060873
931.428	0.37080997
931.596	0.37075452
931.765	0.37082394
931.934	0.37074823
932.102	0.36979306
932.27	0.36967656
932.439	0.36966947
932.607	0.36939982
932.776	0.36949233
932.944	0.36923914
933.113	0.36878311
933.281	0.36908654
933.449	0.36832793
933.618	0.36789868
933.786	0.36777926
933.954	0.36701748
934.123	0.36672854
934.291	0.36669899
934.459	0.36631646
934.627	0.36660363
934.795	0.36723936
934.964	0.3667443
935.132	0.36631929
935.3	0.36557217
935.468	0.36506326
935.636	0.3650074
935.804	0.36436733
935.972	0.36382311
936.14	0.36356297
936.308	0.36368058
936.476	0.36419016
936.644	0.36403342
936.812	0.36434584
936.98	0.36426124
937.148	0.36354342
937.316	0.36288522
937.484	0.36323498
937.652	0.36229902
937.82	0.36308619
937.987	0.36248367
938.155	0.3622363
938.323	0.36279985
938.491	0.36258864
938.658	0.36308994
938.826	0.36329296
938.994	0.36224872
939.162	0.36213018
939.329	0.36345292
939.497	0.36425826
939.665	0.3649279
939.832	0.36507106
940	0.36642046
940.167	0.36671192
940.335	0.36619692
940.502	0.36429514
940.67	0.36388051
940.837	0.3644054
941.005	0.36299421
941.172	0.36257099
941.34	0.36360497
941.507	0.36729002
941.674	0.37093743
941.842	0.37122469
942.009	0.3739308
942.177	0.37188229
942.344	0.37469378
942.511	0.37556357
942.678	0.37486712
942.846	0.37227082
943.013	0.37135063
943.18	0.36897509
943.347	0.37206273
943.514	0.36876584
943.682	0.36963538
943.849	0.36649088
944.016	0.3656489
944.183	0.36618795
944.35	0.366011
944.517	0.36755529
944.684	0.37127404
944.851	0.36267771
945.018	0.36333672
945.185	0.36348416
945.352	0.36356882
945.519	0.36280144
945.686	0.36094782
945.853	0.36329002
946.02	0.36606323
946.187	0.36425907
946.353	0.36643873
946.52	0.36544143
946.687	0.3660708
946.854	0.36589865
947.021	0.36041132
947.187	0.36118365
947.354	0.35978574
947.521	0.35817712
947.687	0.3558304
947.854	0.35577829
948.021	0.35314614
948.187	0.35211987
948.354	0.35108977
948.52	0.35128683
948.687	0.35387705
948.854	0.35691697
949.02	0.35381034
949.187	0.35549624
949.353	0.35731129
949.52	0.35582249
949.686	0.35668109
949.852	0.35493903
950.019	0.35491644
950.185	0.35822895
950.352	0.35725075
950.518	0.35448357
950.684	0.35728944
950.851	0.35728139
951.017	0.35453182
951.183	0.35296722
951.349	0.35065619
951.516	0.34815015
951.682	0.34820836
951.848	0.34560182
952.014	0.34437151
952.18	0.34522347
952.346	0.34482949
952.512	0.34537177
952.679	0.3478848
952.845	0.34795875
953.011	0.34915603
953.177	0.34966389
953.343	0.34911495
953.509	0.34973954
953.675	0.34890032
953.841	0.34748336
954.007	0.34877759
954.172	0.35003371
954.338	0.34879038
954.504	0.34667685
954.67	0.34411521
954.836	0.3449991
955.002	0.34536971
955.167	0.34459018
955.333	0.34153875
955.499	0.34211839
955.665	0.34260091
955.83	0.34406541
955.996	0.34290061
956.162	0.34198593
956.327	0.34052149
956.493	0.34028783
956.659	0.34138819
956.824	0.34137523
956.99	0.33987557
957.155	0.34016478
957.321	0.34088054
957.486	0.34120025
957.652	0.34202542
957.817	0.34146349
957.983	0.3412508
958.148	0.34134746
958.314	0.33982915
958.479	0.33760117
958.644	0.33748496
958.81	0.33739563
958.975	0.3367074
959.14	0.33692076
959.306	0.33694159
959.471	0.33656729
959.636	0.33629394
959.801	0.33743709
959.967	0.33709995
960.132	0.33689056
960.297	0.33650049
960.462	0.33739425
960.627	0.33776467
960.792	0.33694843
960.957	0.33545457
961.123	0.33592468
961.288	0.33473802
961.453	0.3350656
961.618	0.33429836
961.783	0.33465942
961.948	0.33511427
962.113	0.33416297
962.277	0.33222455
962.442	0.33319127
962.607	0.33265434
962.772	0.33211482
962.937	0.33092412
963.102	0.33112869
963.267	0.33184854
963.431	0.33172832
963.596	0.33088095
963.761	0.32968774
963.926	0.32869008
964.09	0.32901567
964.255	0.32985562
964.42	0.32933625
964.584	0.33048891
964.749	0.32981065
964.914	0.33012285
965.078	0.32955361
965.243	0.32841719
965.407	0.32692943
965.572	0.32604352
965.736	0.32617595
965.901	0.32693552
966.065	0.32824031
966.23	0.32875358
966.394	0.33027405
966.559	0.33097
966.723	0.33140588
966.887	0.33042126
967.052	0.32917158
967.216	0.32646491
967.38	0.32478828
967.545	0.32334481
967.709	0.32372778
967.873	0.32396473
968.037	0.32331054
968.202	0.32372427
968.366	0.32506202
968.53	0.32675881
968.694	0.32689846
968.858	0.32582611
969.022	0.32496224
969.187	0.32454896
969.351	0.32406122
969.515	0.32385222
969.679	0.32197049
969.843	0.32098242
970.007	0.32017117
970.171	0.32093431
970.335	0.32174986
970.499	0.32136402
970.662	0.32068735
970.826	0.32168081
970.99	0.32298535
971.154	0.32299242
971.318	0.3215496
971.482	0.31977553
971.645	0.31979738
971.809	0.32099164
971.973	0.32070631
972.137	0.31944616
972.3	0.319329
972.464	0.31987282
972.628	0.3222736
972.791	0.32343592
972.955	0.32238292
973.119	0.32277184
973.282	0.32309237
973.446	0.32281493
973.609	0.32267335
973.773	0.32109986
973.936	0.31972926
974.1	0.31987266
974.263	0.31993434
974.427	0.32000549
974.59	0.31950603
974.754	0.31874942
974.917	0.31849135
975.08	0.31926447
975.244	0.31728668
975.407	0.3167653
975.57	0.31593982
975.734	0.31606429
975.897	0.31597324
976.06	0.3153211
976.223	0.31401361
976.387	0.31563667
976.55	0.31516873
976.713	0.31525878
976.876	0.31522201
977.039	0.31478778
977.202	0.31498511
977.365	0.3142788
977.528	0.31347887
977.692	0.31377846
977.855	0.31251821
978.018	0.31254598
978.181	0.31340232
978.344	0.31335834
978.506	0.31425342
978.669	0.31318295
978.832	0.31244853
978.995	0.3129346
979.158	0.31375472
979.321	0.31266376
979.484	0.31134789
979.646	0.3102246
979.809	0.31118517
979.972	0.3102778
980.135	0.31102319
980.297	0.31004755
980.46	0.30935483
980.623	0.31118222
980.786	0.31148867
980.948	0.31127685
981.111	0.31140649
981.273	0.31067713
981.436	0.31006723
981.599	0.3104829
981.761	0.30855838
981.924	0.3088888
982.086	0.30908416
982.249	0.30956934
982.411	0.30908603
982.573	0.30861873
982.736	0.31080869
982.898	0.31086427
983.061	0.31083094
983.223	0.30988058
983.385	0.30956995
983.548	0.31039401
983.71	0.31063051
983.872	0.30821016
984.034	0.30844615
984.197	0.30635183
984.359	0.30633494
984.521	0.30710999
984.683	0.30769549
984.845	0.30898013
985.008	0.30850406
985.17	0.3098263
985.332	0.31160706
985.494	0.31101786
985.656	0.31128544
985.818	0.31006918
985.98	0.30871553
986.142	0.30759025
986.304	0.30573936
986.466	0.30447034
986.628	0.30431282
986.79	0.30277005
986.952	0.30218846
987.113	0.30230511
987.275	0.30259332
987.437	0.3030781
987.599	0.30363084
987.761	0.30424907
987.922	0.30374986
988.084	0.30439901
988.246	0.30380746
988.408	0.30528909
988.569	0.30475069
988.731	0.30504335
988.893	0.30508809
989.054	0.30669973
989.216	0.30581273
989.377	0.30494767
989.539	0.30370677
989.701	0.30324212
989.862	0.30254763
990.024	0.30127851
990.185	0.29937622
990.347	0.30025753
990.508	0.29952628
990.669	0.30074995
990.831	0.30088137
990.992	0.30227628
991.154	0.30100437
991.315	0.30353462
991.476	0.3043362
991.638	0.30494613
991.799	0.3038957
991.96	0.30463714
992.121	0.30446935
992.283	0.30663533
992.444	0.30468759
992.605	0.30250722
992.766	0.30259572
992.927	0.30234893
993.088	0.30202189
993.249	0.30029151
993.41	0.29921559
993.572	0.2998532
993.733	0.30070696
993.894	0.3004499
994.055	0.29781493
994.216	0.29758547
994.376	0.29589374
994.537	0.29786895
994.698	0.29616921
994.859	0.295476
995.02	0.29590407
995.181	0.2962015
995.342	0.29600662
995.503	0.2978298
995.663	0.29670555
995.824	0.29547301
995.985	0.29853181
996.146	0.29891417
996.306	0.30102171
996.467	0.3019456
996.628	0.30369374
996.788	0.30245199
996.949	0.30627638
997.11	0.30138292
997.27	0.30048199
997.431	0.29885376
997.591	0.29457389
997.752	0.28932229
997.912	0.29003497
998.073	0.2880015
998.233	0.28957931
998.394	0.28966166
998.554	0.29230665
998.714	0.2939102
998.875	0.29605578
999.035	0.29413186
999.196	0.29447507
999.356	0.29336272
999.516	0.29437631
999.676	0.2933433
999.837	0.29485989
999.997	0.29398068
1000.157	0.29476719
1000.317	0.29094963
1000.477	0.29011835
1000.638	0.28772746
1000.798	0.2894475
1000.958	0.2899342
1001.118	0.29084902
1001.278	0.29100134
1001.438	0.29334211
1001.598	0.29472119
1001.758	0.29549623
1001.918	0.29336931
1002.078	0.28988969
1002.238	0.28975114
1002.398	0.29052638
1002.558	0.28937665
1002.718	0.2885275
1002.878	0.28958352
1003.037	0.28356662
1003.197	0.28470308
1003.357	0.28240784
1003.517	0.28476758
1003.677	0.28258395
1003.836	0.2818683
1003.996	0.28088551
1004.156	0.28519518
1004.315	0.2870694
1004.475	0.29260134
1004.635	0.29153029
1004.794	0.29600236
1004.954	0.29693757
1005.114	0.2956949
1005.273	0.29796749
1005.433	0.29430319
1005.592	0.29172568
1005.752	0.29079269
1005.911	0.28923325
1006.071	0.28932746
1006.23	0.28720162
1006.389	0.28543575
1006.549	0.28763254
1006.708	0.28661308
1006.868	0.28096688
1007.027	0.28257564
1007.186	0.28348869
1007.345	0.28915801
1007.505	0.29053573
1007.664	0.29249345
1007.823	0.29127746
1007.982	0.29654749
1008.142	0.29686382
1008.301	0.29758335
1008.46	0.293767
1008.619	0.28967456
1008.778	0.28625039
1008.937	0.28535779
1009.096	0.28524832
1009.255	0.28469967
1009.414	0.27698237
1009.573	0.28005108
1009.732	0.28539558
1009.891	0.28541996
1010.05	0.29123781
1010.209	0.28892581
1010.368	0.28582066
1010.527	0.29157732
1010.686	0.29310349
1010.845	0.28566646
1011.003	0.28756893
1011.162	0.28359685
1011.321	0.27772684
1011.48	0.28371209
1011.638	0.28233937
1011.797	0.28118818
1011.956	0.28467447
1012.115	0.28640764
1012.273	0.28451729
1012.432	0.29019543
1012.59	0.28250067
1012.749	0.28388521
1012.908	0.28095477
1013.066	0.28382284
1013.225	0.28157259
1013.383	0.28650046
1013.542	0.28489713
1013.7	0.28868632
1013.859	0.29281527
1014.017	0.29595219
1014.175	0.29014038
1014.334	0.29330721
1014.492	0.29546235
1014.65	0.29983143
1014.809	0.30340778
1014.967	0.29903537
1015.125	0.29908251
1015.284	0.31093581
1015.442	0.30963139
1015.6	0.30308339
1015.758	0.30057604
1015.916	0.29438502
1016.075	0.29451985
1016.233	0.28899408
1016.391	0.28715991
1016.549	0.2854608
1016.707	0.28904641
1016.865	0.29004924
1017.023	0.28529008
1017.181	0.28666954
1017.339	0.29070686
1017.497	0.28609476
1017.655	0.28497284
1017.813	0.28427377
1017.971	0.28347848
1018.129	0.29166589
1018.286	0.29132165
1018.444	0.28371843
1018.602	0.28316243
1018.76	0.28304746
1018.918	0.28244461
1019.075	0.28312032
1019.233	0.28254762
1019.391	0.28300107
1019.549	0.2917186
1019.706	0.29255858
1019.864	0.29235667
1020.022	0.29157108
1020.179	0.29442117
1020.337	0.29222832
1020.494	0.28646627
1020.652	0.28077703
1020.809	0.28229404
1020.967	0.2805552
1021.124	0.27705631
1021.282	0.28378156
1021.439	0.28196356
1021.597	0.29191343
1021.754	0.28903937
1021.911	0.29443027
1022.069	0.29177553
1022.226	0.29478035
1022.384	0.28117175
1022.541	0.28320091
1022.698	0.27626595
1022.855	0.28211793
1023.013	0.27508485
1023.17	0.27446936
1023.327	0.28175079
1023.484	0.28989941
1023.641	0.29116884
1023.798	0.30818238
1023.956	0.31712693
1024.113	0.30877235
1024.27	0.31021922
1024.427	0.31035298
1024.584	0.30723542
1024.741	0.3053278
1024.898	0.28822862
1025.055	0.2742195
1025.212	0.27421389
1025.369	0.2705211
1025.525	0.26912903
1025.682	0.27915138
1025.839	0.28367053
1025.996	0.28859803
1026.153	0.29768464
1026.31	0.31002883
1026.466	0.32498155
1026.623	0.32866239
1026.78	0.31910331
1026.937	0.31360757
1027.093	0.30778896
1027.25	0.32012022
1027.407	0.31210479
1027.563	0.30576453
1027.72	0.29762084
1027.876	0.2944358
1028.033	0.29697696
1028.19	0.30481502
1028.346	0.2858947
1028.503	0.28979342
1028.659	0.29212637
1028.816	0.30026274
1028.972	0.31477189
1029.128	0.32759277
1029.285	0.31616721
1029.441	0.32396794
1029.598	0.3109982
1029.754	0.31885726
1029.91	0.30495758
1030.067	0.29041451
1030.223	0.28852789
1030.379	0.29479128
1030.535	0.30685938
1030.691	0.31275692
1030.848	0.30876086
1031.004	0.31528864
1031.16	0.32348154
1031.316	0.33481216
1031.472	0.35115281
1031.628	0.33219135
1031.784	0.34272727
1031.94	0.35109718
1032.096	0.36455665
1032.252	0.35493638
1032.408	0.35101056
1032.564	0.34043897
1032.72	0.35250422
1032.876	0.33899658
1033.032	0.32912018
1033.188	0.3184385
1033.344	0.33746535
1033.5	0.33948844
1033.655	0.33682522
1033.811	0.33713284
1033.967	0.36583662
