Data from 0_1_mm_pl_50pc_Absorbance__0__15-51-46-720.txt Node

Date: Fri Feb 24 15:51:46 CET 2023
User: Ange
Spectrometer: FLMT08341
Trigger mode: 0
Integration Time (sec): 1.000000E-2
Scans to average: 400
Electric dark correction enabled: true
Nonlinearity correction enabled: false
Boxcar width: 3
XAxis mode: Wavelengths
Number of Pixels in Spectrum: 3648
>>>>>Begin Spectral Data<<<<<
345.271	0.01137616
345.487	0.01618894
345.704	-0.00339701
345.921	-0.00031687
346.137	-0.00641549
346.354	0.002594
346.571	-0.00784282
346.787	-0.11018913
347.004	0.01267906
347.22	-0.14636472
347.437	-0.13633286
347.653	-0.37645431
347.87	0.575345
348.086	-0
348.303	-0
348.519	0.66622785
348.736	0.61290731
348.952	0.60795505
349.169	0.62833828
349.385	0.66392321
349.601	0.66066867
349.818	0.64816538
350.034	0.63623443
350.251	0.63124591
350.467	0.64001372
350.683	0.61673599
350.9	0.61511228
351.116	0.61549563
351.332	0.60764846
351.549	0.63104988
351.765	0.64822914
351.981	0.65572811
352.197	0.68529619
352.414	0.71275029
352.63	0.72330051
352.846	0.74232299
353.062	0.72084513
353.278	0.69607669
353.495	0.716185
353.711	0.71971726
353.927	0.72221701
354.143	0.72256526
354.359	0.71402098
354.575	0.71282052
354.792	0.74724945
355.008	0.73097736
355.224	0.72021739
355.44	0.70748601
355.656	0.69909857
355.872	0.71496435
356.088	0.76395005
356.304	0.76162989
356.52	0.76191843
356.736	0.76754013
356.952	0.77654339
357.168	0.77926849
357.384	0.78458933
357.6	0.75093417
357.816	0.76226289
358.032	0.77497327
358.248	0.79996398
358.464	0.80395408
358.679	0.81779811
358.895	0.81337148
359.111	0.82941584
359.327	0.80573759
359.543	0.81014728
359.759	0.81997777
359.974	0.81172948
360.19	0.80436744
360.406	0.80861957
360.622	0.79895844
360.838	0.79454609
361.053	0.79986943
361.269	0.79665248
361.485	0.80360358
361.701	0.80964893
361.916	0.79501218
362.132	0.79739387
362.348	0.80639172
362.563	0.80686
362.779	0.79713255
362.995	0.79959056
363.21	0.81234685
363.426	0.81938021
363.641	0.82108009
363.857	0.83045726
364.073	0.82135727
364.288	0.81099513
364.504	0.82984774
364.719	0.82493401
364.935	0.82055397
365.15	0.82274191
365.366	0.81954343
365.581	0.83302864
365.797	0.83691244
366.012	0.81764504
366.228	0.80351296
366.443	0.82186025
366.658	0.82410148
366.874	0.81688718
367.089	0.82166894
367.305	0.82886977
367.52	0.83219562
367.735	0.8358313
367.951	0.82124844
368.166	0.82131526
368.381	0.83706822
368.597	0.82709663
368.812	0.8312914
369.027	0.83568055
369.243	0.83900997
369.458	0.86062274
369.673	0.86091634
369.888	0.85718175
370.104	0.84856165
370.319	0.8490031
370.534	0.8422454
370.749	0.83990689
370.964	0.8340512
371.179	0.83141033
371.395	0.82173808
371.61	0.83086836
371.825	0.81859434
372.04	0.82143053
372.255	0.81782113
372.47	0.81184572
372.685	0.80065127
372.9	0.79948406
373.115	0.79039722
373.33	0.79514403
373.545	0.78970023
373.76	0.79163904
373.975	0.7828659
374.19	0.77733754
374.405	0.77732389
374.62	0.78343758
374.835	0.79039999
375.05	0.78916615
375.265	0.78523725
375.48	0.7869981
375.695	0.8053554
375.91	0.79853327
376.125	0.78373934
376.339	0.7664891
376.554	0.76637731
376.769	0.76448922
376.984	0.76270605
377.199	0.75839664
377.414	0.75532688
377.628	0.76468766
377.843	0.76846553
378.058	0.76546467
378.273	0.76709661
378.487	0.76399586
378.702	0.76222853
378.917	0.76085642
379.131	0.75112997
379.346	0.74139898
379.561	0.73340923
379.775	0.72666783
379.99	0.71817391
380.205	0.70624102
380.419	0.69952106
380.634	0.6883453
380.848	0.69091236
381.063	0.69126806
381.278	0.69356877
381.492	0.68828443
381.707	0.69271761
381.921	0.68893627
382.136	0.69687586
382.35	0.68929368
382.565	0.68214233
382.779	0.6784698
382.994	0.679047
383.208	0.66987148
383.422	0.67403204
383.637	0.6679188
383.851	0.67116567
384.066	0.67187344
384.28	0.66989482
384.494	0.66788219
384.709	0.66814296
384.923	0.66286821
385.137	0.65826961
385.352	0.65301297
385.566	0.65333691
385.78	0.64842105
385.995	0.64253732
386.209	0.63717435
386.423	0.63827949
386.637	0.63805812
386.852	0.63108072
387.066	0.62477677
387.28	0.61900264
387.494	0.62076117
387.708	0.61942052
387.923	0.61349639
388.137	0.61267871
388.351	0.6130447
388.565	0.61259707
388.779	0.61217752
388.993	0.61351343
389.207	0.61214468
389.421	0.60906287
389.635	0.60292699
389.85	0.59872676
390.064	0.59550862
390.278	0.59275936
390.492	0.58841088
390.706	0.58536611
390.92	0.58362184
391.134	0.58364612
391.348	0.5862323
391.561	0.58224432
391.775	0.57765644
391.989	0.5715788
392.203	0.57015146
392.417	0.56870785
392.631	0.5672404
392.845	0.56119697
393.059	0.56006284
393.273	0.55821956
393.486	0.55343886
393.7	0.54739154
393.914	0.54519655
394.128	0.54110244
394.342	0.53771484
394.555	0.53185703
394.769	0.52946169
394.983	0.52912963
395.197	0.52871049
395.41	0.52522076
395.624	0.52407503
395.838	0.52160284
396.051	0.5244512
396.265	0.52041978
396.479	0.51877001
396.692	0.51599928
396.906	0.51216004
397.12	0.50828673
397.333	0.507476
397.547	0.50274318
397.76	0.50312661
397.974	0.50080112
398.187	0.49917973
398.401	0.49869223
398.614	0.49690101
398.828	0.49438545
399.041	0.49311001
399.255	0.49016269
399.468	0.48824329
399.682	0.48624128
399.895	0.4845936
400.109	0.48228682
400.322	0.47993739
400.536	0.47565692
400.749	0.4750726
400.962	0.47285089
401.176	0.4704232
401.389	0.46732807
401.602	0.46330647
401.816	0.46174615
402.029	0.46158445
402.242	0.45806878
402.456	0.45610719
402.669	0.45334737
402.882	0.44989677
403.095	0.45056291
403.309	0.44840146
403.522	0.44670079
403.735	0.44494865
403.948	0.44329116
404.161	0.44461976
404.375	0.44399399
404.588	0.44175012
404.801	0.4400263
405.014	0.43708725
405.227	0.43676479
405.44	0.43539408
405.653	0.43285357
405.866	0.43004624
406.079	0.42798071
406.293	0.42615637
406.506	0.42495417
406.719	0.42258544
406.932	0.42043616
407.145	0.41706725
407.358	0.41778387
407.571	0.41559945
407.784	0.41432337
407.996	0.41331543
408.209	0.41060746
408.422	0.40835895
408.635	0.40792657
408.848	0.40581094
409.061	0.40360213
409.274	0.40172773
409.487	0.39948403
409.7	0.39891531
409.912	0.39862478
410.125	0.39665265
410.338	0.39509118
410.551	0.39399008
410.764	0.3925061
410.976	0.39108576
411.189	0.38952375
411.402	0.38728355
411.615	0.38647346
411.827	0.38512042
412.04	0.38427571
412.253	0.38323567
412.465	0.38171581
412.678	0.38001525
412.891	0.37948503
413.103	0.37695077
413.316	0.37537535
413.529	0.37506546
413.741	0.37406612
413.954	0.3733326
414.166	0.37254506
414.379	0.37098085
414.591	0.37094535
414.804	0.36954889
415.016	0.36804812
415.229	0.36665449
415.441	0.36496551
415.654	0.36434178
415.866	0.36332476
416.079	0.36224936
416.291	0.36137728
416.504	0.3606057
416.716	0.35977912
416.928	0.35941375
417.141	0.35803443
417.353	0.35736225
417.566	0.35553782
417.778	0.35475546
417.99	0.35268484
418.203	0.35086928
418.415	0.3495229
418.627	0.34876703
418.839	0.34769658
419.052	0.34779147
419.264	0.34689048
419.476	0.34670796
419.688	0.34640726
419.901	0.34562236
420.113	0.34437937
420.325	0.34351103
420.537	0.34200705
420.749	0.34133397
420.961	0.34048977
421.174	0.33941403
421.386	0.33829713
421.598	0.33721758
421.81	0.33614878
422.022	0.33521192
422.234	0.33403234
422.446	0.33286555
422.658	0.33200138
422.87	0.33142209
423.082	0.3307698
423.294	0.3297795
423.506	0.32935798
423.718	0.32863637
423.93	0.32773408
424.142	0.32659696
424.354	0.32562643
424.566	0.32468364
424.778	0.32413211
424.99	0.32303204
425.202	0.32227395
425.414	0.3217529
425.625	0.32157824
425.837	0.32040944
426.049	0.32024
426.261	0.31957239
426.473	0.31862128
426.684	0.31767682
426.896	0.31714921
427.108	0.31584836
427.32	0.31583734
427.531	0.31473553
427.743	0.31390862
427.955	0.31384403
428.167	0.31312139
428.378	0.31224488
428.59	0.31190142
428.802	0.31120287
429.013	0.31050354
429.225	0.30971924
429.436	0.30887546
429.648	0.30861073
429.86	0.30831597
430.071	0.30817217
430.283	0.30766529
430.494	0.30729395
430.706	0.30697982
430.917	0.30632591
431.129	0.30585921
431.34	0.30498447
431.552	0.30435402
431.763	0.30363675
431.975	0.30326864
432.186	0.30260402
432.398	0.30212304
432.609	0.30112997
432.821	0.30065215
433.032	0.30020261
433.243	0.29976124
433.455	0.29920848
433.666	0.29886553
433.877	0.29878018
434.089	0.29810305
434.3	0.29772253
434.511	0.29703584
434.723	0.29664159
434.934	0.29588956
435.145	0.29504112
435.356	0.29413218
435.568	0.29416021
435.779	0.29347567
435.99	0.29266029
436.201	0.29200358
436.412	0.29154702
436.624	0.29123216
436.835	0.29086768
437.046	0.29058295
437.257	0.29018162
437.468	0.29015839
437.679	0.29013185
437.89	0.28967335
438.101	0.28949555
438.312	0.28931574
438.523	0.28872733
438.734	0.28839688
438.945	0.28790081
439.156	0.28699012
439.367	0.28686138
439.578	0.28657555
439.789	0.28564987
440	0.28532718
440.211	0.28489459
440.422	0.28478396
440.633	0.2845998
440.844	0.28404533
441.055	0.28357226
441.266	0.28374411
441.477	0.28330909
441.687	0.28300641
441.898	0.28265587
442.109	0.28240828
442.32	0.28197905
442.531	0.28146215
442.741	0.28068951
442.952	0.28038084
443.163	0.27999862
443.374	0.27936083
443.584	0.27869616
443.795	0.27861708
444.006	0.27839496
444.216	0.27810338
444.427	0.27754139
444.638	0.27730409
444.848	0.27702657
445.059	0.27699768
445.27	0.27665275
445.48	0.27637214
445.691	0.27625542
445.901	0.27611632
446.112	0.27577695
446.323	0.27523652
446.533	0.27486155
446.744	0.27428633
446.954	0.27380354
447.165	0.27353075
447.375	0.27331298
447.586	0.27314669
447.796	0.27311384
448.006	0.27282046
448.217	0.27287036
448.427	0.27254879
448.638	0.27207227
448.848	0.27154763
449.058	0.27127797
449.269	0.27107575
449.479	0.27075639
449.689	0.27030313
449.9	0.27019733
450.11	0.2701137
450.32	0.27015802
450.531	0.26973889
450.741	0.26943723
450.951	0.2693722
451.161	0.26926532
451.372	0.26916858
451.582	0.26933739
451.792	0.26899565
452.002	0.26887455
452.212	0.26864082
452.422	0.26842874
452.633	0.26823904
452.843	0.26814605
453.053	0.26742365
453.263	0.26752609
453.473	0.26723843
453.683	0.26725829
453.893	0.26688589
454.103	0.2667435
454.313	0.26636926
454.523	0.26636832
454.733	0.26599039
454.943	0.26615462
455.153	0.26578032
455.363	0.26578568
455.573	0.26554509
455.783	0.26544687
455.993	0.26512315
456.203	0.26521021
456.413	0.26480001
456.623	0.2645912
456.833	0.26451282
457.042	0.26435915
457.252	0.26415591
457.462	0.26401243
457.672	0.26363748
457.882	0.26358653
458.091	0.26325363
458.301	0.26279345
458.511	0.26248962
458.721	0.26245745
458.931	0.26234892
459.14	0.26208592
459.35	0.26207792
459.56	0.26225732
459.769	0.2623171
459.979	0.26230672
460.189	0.26194703
460.398	0.26187765
460.608	0.26191215
460.817	0.26173911
461.027	0.26167521
461.237	0.26156573
461.446	0.26139369
461.656	0.26154831
461.865	0.26146245
462.075	0.26137415
462.284	0.2612797
462.494	0.26114537
462.703	0.26099044
462.913	0.26100987
463.122	0.2607398
463.332	0.26074139
463.541	0.26073231
463.751	0.26068685
463.96	0.26060031
464.169	0.26053916
464.379	0.26078971
464.588	0.26099025
464.797	0.26089271
465.007	0.26080798
465.216	0.26075962
465.425	0.2608884
465.635	0.26101588
465.844	0.26081061
466.053	0.26077099
466.263	0.26072685
466.472	0.26064967
466.681	0.26065104
466.89	0.26053567
467.099	0.26056754
467.309	0.26061019
467.518	0.26059059
467.727	0.26066575
467.936	0.26071771
468.145	0.26072599
468.354	0.26086753
468.563	0.2608473
468.772	0.26080614
468.982	0.26083559
469.191	0.26102319
469.4	0.26106288
469.609	0.26111637
469.818	0.26121656
470.027	0.26136561
470.236	0.26134598
470.445	0.26134141
470.654	0.26121964
470.863	0.26122459
471.072	0.26127502
471.28	0.26113412
471.489	0.2610846
471.698	0.26110345
471.907	0.26123338
472.116	0.26143005
472.325	0.26157188
472.534	0.26165732
472.743	0.26173687
472.951	0.26210649
473.16	0.26236835
473.369	0.26234175
473.578	0.26238101
473.786	0.26263052
473.995	0.26272458
474.204	0.26293917
474.413	0.26278953
474.621	0.26300243
474.83	0.26338883
475.039	0.26356975
475.247	0.26380015
475.456	0.26408731
475.665	0.26418598
475.873	0.26434695
476.082	0.26433623
476.291	0.26433135
476.499	0.26459526
476.708	0.26442828
476.916	0.26449259
477.125	0.26477637
477.333	0.26501459
477.542	0.26514682
477.75	0.26538483
477.959	0.26553328
478.167	0.26596962
478.376	0.26604829
478.584	0.2660986
478.793	0.26617872
479.001	0.26644506
479.209	0.26651138
479.418	0.26653726
479.626	0.266559
479.834	0.26671077
480.043	0.26692727
480.251	0.26713254
480.459	0.26721399
480.668	0.26748366
480.876	0.2677746
481.084	0.26798811
481.293	0.26834666
481.501	0.26852303
481.709	0.26885541
481.917	0.26916382
482.125	0.26939656
482.334	0.26952375
482.542	0.26983155
482.75	0.27002884
482.958	0.27034235
483.166	0.27056278
483.374	0.27080454
483.583	0.27107205
483.791	0.2714296
483.999	0.27155551
484.207	0.27182333
484.415	0.27204255
484.623	0.27221029
484.831	0.27246809
485.039	0.27278013
485.247	0.27306953
485.455	0.27337721
485.663	0.27365824
485.871	0.27399109
486.079	0.27424143
486.287	0.27451121
486.495	0.2746449
486.702	0.27480608
486.91	0.27514998
487.118	0.27535402
487.326	0.27555986
487.534	0.27585325
487.742	0.27624254
487.95	0.27661162
488.157	0.27701048
488.365	0.27732133
488.573	0.27773121
488.781	0.27808875
488.988	0.2785787
489.196	0.2789369
489.404	0.27926959
489.612	0.27958007
489.819	0.27989771
490.027	0.28017793
490.235	0.2805559
490.442	0.28083686
490.65	0.28109456
490.857	0.28149157
491.065	0.28186877
491.273	0.28228893
491.48	0.28274166
491.688	0.28308507
491.895	0.28348747
492.103	0.28385342
492.31	0.28418118
492.518	0.28447994
492.725	0.28484363
492.933	0.28519702
493.14	0.28551927
493.348	0.28580921
493.555	0.28626897
493.763	0.28665395
493.97	0.28707424
494.177	0.28748903
494.385	0.28784826
494.592	0.28832632
494.8	0.28867623
495.007	0.28906546
495.214	0.28955682
495.422	0.28995231
495.629	0.29036117
495.836	0.29072302
496.043	0.29117727
496.251	0.29171005
496.458	0.29207828
496.665	0.29237108
496.872	0.2927743
497.08	0.2931207
497.287	0.29357088
497.494	0.29390321
497.701	0.29428034
497.908	0.29472379
498.115	0.29519507
498.322	0.29566063
498.53	0.29608902
498.737	0.29654138
498.944	0.29701025
499.151	0.29755236
499.358	0.29797216
499.565	0.29839478
499.772	0.29887685
499.979	0.29940795
500.186	0.29994599
500.393	0.30041068
500.6	0.30078472
500.807	0.30124739
501.014	0.30177793
501.221	0.30224927
501.427	0.30267659
501.634	0.30310707
501.841	0.30359253
502.048	0.30410054
502.255	0.30450893
502.462	0.30498684
502.669	0.30553065
502.875	0.3060642
503.082	0.30652309
503.289	0.30698836
503.496	0.30751932
503.702	0.30809365
503.909	0.30864237
504.116	0.3090597
504.323	0.30953787
504.529	0.31009982
504.736	0.31059881
504.943	0.31109901
505.149	0.31170358
505.356	0.31222741
505.563	0.3128326
505.769	0.31340664
505.976	0.31388078
506.182	0.31450204
506.389	0.3151066
506.595	0.31566532
506.802	0.31615648
507.008	0.31668023
507.215	0.31719351
507.421	0.31780717
507.628	0.3183467
507.834	0.31882491
508.041	0.31936305
508.247	0.31995623
508.454	0.32057233
508.66	0.32111786
508.866	0.32162359
509.073	0.3221443
509.279	0.32273627
509.486	0.32327973
509.692	0.32378441
509.898	0.32433065
510.105	0.32493248
510.311	0.32552534
510.517	0.32612906
510.723	0.32667393
510.93	0.32722146
511.136	0.32787016
511.342	0.32845163
511.548	0.32901439
511.754	0.3296788
511.961	0.33030755
512.167	0.33084962
512.373	0.33143304
512.579	0.33203742
512.785	0.33263723
512.991	0.3332594
513.197	0.3338355
513.404	0.33444083
513.61	0.33517912
513.816	0.33578923
514.022	0.33643756
514.228	0.33703479
514.434	0.33763196
514.64	0.3382692
514.846	0.3388918
515.052	0.3393735
515.258	0.3400774
515.464	0.34065788
515.669	0.34128092
515.875	0.34188103
516.081	0.34248272
516.287	0.34314774
516.493	0.34386993
516.699	0.34439607
516.905	0.34501437
517.111	0.34566117
517.316	0.34637132
517.522	0.34707072
517.728	0.34769233
517.934	0.34837485
518.139	0.34907848
518.345	0.34968648
518.551	0.35033111
518.757	0.3509295
518.962	0.35151563
519.168	0.35214019
519.374	0.35261177
519.579	0.35319994
519.785	0.35387496
519.991	0.35447144
520.196	0.35506283
520.402	0.35566297
520.607	0.35628094
520.813	0.35708108
521.018	0.35778637
521.224	0.35836051
521.429	0.35909113
521.635	0.35979608
521.84	0.36038869
522.046	0.36114957
522.251	0.36177999
522.457	0.36238383
522.662	0.36315262
522.868	0.36385966
523.073	0.36456775
523.279	0.36533111
523.484	0.36584111
523.689	0.36648213
523.895	0.36725452
524.1	0.36783793
524.305	0.36844765
524.511	0.36910926
524.716	0.369802
524.921	0.37056975
525.126	0.37122845
525.332	0.37187876
525.537	0.37257784
525.742	0.37332534
525.947	0.37406568
526.153	0.37472501
526.358	0.37542431
526.563	0.37617759
526.768	0.37685643
526.973	0.37758282
527.178	0.37814232
527.383	0.37874456
527.588	0.37945826
527.794	0.38016838
527.999	0.38086348
528.204	0.38158523
528.409	0.38225489
528.614	0.38304244
528.819	0.38377697
529.024	0.38443043
529.229	0.38502861
529.434	0.38577091
529.639	0.38642285
529.843	0.38712929
530.048	0.38776862
530.253	0.38835737
530.458	0.38914378
530.663	0.38988873
530.868	0.39054924
531.073	0.39122039
531.278	0.39190524
531.482	0.39261407
531.687	0.39332632
531.892	0.39393849
532.097	0.39454038
532.302	0.39521124
532.506	0.39587583
532.711	0.39651734
532.916	0.39719857
533.12	0.39787262
533.325	0.39854148
533.53	0.39931295
533.734	0.39997757
533.939	0.40068232
534.144	0.40138491
534.348	0.40205063
534.553	0.40271888
534.757	0.403324
534.962	0.40398498
535.167	0.40468894
535.371	0.40535473
535.576	0.40611803
535.78	0.40685607
535.985	0.40763722
536.189	0.4084655
536.394	0.4092451
536.598	0.40983848
536.803	0.41052318
537.007	0.41118269
537.211	0.41188276
537.416	0.41250733
537.62	0.41311685
537.825	0.41374784
538.029	0.41461965
538.233	0.41521559
538.438	0.41590979
538.642	0.41649925
538.846	0.41719432
539.05	0.41784807
539.255	0.41840721
539.459	0.41898607
539.663	0.4197126
539.867	0.42036168
540.072	0.4210021
540.276	0.42168231
540.48	0.42243983
540.684	0.4231353
540.888	0.42385817
541.092	0.42451448
541.297	0.42515634
541.501	0.42581946
541.705	0.4264297
541.909	0.42703616
542.113	0.42763982
542.317	0.42823796
542.521	0.42892512
542.725	0.42961407
542.929	0.43034541
543.133	0.43106872
543.337	0.43176479
543.541	0.43247087
543.745	0.43307068
543.949	0.4337244
544.153	0.43425947
544.357	0.43486938
544.56	0.43545232
544.764	0.4360409
544.968	0.43664587
545.172	0.43720633
545.376	0.43784223
545.58	0.43850304
545.783	0.43913957
545.987	0.43971189
546.191	0.44021479
546.395	0.44089018
546.598	0.44159352
546.802	0.44222295
547.006	0.4428293
547.21	0.44335855
547.413	0.44405592
547.617	0.44478212
547.821	0.44536623
548.024	0.44599315
548.228	0.44643541
548.431	0.44701124
548.635	0.44758822
548.839	0.44809931
549.042	0.44867969
549.246	0.44924709
549.449	0.44976473
549.653	0.45040888
549.856	0.45094037
550.06	0.45156192
550.263	0.45218707
550.467	0.45276841
550.67	0.45335117
550.874	0.45389208
551.077	0.4544628
551.28	0.45510108
551.484	0.45563224
551.687	0.4561361
551.891	0.45669263
552.094	0.45714287
552.297	0.45769657
552.501	0.45832445
552.704	0.45877122
552.907	0.45930785
553.11	0.45978367
553.314	0.46026433
553.517	0.46072302
553.72	0.46127655
553.923	0.46173047
554.127	0.46229222
554.33	0.4626898
554.533	0.46328871
554.736	0.46366078
554.939	0.4642298
555.142	0.46474668
555.345	0.46524128
555.549	0.4657641
555.752	0.4663251
555.955	0.46675917
556.158	0.46738461
556.361	0.46789285
556.564	0.4683639
556.767	0.46882968
556.97	0.46932904
557.173	0.46976347
557.376	0.47025491
557.579	0.47064244
557.782	0.47106269
557.984	0.47147164
558.187	0.47196679
558.39	0.47229506
558.593	0.47284628
558.796	0.47318898
558.999	0.47359141
559.202	0.47405743
559.404	0.47438111
559.607	0.47469069
559.81	0.47509587
560.013	0.47534726
560.216	0.47582008
560.418	0.47626371
560.621	0.47666384
560.824	0.47716233
561.026	0.47763073
561.229	0.47798972
561.432	0.47841465
561.634	0.47873666
561.837	0.47906588
562.04	0.47942223
562.242	0.47981853
562.445	0.48008346
562.647	0.48051169
562.85	0.48079191
563.053	0.48115132
563.255	0.48149522
563.458	0.48190381
563.66	0.48221423
563.863	0.48267931
564.065	0.48296284
564.268	0.48333611
564.47	0.48366523
564.672	0.48401273
564.875	0.48428266
565.077	0.4845152
565.28	0.48473593
565.482	0.48506216
565.684	0.48532107
565.887	0.48557038
566.089	0.48582151
566.291	0.48606455
566.494	0.48635029
566.696	0.48659757
566.898	0.48687081
567.1	0.48718811
567.303	0.4874523
567.505	0.48766928
567.707	0.48787073
567.909	0.48808015
568.111	0.48833544
568.314	0.48862011
568.516	0.48882986
568.718	0.48905301
568.92	0.48936505
569.122	0.48958998
569.324	0.48991817
569.526	0.49012067
569.728	0.49031454
569.93	0.49054704
570.132	0.49078985
570.334	0.49097316
570.536	0.49119297
570.738	0.49123415
570.94	0.4913826
571.142	0.49159615
571.344	0.49167937
571.546	0.49179592
571.748	0.4919295
571.95	0.49201596
572.152	0.49215512
572.354	0.49232152
572.555	0.49240066
572.757	0.49264884
572.959	0.49279368
573.161	0.49288913
573.363	0.49304014
573.564	0.49333777
573.766	0.49343713
573.968	0.49358883
574.17	0.49361549
574.371	0.4937245
574.573	0.49381382
574.775	0.49383114
574.976	0.49380454
575.178	0.49389501
575.38	0.49386364
575.581	0.49387924
575.783	0.49399726
575.985	0.49411808
576.186	0.49425505
576.388	0.49429177
576.589	0.49426138
576.791	0.49437207
576.992	0.49448048
577.194	0.49451216
577.395	0.49452611
577.597	0.49461528
577.798	0.49469476
578	0.49478451
578.201	0.49488027
578.402	0.49496486
578.604	0.49488922
578.805	0.49494794
579.007	0.494951
579.208	0.49499891
579.409	0.49501608
579.611	0.49489749
579.812	0.49488074
580.013	0.49496717
580.215	0.49483477
580.416	0.49476138
580.617	0.49469119
580.818	0.49470953
581.019	0.49472414
581.221	0.49467249
581.422	0.49456196
581.623	0.4946296
581.824	0.49452336
582.025	0.49447774
582.226	0.4944338
582.428	0.49448077
582.629	0.49440934
582.83	0.49443717
583.031	0.49426811
583.232	0.49434155
583.433	0.49437544
583.634	0.49431426
583.835	0.49414318
584.036	0.49404616
584.237	0.49392174
584.438	0.49391621
584.639	0.49375687
584.84	0.4936651
585.041	0.49356486
585.242	0.49353846
585.442	0.49352618
585.643	0.49354048
585.844	0.49343393
586.045	0.49339281
586.246	0.49315221
586.447	0.49299229
586.647	0.49288191
586.848	0.4927867
587.049	0.49266785
587.25	0.492558
587.45	0.49237673
587.651	0.49237196
587.852	0.4923204
588.053	0.492287
588.253	0.49214733
588.454	0.49199114
588.655	0.49189823
588.855	0.49187003
589.056	0.49176426
589.256	0.49166178
589.457	0.49149685
589.658	0.4913361
589.858	0.49111328
590.059	0.49102169
590.259	0.49087924
590.46	0.49073121
590.66	0.49063256
590.861	0.4904719
591.061	0.49041055
591.262	0.49046921
591.462	0.49038061
591.662	0.49029853
591.863	0.49016108
592.063	0.49004272
592.264	0.48993197
592.464	0.48976941
592.664	0.48953085
592.865	0.48941814
593.065	0.48915415
593.265	0.48909955
593.465	0.48891871
593.666	0.48883767
593.866	0.48868727
594.066	0.48865318
594.266	0.48842106
594.467	0.48820038
594.667	0.48791596
594.867	0.48775368
595.067	0.48753075
595.267	0.48736352
595.467	0.48715443
595.668	0.48700667
595.868	0.48698089
596.068	0.48687384
596.268	0.48666876
596.468	0.48656483
596.668	0.48645463
596.868	0.48626046
597.068	0.48612529
597.268	0.48599808
597.468	0.4857806
597.668	0.48562907
597.868	0.48545073
598.068	0.48527857
598.268	0.48514271
598.467	0.48514049
598.667	0.48496859
598.867	0.48479577
599.067	0.48467953
599.267	0.48448848
599.467	0.48428389
599.667	0.48406841
599.866	0.48382139
600.066	0.48368333
600.266	0.48360542
600.466	0.48352365
600.665	0.4834062
600.865	0.48327106
601.065	0.48318826
601.264	0.48295298
601.464	0.4827336
601.664	0.48268797
601.863	0.48250653
602.063	0.48244222
602.263	0.4822482
602.462	0.48213136
602.662	0.48206477
602.861	0.48199639
603.061	0.48175173
603.26	0.48165305
603.46	0.48142416
603.659	0.48134906
603.859	0.48119024
604.058	0.48103841
604.258	0.48098908
604.457	0.48101147
604.657	0.48067706
604.856	0.48047216
605.056	0.48039947
605.255	0.48025706
605.454	0.48016548
605.654	0.47998311
605.853	0.47978868
606.052	0.47982058
606.252	0.47981019
606.451	0.4797045
606.65	0.47965995
606.849	0.47946906
607.049	0.47938207
607.248	0.47928108
607.447	0.47919502
607.646	0.4792074
607.845	0.47907546
608.045	0.47886839
608.244	0.4789271
608.443	0.47882849
608.642	0.47880808
608.841	0.4787011
609.04	0.47845288
609.239	0.4784266
609.438	0.47835215
609.637	0.47829705
609.836	0.4782284
610.035	0.47809477
610.234	0.47816149
610.433	0.47822037
610.632	0.47820989
610.831	0.47837046
611.03	0.47823834
611.229	0.47836597
611.428	0.47837046
611.627	0.47826367
611.826	0.47822859
612.025	0.4782846
612.224	0.47806442
612.422	0.47812416
612.621	0.47799042
612.82	0.47807418
613.019	0.4780465
613.218	0.4780726
613.416	0.47786232
613.615	0.4780226
613.814	0.47800645
614.012	0.47801073
614.211	0.47787357
614.41	0.47797199
614.608	0.47793843
614.807	0.47808291
615.006	0.47810696
615.204	0.47804112
615.403	0.47805873
615.602	0.47813628
615.8	0.47824298
615.999	0.47822019
616.197	0.47815939
616.396	0.47817458
616.594	0.47820084
616.793	0.47827904
616.991	0.47823471
617.19	0.47806876
617.388	0.47823276
617.586	0.47835715
617.785	0.47835183
617.983	0.47843621
618.182	0.47840568
618.38	0.47845178
618.578	0.47851598
618.777	0.47853903
618.975	0.47860623
619.173	0.47868378
619.372	0.47876563
619.57	0.47882281
619.768	0.4790372
619.966	0.47923064
620.165	0.47925211
620.363	0.47940289
620.561	0.47941138
620.759	0.47957112
620.957	0.47978034
621.155	0.47986026
621.354	0.47986863
621.552	0.48015202
621.75	0.48012007
621.948	0.48037379
622.146	0.48047222
622.344	0.48048339
622.542	0.48057359
622.74	0.48067226
622.938	0.48062247
623.136	0.48086158
623.334	0.48098217
623.532	0.48092972
623.73	0.48109623
623.928	0.4813296
624.126	0.48152303
624.324	0.4817812
624.522	0.48175578
624.719	0.48183303
624.917	0.48219099
625.115	0.48227759
625.313	0.48245873
625.511	0.48264976
625.708	0.48262404
625.906	0.48279408
626.104	0.48288269
626.302	0.48302022
626.499	0.48322768
626.697	0.48332217
626.895	0.48344713
627.093	0.4837567
627.29	0.48414659
627.488	0.48438471
627.686	0.48464128
627.883	0.48481978
628.081	0.48478992
628.278	0.48515231
628.476	0.48525987
628.673	0.48534944
628.871	0.48557957
629.068	0.48570683
629.266	0.48594708
629.463	0.48616619
629.661	0.48620935
629.858	0.4863541
630.056	0.48639698
630.253	0.48646896
630.451	0.48659282
630.648	0.48679391
630.845	0.48706956
631.043	0.48732763
631.24	0.48768407
631.438	0.48804003
631.635	0.48833351
631.832	0.48848147
632.029	0.48864338
632.227	0.48887201
632.424	0.4890961
632.621	0.48923365
632.818	0.48943641
633.016	0.48969777
633.213	0.4898971
633.41	0.4901584
633.607	0.49033902
633.804	0.49049534
634.001	0.49065483
634.199	0.49085111
634.396	0.49111048
634.593	0.49134673
634.79	0.49161276
634.987	0.49190877
635.184	0.49216812
635.381	0.49253024
635.578	0.49286755
635.775	0.49299443
635.972	0.49324316
636.169	0.49346135
636.366	0.49367666
636.563	0.4938296
636.76	0.49389231
636.957	0.49409394
637.153	0.49423313
637.35	0.49453308
637.547	0.49468622
637.744	0.49482029
637.941	0.49502023
638.138	0.49528589
638.334	0.49546553
638.531	0.49583283
638.728	0.49608114
638.925	0.49649983
639.121	0.49683025
639.318	0.49710709
639.515	0.49733508
639.711	0.49763674
639.908	0.49772947
640.105	0.49796316
640.301	0.49811508
640.498	0.49837169
640.695	0.49873793
640.891	0.49901151
641.088	0.49915589
641.284	0.49953798
641.481	0.49975526
641.677	0.49993438
641.874	0.50005296
642.07	0.50028044
642.267	0.50077163
642.463	0.5010276
642.66	0.50136549
642.856	0.50155883
643.053	0.50173938
643.249	0.50209988
643.445	0.50226269
643.642	0.5023557
643.838	0.50267367
644.034	0.50286251
644.231	0.50320599
644.427	0.50351952
644.623	0.50377952
644.82	0.50410485
645.016	0.50431724
645.212	0.50444917
645.408	0.50465726
645.604	0.50500064
645.801	0.50532384
645.997	0.50554058
646.193	0.50572343
646.389	0.5060862
646.585	0.50643636
646.781	0.50674744
646.977	0.50692189
647.173	0.50710483
647.37	0.50726121
647.566	0.50749698
647.762	0.50766109
647.958	0.50795372
648.154	0.50809622
648.35	0.50835647
648.546	0.5086128
648.742	0.50906935
648.937	0.50924209
649.133	0.50957385
649.329	0.50985849
649.525	0.51016373
649.721	0.51035717
649.917	0.51071254
650.113	0.51082686
650.309	0.51131077
650.504	0.51136009
650.7	0.51152132
650.896	0.51174931
651.092	0.51192972
651.287	0.51197634
651.483	0.51228142
651.679	0.51233438
651.875	0.51270052
652.07	0.51289304
652.266	0.51320068
652.462	0.51352311
652.657	0.51383384
652.853	0.51395117
653.048	0.5142158
653.244	0.5142696
653.44	0.51451597
653.635	0.51456637
653.831	0.51476944
654.026	0.51507741
654.222	0.51539257
654.417	0.51576694
654.613	0.51611425
654.808	0.5162647
655.004	0.51660214
655.199	0.51672613
655.394	0.51683996
655.59	0.51707891
655.785	0.51704468
655.98	0.51722115
656.176	0.51743235
656.371	0.51774349
656.566	0.51808467
656.762	0.51826064
656.957	0.51842875
657.152	0.51866317
657.348	0.51883404
657.543	0.51905888
657.738	0.51919495
657.933	0.51927342
658.128	0.51950149
658.324	0.51970757
658.519	0.52003265
658.714	0.5203037
658.909	0.52049757
659.104	0.52072269
659.299	0.52092502
659.494	0.52105182
659.689	0.52129551
659.884	0.5213384
660.079	0.52146027
660.274	0.52170221
660.469	0.52190192
660.664	0.52227548
660.859	0.52256617
661.054	0.52266199
661.249	0.52287116
661.444	0.52303298
661.639	0.5231387
661.834	0.52320692
662.029	0.52329875
662.224	0.52341671
662.418	0.52364182
662.613	0.52389229
662.808	0.52404729
663.003	0.52426785
663.198	0.52447214
663.392	0.52450355
663.587	0.52476722
663.782	0.52472827
663.977	0.52484692
664.171	0.5251019
664.366	0.52527222
664.561	0.52543408
664.755	0.52568747
664.95	0.52572568
665.144	0.5260261
665.339	0.52620656
665.534	0.52633572
665.728	0.52641786
665.923	0.52653252
666.117	0.52661405
666.312	0.52681454
666.506	0.52702895
666.701	0.5271061
666.895	0.5272304
667.09	0.52740928
667.284	0.52759997
667.479	0.52770787
667.673	0.5277593
667.867	0.52783151
668.062	0.52790838
668.256	0.52804984
668.45	0.52829499
668.645	0.52839262
668.839	0.52863082
669.033	0.52878473
669.228	0.52888535
669.422	0.52914758
669.616	0.52917665
669.81	0.52923721
670.004	0.52923173
670.199	0.52926863
670.393	0.52935215
670.587	0.52945655
670.781	0.52957241
670.975	0.52981245
671.169	0.52980352
671.363	0.53003911
671.558	0.53014084
671.752	0.53029014
671.946	0.53040866
672.14	0.53043708
672.334	0.53043724
672.528	0.53075799
672.722	0.53067551
672.916	0.53084292
673.11	0.53086464
673.304	0.53110102
673.497	0.53110424
673.691	0.53127321
673.885	0.53112564
674.079	0.53131733
674.273	0.53124216
674.467	0.53137505
674.661	0.53123131
674.854	0.53137284
675.048	0.53141072
675.242	0.53158713
675.436	0.53168136
675.629	0.53184873
675.823	0.53185074
676.017	0.53202653
676.211	0.53205013
676.404	0.53207853
676.598	0.53208948
676.792	0.53216686
676.985	0.53225917
677.179	0.53239888
677.372	0.53238207
677.566	0.53263376
677.76	0.53279257
677.953	0.53278028
678.147	0.53285523
678.34	0.53290524
678.534	0.53288305
678.727	0.53301245
678.921	0.53297597
679.114	0.53285225
679.307	0.53306036
679.501	0.53314698
679.694	0.53316696
679.888	0.53324739
680.081	0.53333573
680.274	0.53321671
680.468	0.53338997
680.661	0.53330311
680.854	0.53339371
681.048	0.5334966
681.241	0.53351843
681.434	0.53351193
681.627	0.53370131
681.821	0.53374648
682.014	0.5339589
682.207	0.53391351
682.4	0.53391162
682.593	0.53397086
682.786	0.53394492
682.98	0.53390852
683.173	0.53396135
683.366	0.5338231
683.559	0.53377708
683.752	0.53388158
683.945	0.5339222
684.138	0.53408666
684.331	0.53409632
684.524	0.53416119
684.717	0.534212
684.91	0.53434749
685.103	0.53428968
685.296	0.53433618
685.489	0.5342781
685.682	0.53426806
685.874	0.53438542
686.067	0.53444919
686.26	0.5344042
686.453	0.53437575
686.646	0.53434143
686.839	0.53438611
687.031	0.53444519
687.224	0.53412552
687.417	0.53415308
687.61	0.53408
687.802	0.53408351
687.995	0.53414561
688.188	0.53411569
688.38	0.53406766
688.573	0.53418686
688.766	0.53413341
688.958	0.53416344
689.151	0.53407023
689.343	0.5340659
689.536	0.53403078
689.729	0.53405186
689.921	0.53403476
690.114	0.53384213
690.306	0.53386056
690.499	0.53398142
690.691	0.5339503
690.884	0.53395787
691.076	0.53403711
691.268	0.53398405
691.461	0.53397545
691.653	0.53400403
691.846	0.53400417
692.038	0.53394384
692.23	0.53380241
692.423	0.53366413
692.615	0.53364872
692.807	0.53372636
692.999	0.53359969
693.192	0.53348168
693.384	0.53346692
693.576	0.53345981
693.768	0.5335228
693.961	0.53338935
694.153	0.53333006
694.345	0.53320895
694.537	0.53316672
694.729	0.533067
694.921	0.53300792
695.113	0.53299085
695.305	0.53308145
695.498	0.53306477
695.69	0.5332006
695.882	0.53308798
696.074	0.53311445
696.266	0.53308477
696.458	0.53293355
696.65	0.53290104
696.842	0.53289609
697.033	0.53280505
697.225	0.53281594
697.417	0.53285586
697.609	0.53287473
697.801	0.53290383
697.993	0.53295012
698.185	0.53285617
698.376	0.53283183
698.568	0.53273705
698.76	0.53255156
698.952	0.53241471
699.144	0.53219194
699.335	0.53204396
699.527	0.53197655
699.719	0.53186556
699.91	0.53196395
700.102	0.53198756
700.294	0.5320533
700.485	0.53215103
700.677	0.53203557
700.869	0.53210572
701.06	0.5321461
701.252	0.53202131
701.443	0.53194632
701.635	0.53187125
701.826	0.53186906
702.018	0.53192377
702.209	0.53186786
702.401	0.53182875
702.592	0.53190033
702.784	0.53186921
702.975	0.53186788
703.166	0.53172972
703.358	0.53159623
703.549	0.53152959
703.741	0.53142823
703.932	0.53124418
704.123	0.53114725
704.315	0.53111392
704.506	0.53123785
704.697	0.53133388
704.888	0.53147967
705.08	0.53151936
705.271	0.53163897
705.462	0.53156907
705.653	0.53144054
705.844	0.53123511
706.035	0.53104522
706.227	0.53080674
706.418	0.53064803
706.609	0.53050818
706.8	0.53063358
706.991	0.53059855
707.182	0.53068411
707.373	0.53070931
707.564	0.53076931
707.755	0.53069596
707.946	0.53064483
708.137	0.53038536
708.328	0.5302637
708.519	0.53018045
708.71	0.53010432
708.901	0.52991458
709.092	0.52999979
709.283	0.52994794
709.473	0.53006896
709.664	0.53022995
709.855	0.53017773
710.046	0.53022656
710.237	0.53019624
710.427	0.53010779
710.618	0.53011541
710.809	0.53000634
711	0.52990116
711.19	0.52971623
711.381	0.52972737
711.572	0.52970093
711.762	0.52980294
711.953	0.52978766
712.144	0.52980518
712.334	0.52968475
712.525	0.52984001
712.715	0.52975434
712.906	0.52970145
713.097	0.52943522
713.287	0.52936999
713.478	0.52923934
713.668	0.52929016
713.859	0.52920435
714.049	0.52908942
714.239	0.5291409
714.43	0.52930274
714.62	0.52928997
714.811	0.52938936
715.001	0.52938384
715.191	0.52934655
715.382	0.52930737
715.572	0.5293449
715.762	0.52915507
715.953	0.52917817
716.143	0.5291657
716.333	0.52910234
716.523	0.52914814
716.714	0.52929464
716.904	0.52929171
717.094	0.5294295
717.284	0.52924342
717.474	0.52910942
717.664	0.5291654
717.855	0.52903989
718.045	0.52879946
718.235	0.52864942
718.425	0.52868144
718.615	0.52884209
718.805	0.52898197
718.995	0.52898235
719.185	0.52912777
719.375	0.52932141
719.565	0.52945215
719.755	0.52936777
719.945	0.52930288
720.135	0.52933774
720.325	0.52938568
720.515	0.52932219
720.704	0.52927286
720.894	0.52928699
721.084	0.52933637
721.274	0.52946574
721.464	0.5294807
721.654	0.52954156
721.843	0.52961446
722.033	0.52975272
722.223	0.52978122
722.413	0.52991342
722.602	0.52989956
722.792	0.52985495
722.982	0.52972244
723.171	0.52969096
723.361	0.52962857
723.55	0.52970476
723.74	0.52957474
723.93	0.52959651
724.119	0.52970807
724.309	0.5298726
724.498	0.52993202
724.688	0.52998074
724.877	0.52996939
725.067	0.52999977
725.256	0.53001656
725.446	0.52996243
725.635	0.52983367
725.825	0.529821
726.014	0.52977298
726.203	0.52967871
726.393	0.52965005
726.582	0.52956101
726.771	0.52950787
726.961	0.52956142
727.15	0.52951383
727.339	0.52949743
727.529	0.52949079
727.718	0.52947296
727.907	0.52935411
728.096	0.52934225
728.286	0.5292786
728.475	0.52927501
728.664	0.52923461
728.853	0.52919053
729.042	0.52912582
729.231	0.52927499
729.42	0.52933328
729.609	0.52940705
729.799	0.52933902
729.988	0.52943085
730.177	0.52940356
730.366	0.52948365
730.555	0.52940341
730.744	0.52927679
730.933	0.529229
731.122	0.52925428
731.31	0.52922141
731.499	0.52930144
731.688	0.52935218
731.877	0.52943161
732.066	0.52950478
732.255	0.52941032
732.444	0.52947094
732.632	0.52945767
732.821	0.5294093
733.01	0.52939476
733.199	0.52916055
733.388	0.52909954
733.576	0.5291371
733.765	0.52912699
733.954	0.52917893
734.142	0.52923214
734.331	0.52928859
734.52	0.52956466
734.708	0.52970258
734.897	0.52980125
735.086	0.52972493
735.274	0.52963109
735.463	0.52962638
735.651	0.52942992
735.84	0.52938838
736.028	0.52938244
736.217	0.52937657
736.405	0.52952098
736.594	0.52963433
736.782	0.52973675
736.971	0.52987778
737.159	0.52990961
737.347	0.52990074
737.536	0.52984919
737.724	0.52982005
737.912	0.52973131
738.101	0.52959371
738.289	0.5295899
738.477	0.52960869
738.666	0.52960752
738.854	0.5296934
739.042	0.52973372
739.23	0.52980014
739.418	0.52996321
739.607	0.53001729
739.795	0.52995661
739.983	0.53005574
740.171	0.53014797
740.359	0.53011377
740.547	0.53011551
740.735	0.53005438
740.923	0.53015604
741.112	0.53027361
741.3	0.53027829
741.488	0.53018415
741.676	0.53043907
741.864	0.53055105
742.052	0.53073557
742.239	0.53072741
742.427	0.53078199
742.615	0.530837
742.803	0.53095686
742.991	0.53076798
743.179	0.5307242
743.367	0.53070172
743.555	0.53081791
743.742	0.53086436
743.93	0.5309548
744.118	0.53099352
744.306	0.53115351
744.494	0.53129706
744.681	0.53134719
744.869	0.53132595
745.057	0.53137525
745.244	0.53141119
745.432	0.53157412
745.62	0.53162857
745.807	0.53169106
745.995	0.5317066
746.182	0.53168928
746.37	0.53176134
746.558	0.53171513
746.745	0.53166071
746.933	0.53166217
747.12	0.53171398
747.308	0.53193836
747.495	0.53202121
747.683	0.53205607
747.87	0.53226906
748.057	0.53243041
748.245	0.53261854
748.432	0.53264683
748.62	0.53252794
748.807	0.53262156
748.994	0.53263878
749.182	0.53255258
749.369	0.53255446
749.556	0.53260955
749.743	0.53269609
749.931	0.53277493
750.118	0.53293024
750.305	0.53309513
750.492	0.53316231
750.68	0.5332779
750.867	0.53327181
751.054	0.53339775
751.241	0.53344109
751.428	0.53338104
751.615	0.53338793
751.802	0.53348851
751.989	0.53348914
752.176	0.53368886
752.363	0.53383047
752.55	0.53405316
752.737	0.53431358
752.924	0.53442943
753.111	0.53455991
753.298	0.53469649
753.485	0.53468006
753.672	0.53465053
753.859	0.53466139
754.046	0.53457585
754.233	0.53456616
754.42	0.53472483
754.606	0.53468989
754.793	0.53475505
754.98	0.53495505
755.167	0.53497065
755.353	0.5351481
755.54	0.53539054
755.727	0.53546155
755.914	0.53564759
756.1	0.53570986
756.287	0.53559132
756.474	0.53564698
756.66	0.53571361
756.847	0.53574909
757.033	0.53560903
757.22	0.53559571
757.407	0.53576874
757.593	0.53594014
757.78	0.53597467
757.966	0.53610722
758.153	0.53613399
758.339	0.5363269
758.526	0.53637968
758.712	0.53629226
758.898	0.53640209
759.085	0.5364438
759.271	0.53635354
759.458	0.53631973
759.644	0.53639545
759.83	0.53645651
760.017	0.53662344
760.203	0.53664676
760.389	0.53681235
760.576	0.53705689
760.762	0.53725992
760.948	0.53729402
761.134	0.5374349
761.32	0.5374627
761.507	0.53750296
761.693	0.53768127
761.879	0.53757422
762.065	0.53764842
762.251	0.53777494
762.437	0.53796649
762.623	0.53807564
762.809	0.53816466
762.995	0.53816617
763.181	0.53832423
763.367	0.5384014
763.553	0.53850297
763.739	0.53855334
763.925	0.53862478
764.111	0.53872413
764.297	0.53885957
764.483	0.53884993
764.669	0.53874628
764.855	0.53860943
765.041	0.53850109
765.227	0.53837482
765.412	0.53844133
765.598	0.5383979
765.784	0.53855953
765.97	0.5388836
766.156	0.53917458
766.341	0.53946517
766.527	0.53974894
766.713	0.53978268
766.898	0.53992924
767.084	0.53998357
767.27	0.53981798
767.455	0.53973798
767.641	0.53964079
767.827	0.53960997
768.012	0.53965587
768.198	0.53971
768.383	0.53970211
768.569	0.53996306
768.754	0.54021963
768.94	0.54033667
769.125	0.54040521
769.311	0.54043265
769.496	0.54049036
769.682	0.54060063
769.867	0.54067043
770.052	0.54065793
770.238	0.54063297
770.423	0.54068212
770.608	0.54080851
770.794	0.54082807
770.979	0.54075525
771.164	0.54068282
771.35	0.54073454
771.535	0.54089389
771.72	0.54100469
771.905	0.54123411
772.09	0.54135616
772.276	0.54166228
772.461	0.54172232
772.646	0.54172236
772.831	0.5417554
773.016	0.54185602
773.201	0.54170444
773.386	0.5417967
773.571	0.54168168
773.756	0.54172284
773.941	0.54170398
774.126	0.54183989
774.311	0.54184609
774.496	0.54203137
774.681	0.54208501
774.866	0.54225058
775.051	0.5423137
775.236	0.54245784
775.421	0.54236054
775.606	0.54232434
775.791	0.54209497
775.976	0.54199671
776.16	0.54193052
776.345	0.54198288
776.53	0.54214811
776.715	0.5422863
776.899	0.54235686
777.084	0.54257846
777.269	0.54268399
777.454	0.54284131
777.638	0.54297364
777.823	0.54295314
778.008	0.54285042
778.192	0.54300572
778.377	0.54299458
778.561	0.5429931
778.746	0.54296158
778.931	0.5428823
779.115	0.54295896
779.3	0.54308601
779.484	0.54305151
779.669	0.5430583
779.853	0.54308098
780.037	0.54313761
780.222	0.54321835
780.406	0.54321464
780.591	0.54333847
780.775	0.54342677
780.959	0.54350191
781.144	0.54359344
781.328	0.5436344
781.512	0.54361446
781.697	0.54351589
781.881	0.54336479
782.065	0.54342429
782.249	0.54334342
782.434	0.54331833
782.618	0.54332947
782.802	0.54340651
782.986	0.54354563
783.17	0.54374968
783.354	0.54374236
783.539	0.54381122
783.723	0.54382288
783.907	0.54386174
784.091	0.54390749
784.275	0.54385401
784.459	0.54373019
784.643	0.54368868
784.827	0.54364203
785.011	0.54361392
785.195	0.54355254
785.379	0.54359233
785.563	0.54360085
785.747	0.54367911
785.93	0.54390571
786.114	0.54407836
786.298	0.54414701
786.482	0.54418058
786.666	0.54418108
786.85	0.54414435
787.033	0.54408884
787.217	0.54396579
787.401	0.54390048
787.585	0.54384118
787.768	0.54386422
787.952	0.54364771
788.136	0.54363563
788.319	0.54363574
788.503	0.54343178
788.687	0.54348207
788.87	0.54351287
789.054	0.54349782
789.237	0.54370207
789.421	0.54382435
789.605	0.54382903
789.788	0.54395854
789.972	0.54388926
790.155	0.54375486
790.338	0.54366079
790.522	0.54356015
790.705	0.54342208
790.889	0.54332626
791.072	0.54333081
791.256	0.54333822
791.439	0.54345288
791.622	0.54351969
791.806	0.54373329
791.989	0.54372266
792.172	0.5439106
792.355	0.54401339
792.539	0.54406197
792.722	0.54407849
792.905	0.544035
793.088	0.54376726
793.271	0.54379455
793.455	0.54368615
793.638	0.5434799
793.821	0.54331019
794.004	0.54322935
794.187	0.54328021
794.37	0.54334847
794.553	0.54341959
794.736	0.54332716
794.919	0.54326025
795.102	0.54336467
795.285	0.54337
795.468	0.54328743
795.651	0.54326256
795.834	0.54327548
796.017	0.54332476
796.2	0.54329761
796.383	0.54315043
796.566	0.54312925
796.749	0.54302467
796.931	0.54295299
797.114	0.54271554
797.297	0.54261801
797.48	0.54260009
797.663	0.54270768
797.845	0.54276362
798.028	0.54298535
798.211	0.5430576
798.393	0.54306773
798.576	0.5431438
798.759	0.54306923
798.941	0.54293707
799.124	0.54276762
799.307	0.54260048
799.489	0.54246662
799.672	0.54228783
799.854	0.54202215
800.037	0.54198248
800.219	0.54191484
800.402	0.54197793
800.584	0.54186948
800.767	0.54174994
800.949	0.54190419
801.132	0.54214891
801.314	0.54222358
801.496	0.54228071
801.679	0.54216933
801.861	0.5421835
802.043	0.54195082
802.226	0.54172928
802.408	0.54132815
802.59	0.54110629
802.772	0.54095121
802.955	0.54083299
803.137	0.54056054
803.319	0.54065783
803.501	0.54058373
803.684	0.54072482
803.866	0.54063159
804.048	0.54057652
804.23	0.54065323
804.412	0.54082209
804.594	0.54079379
804.776	0.54104086
804.958	0.54091888
805.14	0.54095561
805.322	0.54088322
805.504	0.54073559
805.686	0.54043913
805.868	0.54030958
806.05	0.5399731
806.232	0.53986344
806.414	0.53981832
806.596	0.53975949
806.778	0.53960042
806.96	0.53982116
807.141	0.539796
807.323	0.53987822
807.505	0.53983571
807.687	0.53984063
807.869	0.5398095
808.05	0.539827
808.232	0.53956081
808.414	0.53942744
808.595	0.53918964
808.777	0.53894708
808.959	0.53878155
809.14	0.53862932
809.322	0.53850485
809.504	0.53839181
809.685	0.53853987
809.867	0.53851946
810.048	0.53859649
810.23	0.53847895
810.411	0.53846528
810.593	0.53838231
810.774	0.53823825
810.956	0.53796765
811.137	0.53778666
811.319	0.53771349
811.5	0.53758171
811.681	0.53730806
811.863	0.53701269
812.044	0.53684956
812.225	0.53672387
812.407	0.5366163
812.588	0.53645605
812.769	0.53634413
812.951	0.53633585
813.132	0.53641677
813.313	0.53660328
813.494	0.53647944
813.675	0.53649628
813.857	0.53648285
814.038	0.53650353
814.219	0.53637347
814.4	0.53610094
814.581	0.53601518
814.762	0.5358538
814.943	0.5356475
815.124	0.53542652
815.305	0.53515983
815.486	0.53497323
815.667	0.53490965
815.848	0.53449793
816.029	0.53430361
816.21	0.53423773
816.391	0.53415338
816.572	0.5341077
816.753	0.53420442
816.934	0.53418566
817.115	0.53423366
817.295	0.53429531
817.476	0.53400437
817.657	0.53384485
817.838	0.53379124
818.019	0.53337602
818.199	0.5331196
818.38	0.53272927
818.561	0.53249275
818.741	0.53247806
818.922	0.53221505
819.103	0.53208745
819.283	0.53217664
819.464	0.5321865
819.645	0.53231842
819.825	0.5323092
820.006	0.53219615
820.186	0.53228264
820.367	0.53212246
820.547	0.53184102
820.728	0.53141402
820.908	0.53110211
821.089	0.5309758
821.269	0.53079237
821.45	0.53054396
821.63	0.53013541
821.81	0.53005707
821.991	0.53019521
822.171	0.53013827
822.351	0.52997801
822.532	0.5298647
822.712	0.5297225
822.892	0.52972855
823.072	0.52961411
823.253	0.52941498
823.433	0.52925843
823.613	0.52907404
823.793	0.52885053
823.973	0.52876829
824.154	0.52846668
824.334	0.52814396
824.514	0.52787003
824.694	0.52761137
824.874	0.52725218
825.054	0.52711463
825.234	0.52692122
825.414	0.52677358
825.594	0.52667875
825.774	0.52669697
825.954	0.52663272
826.134	0.52668994
826.314	0.52651373
826.494	0.52642315
826.674	0.52616258
826.854	0.52599978
827.033	0.52556113
827.213	0.52542637
827.393	0.52505413
827.573	0.52488643
827.753	0.52442225
827.932	0.52448685
828.112	0.52429649
828.292	0.52424773
828.472	0.52397533
828.651	0.52404442
828.831	0.52379207
829.011	0.52382716
829.19	0.52356411
829.37	0.52342948
829.549	0.5232804
829.729	0.52311357
829.909	0.5226735
830.088	0.52257088
830.268	0.5222009
830.447	0.52204355
830.627	0.5218539
830.806	0.52162408
830.986	0.52122753
831.165	0.52098341
831.344	0.52071766
831.524	0.52040989
831.703	0.52007088
831.883	0.51982506
832.062	0.51965278
832.241	0.51959646
832.421	0.51956485
832.6	0.51939588
832.779	0.51947414
832.958	0.51938447
833.138	0.51911069
833.317	0.51898334
833.496	0.51886303
833.675	0.5187063
833.854	0.51867977
834.034	0.51842259
834.213	0.51828013
834.392	0.51818106
834.571	0.5176848
834.75	0.51737307
834.929	0.51705371
835.108	0.51658397
835.287	0.51641942
835.466	0.51601271
835.645	0.51582697
835.824	0.51583165
836.003	0.51583603
836.182	0.51577159
836.361	0.5158235
836.54	0.51553755
836.719	0.51551582
836.897	0.5152248
837.076	0.51497605
837.255	0.51451977
837.434	0.51423762
837.613	0.51378316
837.791	0.51349712
837.97	0.51323388
838.149	0.51289523
838.328	0.51254445
838.506	0.51228894
838.685	0.5120415
838.864	0.51190879
839.042	0.51171103
839.221	0.51167561
839.4	0.5116456
839.578	0.51160801
839.757	0.51130856
839.935	0.51102116
840.114	0.51086016
840.292	0.51064104
840.471	0.51030204
840.649	0.50989489
840.828	0.50945304
841.006	0.50932483
841.185	0.5088484
841.363	0.50859156
841.541	0.50833143
841.72	0.50808839
841.898	0.50797954
842.076	0.50787391
842.255	0.50775446
842.433	0.50792321
842.611	0.50763878
842.789	0.50744511
842.968	0.50732302
843.146	0.50704575
843.324	0.50696138
843.502	0.50672751
843.68	0.50659294
843.859	0.50639594
844.037	0.50620293
844.215	0.50568331
844.393	0.50539851
844.571	0.5049277
844.749	0.50469491
844.927	0.50409467
845.105	0.50374255
845.283	0.50344818
845.461	0.50323688
845.639	0.50312629
845.817	0.50301821
845.995	0.5029276
846.173	0.50289422
846.351	0.50262966
846.529	0.50233884
846.706	0.50211526
846.884	0.50192198
847.062	0.50160445
847.24	0.50099873
847.418	0.50053738
847.595	0.50020381
847.773	0.49995957
847.951	0.49959118
848.129	0.49922197
848.306	0.49900202
848.484	0.49876983
848.662	0.49873873
848.839	0.49882883
849.017	0.49879543
849.194	0.49874986
849.372	0.49852364
849.549	0.49823411
849.727	0.49821976
849.905	0.49787694
850.082	0.49734302
850.26	0.49694123
850.437	0.49665758
850.614	0.49640565
850.792	0.49610185
850.969	0.49585083
851.147	0.49564579
851.324	0.49557137
851.501	0.49527578
851.679	0.4950071
851.856	0.49468413
852.033	0.49451259
852.211	0.4940948
852.388	0.49372947
852.565	0.49349875
852.742	0.49341351
852.92	0.49319027
853.097	0.49303659
853.274	0.49290518
853.451	0.49266361
853.628	0.49240137
853.805	0.49205288
853.982	0.49156928
854.159	0.49112743
854.336	0.49078979
854.514	0.4903784
854.691	0.49001966
854.868	0.48979878
855.045	0.48950725
855.221	0.48944771
855.398	0.48922993
855.575	0.48894999
855.752	0.48873423
855.929	0.48891038
856.106	0.48866416
856.283	0.48851585
856.46	0.48834654
856.637	0.4884421
856.813	0.48826869
856.99	0.48809377
857.167	0.48768959
857.344	0.48746808
857.52	0.48698846
857.697	0.48629487
857.874	0.4855547
858.05	0.4850601
858.227	0.48446772
858.404	0.48410966
858.58	0.48388843
858.757	0.4837425
858.933	0.48370057
859.11	0.48372113
859.287	0.48343267
859.463	0.4832043
859.64	0.4830632
859.816	0.4826985
859.993	0.4824038
860.169	0.48229593
860.345	0.48184445
860.522	0.48170192
860.698	0.48149739
860.875	0.48093982
861.051	0.48067559
861.227	0.4801222
861.404	0.47969222
861.58	0.47963531
861.756	0.47938118
861.932	0.47923113
862.109	0.47869852
862.285	0.47845219
862.461	0.47863198
862.637	0.47831175
862.813	0.47797455
862.99	0.47762399
863.166	0.47718555
863.342	0.47745267
863.518	0.47706127
863.694	0.47672807
863.87	0.47647232
864.046	0.47605208
864.222	0.47590688
864.398	0.47575774
864.574	0.4750282
864.75	0.47488132
864.926	0.47443924
865.102	0.47421737
865.278	0.47375477
865.454	0.47342206
865.63	0.47297388
865.805	0.47279363
865.981	0.47245146
866.157	0.47222789
866.333	0.47173144
866.509	0.47179702
866.684	0.47156551
866.86	0.47175833
867.036	0.47161183
867.212	0.47121621
867.387	0.47098384
867.563	0.47076785
867.739	0.47040922
867.914	0.47009027
868.09	0.46933387
868.265	0.4688736
868.441	0.46863002
868.617	0.46821551
868.792	0.46794377
868.968	0.4673557
869.143	0.46715828
869.319	0.46711361
869.494	0.46673824
869.67	0.46656255
869.845	0.46628131
870.02	0.46610309
870.196	0.46619606
870.371	0.46588344
870.546	0.46556397
870.722	0.46553887
870.897	0.46509824
871.072	0.4648888
871.248	0.46450194
871.423	0.46397914
871.598	0.46380327
871.773	0.46330427
871.949	0.46294238
872.124	0.46285345
872.299	0.46241984
872.474	0.462137
872.649	0.46182467
872.824	0.46120423
872.999	0.46111559
873.174	0.46096771
873.349	0.46071729
873.524	0.460675
873.699	0.46056918
873.874	0.46047124
874.049	0.46038692
874.224	0.46016753
874.399	0.45986591
874.574	0.45973834
874.749	0.4593394
874.924	0.45877567
875.099	0.45840611
875.274	0.45799868
875.449	0.45770045
875.623	0.45732571
875.798	0.45678392
875.973	0.45640168
876.148	0.45606283
876.322	0.45585725
876.497	0.45540093
876.672	0.45498625
876.846	0.45472304
877.021	0.45435819
877.196	0.45380227
877.37	0.45390828
877.545	0.45384022
877.72	0.45379289
877.894	0.45361939
878.069	0.45333717
878.243	0.45279425
878.418	0.45271496
878.592	0.45218105
878.767	0.45158312
878.941	0.45133582
879.116	0.45078132
879.29	0.45023482
879.464	0.44993906
879.639	0.44953433
879.813	0.44946998
879.987	0.4491543
880.162	0.44885559
880.336	0.44874753
880.51	0.44883335
880.685	0.44902721
880.859	0.44921833
881.033	0.44886837
881.207	0.44866703
881.381	0.44864808
881.556	0.44822116
881.73	0.44782372
881.904	0.44761695
882.078	0.44723165
882.252	0.44686752
882.426	0.44640324
882.6	0.44595647
882.774	0.44591151
882.948	0.44552152
883.122	0.44467624
883.296	0.44421835
883.47	0.44389695
883.644	0.44403516
883.818	0.44330455
883.992	0.44313677
884.166	0.44321089
884.34	0.44352007
884.514	0.44367387
884.687	0.44366574
884.861	0.44304597
885.035	0.44338779
885.209	0.44312232
885.382	0.44283176
885.556	0.44233674
885.73	0.4418574
885.904	0.44146423
886.077	0.44119203
886.251	0.44067399
886.425	0.44026011
886.598	0.43998336
886.772	0.43965945
886.945	0.4389613
887.119	0.4383259
887.292	0.43796298
887.466	0.43795944
887.64	0.43752456
887.813	0.4371265
887.986	0.43695949
888.16	0.43717343
888.333	0.4371163
888.507	0.43719914
888.68	0.4367705
888.854	0.4365969
889.027	0.4362991
889.2	0.43613591
889.374	0.43570868
889.547	0.43559685
889.72	0.43534735
889.893	0.43489179
890.067	0.43451125
890.24	0.43400414
890.413	0.43344143
890.586	0.43298929
890.759	0.43254555
890.933	0.43224468
891.106	0.43197197
891.279	0.43179063
891.452	0.43164802
891.625	0.43145174
891.798	0.43132098
891.971	0.43125609
892.144	0.4308871
892.317	0.43076153
892.49	0.43043647
892.663	0.43022753
892.836	0.43041062
893.009	0.43033261
893.182	0.42979556
893.355	0.42970872
893.527	0.4294585
893.7	0.42951018
893.873	0.42934431
894.046	0.42851525
894.219	0.42822072
894.391	0.42806716
894.564	0.42765865
894.737	0.42739225
894.91	0.42699333
895.082	0.42659528
895.255	0.4265098
895.428	0.42611018
895.6	0.42568806
895.773	0.42541767
895.945	0.42511057
896.118	0.42490581
896.291	0.42482716
896.463	0.42459761
896.636	0.42432716
896.808	0.42422571
896.981	0.42402103
897.153	0.42363867
897.326	0.42331336
897.498	0.42274796
897.67	0.4223376
897.843	0.42213792
898.015	0.42191868
898.187	0.42170094
898.36	0.42125549
898.532	0.4207651
898.704	0.42078475
898.877	0.42053583
899.049	0.42027527
899.221	0.42008882
899.393	0.41965774
899.566	0.41972309
899.738	0.41987954
899.91	0.41975869
900.082	0.41969888
900.254	0.41965946
900.426	0.41950677
900.598	0.41949606
900.77	0.41884706
900.942	0.41814134
901.114	0.41749557
901.286	0.41708957
901.458	0.41656113
901.63	0.41607962
901.802	0.41563045
901.974	0.41564749
902.146	0.41537293
902.318	0.4151626
902.49	0.41472764
902.662	0.41440728
902.834	0.41410533
903.005	0.4140102
903.177	0.41386784
903.349	0.41403848
903.521	0.4138188
903.693	0.41390467
903.864	0.41380369
904.036	0.41377888
904.208	0.41306427
904.379	0.41253628
904.551	0.41226058
904.723	0.41215661
904.894	0.41153261
905.066	0.41103273
905.237	0.4107206
905.409	0.41073684
905.58	0.41077457
905.752	0.41027814
905.923	0.40983399
906.095	0.40964288
906.266	0.40923083
906.438	0.40882509
906.609	0.40862512
906.78	0.4080957
906.952	0.40796328
907.123	0.4076294
907.295	0.40761507
907.466	0.40770976
907.637	0.40767495
907.808	0.40737601
907.98	0.40724285
908.151	0.40694618
908.322	0.40697909
908.493	0.40661485
908.665	0.40637782
908.836	0.40578228
909.007	0.40548775
909.178	0.4051098
909.349	0.40479239
909.52	0.40469393
909.691	0.40439859
909.862	0.4041474
910.033	0.40407035
910.204	0.4040119
910.375	0.40411353
910.546	0.40417994
910.717	0.40367234
910.888	0.40370819
911.059	0.40352881
911.23	0.40338549
911.401	0.40290687
911.572	0.40235726
911.742	0.4016991
911.913	0.40148087
912.084	0.40081579
912.255	0.40044966
912.426	0.39996133
912.596	0.39969207
912.767	0.39964973
912.938	0.39967191
913.108	0.39942285
913.279	0.39933232
913.45	0.39897098
913.62	0.39895678
913.791	0.39883206
913.962	0.39855768
914.132	0.39812696
914.303	0.39785335
914.473	0.39760888
914.644	0.39721444
914.814	0.3967243
914.985	0.3963871
915.155	0.39621603
915.326	0.39596347
915.496	0.39561241
915.666	0.39522973
915.837	0.39565985
916.007	0.39523914
916.177	0.39482951
916.348	0.39470601
916.518	0.39456473
916.688	0.39447239
916.858	0.39439444
917.029	0.39363941
917.199	0.39372937
917.369	0.39376831
917.539	0.39324582
917.709	0.39280643
917.88	0.39222091
918.05	0.39170014
918.22	0.39148381
918.39	0.39097186
918.56	0.39071878
918.73	0.39066335
918.9	0.3904375
919.07	0.39033389
919.24	0.39020635
919.41	0.39007839
919.58	0.38984014
919.75	0.38972425
919.92	0.38911047
920.09	0.38897819
920.26	0.38856396
920.429	0.38841263
920.599	0.38794387
920.769	0.38783612
920.939	0.3870113
921.109	0.38673726
921.278	0.38644884
921.448	0.38639848
921.618	0.38627404
921.787	0.38611776
921.957	0.38601541
922.127	0.38591364
922.296	0.38609967
922.466	0.38572613
922.636	0.38564012
922.805	0.3855002
922.975	0.38508796
923.144	0.38478704
923.314	0.38469222
923.483	0.38430103
923.653	0.38417287
923.822	0.38389839
923.992	0.38367427
924.161	0.38382533
924.331	0.38347873
924.5	0.38316229
924.669	0.38261814
924.839	0.38255546
925.008	0.38222598
925.177	0.38159777
925.347	0.38121771
925.516	0.38132162
925.685	0.38121933
925.854	0.38140077
926.023	0.38110448
926.193	0.38112936
926.362	0.38077716
926.531	0.3806345
926.7	0.3799868
926.869	0.38001505
927.038	0.37921129
927.207	0.37878336
927.376	0.37827444
927.545	0.37826296
927.715	0.37796397
927.884	0.37797016
928.052	0.37799404
928.221	0.37769246
928.39	0.37740896
928.559	0.37717704
928.728	0.3773339
928.897	0.37745839
929.066	0.37732598
929.235	0.37625554
929.404	0.37644787
929.572	0.37641825
929.741	0.37636429
929.91	0.37582818
930.079	0.37505372
930.247	0.37456138
930.416	0.37485274
930.585	0.37463922
930.753	0.37434442
930.922	0.37432622
931.091	0.37432237
931.259	0.37425081
931.428	0.37458649
931.596	0.3743774
931.765	0.37437066
931.934	0.37437117
932.102	0.373391
932.27	0.37330511
932.439	0.37317853
932.607	0.37256742
932.776	0.37258115
932.944	0.37237751
933.113	0.37205565
933.281	0.37217773
933.449	0.37094866
933.618	0.3702671
933.786	0.37023058
933.954	0.36941538
934.123	0.36890902
934.291	0.36893727
934.459	0.36854296
934.627	0.3690978
934.795	0.369439
934.964	0.36875987
935.132	0.36841441
935.3	0.36778752
935.468	0.36692216
935.636	0.36722369
935.804	0.36673846
935.972	0.36652908
936.14	0.36656446
936.308	0.3665542
936.476	0.3672494
936.644	0.36747948
936.812	0.36727898
936.98	0.36715032
937.148	0.36621266
937.316	0.36532645
937.484	0.36599446
937.652	0.36501459
937.82	0.36580703
937.987	0.36520835
938.155	0.36530635
938.323	0.36625622
938.491	0.36596927
938.658	0.36640876
938.826	0.36609271
938.994	0.36475944
939.162	0.36476932
939.329	0.36523644
939.497	0.36578328
939.665	0.3672474
939.832	0.36781072
940	0.36956461
940.167	0.37012048
940.335	0.36924252
940.502	0.36804927
940.67	0.36733173
940.837	0.3679143
941.005	0.36573141
941.172	0.36461467
941.34	0.36524817
941.507	0.36905707
941.674	0.37128074
941.842	0.3715205
942.009	0.37492292
942.177	0.37282982
942.344	0.3747046
942.511	0.37470869
942.678	0.37361567
942.846	0.37129285
943.013	0.37094619
943.18	0.36666551
943.347	0.37000693
943.514	0.36956606
943.682	0.37138672
943.849	0.3696284
944.016	0.36880597
944.183	0.36945779
944.35	0.37077892
944.517	0.37355608
944.684	0.37326739
944.851	0.36500244
945.018	0.3654494
945.185	0.36632315
945.352	0.36474301
945.519	0.36240798
945.686	0.35884078
945.853	0.36322906
946.02	0.36490274
946.187	0.36282789
946.353	0.36563163
946.52	0.36587792
946.687	0.36605585
946.854	0.36742478
947.021	0.36241073
947.187	0.36382705
947.354	0.36292406
947.521	0.36135882
947.687	0.35955901
947.854	0.35897191
948.021	0.35562229
948.187	0.35463591
948.354	0.35398063
948.52	0.35427684
948.687	0.35611566
948.854	0.3583607
949.02	0.3561434
949.187	0.35713969
949.353	0.35769025
949.52	0.35661648
949.686	0.35685927
949.852	0.35472789
950.019	0.35430266
950.185	0.35622745
950.352	0.35587924
950.518	0.3545576
950.684	0.3573191
950.851	0.35828577
951.017	0.35658748
951.183	0.3557656
951.349	0.3550506
951.516	0.35173172
951.682	0.3522479
951.848	0.34893695
952.014	0.34645009
952.18	0.3465028
952.346	0.34618306
952.512	0.34613245
952.679	0.34871857
952.845	0.34761069
953.011	0.34838404
953.177	0.34881793
953.343	0.34731595
953.509	0.34828517
953.675	0.34811519
953.841	0.34695941
954.007	0.34841997
954.172	0.34998944
954.338	0.34917916
954.504	0.34913452
954.67	0.34605595
954.836	0.34606098
955.002	0.34621481
955.167	0.34492363
955.333	0.34190308
955.499	0.34180961
955.665	0.34072867
955.83	0.34255508
955.996	0.34232845
956.162	0.34160018
956.327	0.34093303
956.493	0.34160126
956.659	0.34273023
956.824	0.34332844
956.99	0.34162438
957.155	0.34122418
957.321	0.34161866
957.486	0.34191587
957.652	0.34208273
957.817	0.34180279
957.983	0.34172864
958.148	0.34163869
958.314	0.34021788
958.479	0.33848055
958.644	0.33824397
958.81	0.33832505
958.975	0.33766827
959.14	0.33767306
959.306	0.33723409
959.471	0.33714246
959.636	0.33672029
959.801	0.33792441
959.967	0.33727064
960.132	0.33752877
960.297	0.33674951
960.462	0.33779725
960.627	0.33739357
960.792	0.33728667
960.957	0.33561284
961.123	0.33617481
961.288	0.3352268
961.453	0.33607378
961.618	0.33506596
961.783	0.33637267
961.948	0.33622998
962.113	0.33498108
962.277	0.3331112
962.442	0.33334004
962.607	0.33270904
962.772	0.33229004
962.937	0.3306756
963.102	0.33108552
963.267	0.33192521
963.431	0.33250709
963.596	0.33147893
963.761	0.33080598
963.926	0.32997195
964.09	0.33060975
964.255	0.33081368
964.42	0.33113035
964.584	0.33174511
964.749	0.33154803
964.914	0.33069692
965.078	0.33066283
965.243	0.3295346
965.407	0.32868378
965.572	0.32729311
965.736	0.32680373
965.901	0.32773351
966.065	0.33028105
966.23	0.33035307
966.394	0.33094
966.559	0.33126709
966.723	0.33174804
966.887	0.33129105
967.052	0.32970509
967.216	0.3267743
967.38	0.32546594
967.545	0.32496244
967.709	0.32496692
967.873	0.32545654
968.037	0.32484557
968.202	0.32517512
968.366	0.32635284
968.53	0.32750365
968.694	0.32710442
968.858	0.32659929
969.022	0.32487176
969.187	0.32424316
969.351	0.32430331
969.515	0.32404301
969.679	0.3225838
969.843	0.32235351
970.007	0.32141486
970.171	0.32243067
970.335	0.32274614
970.499	0.32245092
970.662	0.32163168
970.826	0.32246758
970.99	0.32267784
971.154	0.32293875
971.318	0.32192114
971.482	0.32035744
971.645	0.32017482
971.809	0.32151287
971.973	0.3215939
972.137	0.32067434
972.3	0.32067236
972.464	0.32063016
972.628	0.32326472
972.791	0.32404298
972.955	0.32274722
973.119	0.32243416
973.282	0.32245049
973.446	0.32233989
973.609	0.32226386
973.773	0.32030713
973.936	0.31905814
974.1	0.3190798
974.263	0.31912806
974.427	0.31939402
974.59	0.31848668
974.754	0.31814282
974.917	0.31810174
975.08	0.31920086
975.244	0.31828002
975.407	0.31795379
975.57	0.31722093
975.734	0.31771671
975.897	0.31756273
976.06	0.31755549
976.223	0.3162913
976.387	0.31693627
976.55	0.31644113
976.713	0.31639293
976.876	0.31621647
977.039	0.31569347
977.202	0.31611265
977.365	0.31584614
977.528	0.3156054
977.692	0.31631248
977.855	0.31499901
978.018	0.31478728
978.181	0.31535601
978.344	0.31452283
978.506	0.31398916
978.669	0.31278158
978.832	0.31161203
978.995	0.31243484
979.158	0.31335316
979.321	0.31231582
979.484	0.3120683
979.646	0.31191286
979.809	0.3127202
979.972	0.31200428
980.135	0.31278067
980.297	0.31159877
980.46	0.31078034
980.623	0.31128683
980.786	0.31153363
980.948	0.31103334
981.111	0.31131479
981.273	0.31045332
981.436	0.30945169
981.599	0.31067078
981.761	0.30952642
981.924	0.30922334
982.086	0.30893062
982.249	0.30953938
982.411	0.30880691
982.573	0.30864244
982.736	0.30976956
982.898	0.31030619
983.061	0.30998703
983.223	0.30961501
983.385	0.30847025
983.548	0.3097789
983.71	0.31022509
983.872	0.30909371
984.034	0.30814294
984.197	0.3070907
984.359	0.30767417
984.521	0.30921079
984.683	0.30913538
984.845	0.3102638
985.008	0.30931815
985.17	0.3113624
985.332	0.3128663
985.494	0.31145968
985.656	0.31083761
985.818	0.3102994
985.98	0.30972843
986.142	0.30787241
986.304	0.30599604
986.466	0.30469042
986.628	0.30470643
986.79	0.30374926
986.952	0.30238801
987.113	0.30193079
987.275	0.30263585
987.437	0.30229033
987.599	0.30288359
987.761	0.30343959
987.922	0.30219357
988.084	0.30273103
988.246	0.30186519
988.408	0.30363603
988.569	0.30331319
988.731	0.303033
988.893	0.30322369
989.054	0.3062998
989.216	0.30670685
989.377	0.30626901
989.539	0.30465899
989.701	0.30414557
989.862	0.3046193
990.024	0.30397528
990.185	0.30087594
990.347	0.30067406
990.508	0.29974474
990.669	0.3005886
990.831	0.30094529
990.992	0.30200593
991.154	0.30029586
991.315	0.30268912
991.476	0.30315241
991.638	0.30367356
991.799	0.30259962
991.96	0.30251205
992.121	0.30041832
992.283	0.30203483
992.444	0.30021877
992.605	0.29841399
992.766	0.29828485
992.927	0.29783906
993.088	0.29790527
993.249	0.29734213
993.41	0.29576385
993.572	0.29633128
993.733	0.29772577
993.894	0.29822782
994.055	0.29652706
994.216	0.29757032
994.376	0.29533577
994.537	0.29785091
994.698	0.2977875
994.859	0.29607684
995.02	0.29526608
995.181	0.29466917
995.342	0.29411564
995.503	0.29603773
995.663	0.29442316
995.824	0.29344839
995.985	0.2970515
996.146	0.29826218
996.306	0.30039684
996.467	0.3003675
996.628	0.3025781
996.788	0.30213021
996.949	0.30507969
997.11	0.30165099
997.27	0.29902807
997.431	0.29858707
997.591	0.29448905
997.752	0.29037298
997.912	0.29144241
998.073	0.28881896
998.233	0.28951077
998.394	0.29035974
998.554	0.29166906
998.714	0.29403852
998.875	0.29412541
999.035	0.29225381
999.196	0.29227906
999.356	0.29130148
999.516	0.29302147
999.676	0.29295156
999.837	0.29318
999.997	0.29388065
1000.157	0.29348667
1000.317	0.29015302
1000.477	0.28925444
1000.638	0.28592623
1000.798	0.28671422
1000.958	0.28820082
1001.118	0.28848616
1001.278	0.28950383
1001.438	0.29107248
1001.598	0.29149036
1001.758	0.29400901
1001.918	0.29158283
1002.078	0.28723323
1002.238	0.28665741
1002.398	0.28721283
1002.558	0.28569662
1002.718	0.28664726
1002.878	0.28576259
1003.037	0.2803521
1003.197	0.28373879
1003.357	0.28211476
1003.517	0.28416002
1003.677	0.28391709
1003.836	0.28338
1003.996	0.2836354
1004.156	0.28831747
1004.315	0.28893765
1004.475	0.29276582
1004.635	0.2927549
1004.794	0.29692683
1004.954	0.29653715
1005.114	0.2954539
1005.273	0.29864523
1005.433	0.29425112
1005.592	0.29349843
1005.752	0.29144832
1005.911	0.28897447
1006.071	0.28965229
1006.23	0.28751434
1006.389	0.28407702
1006.549	0.28487716
1006.708	0.28386158
1006.868	0.27800595
1007.027	0.28026501
1007.186	0.28068422
1007.345	0.28617619
1007.505	0.28818624
1007.664	0.29338104
1007.823	0.29348248
1007.982	0.29925239
1008.142	0.29913485
1008.301	0.29976203
1008.46	0.29365024
1008.619	0.28920597
1008.778	0.28487959
1008.937	0.28289461
1009.096	0.28282902
1009.255	0.28063797
1009.414	0.27444004
1009.573	0.27961714
1009.732	0.28539661
1009.891	0.28499079
1010.05	0.28942946
1010.209	0.28597932
1010.368	0.28431277
1010.527	0.28721497
1010.686	0.28725541
1010.845	0.28108611
1011.003	0.28047269
1011.162	0.27819077
1011.321	0.27445682
1011.48	0.27706716
1011.638	0.27976058
1011.797	0.27877432
1011.956	0.28263519
1012.115	0.28449275
1012.273	0.28344204
1012.432	0.2888325
1012.59	0.28491422
1012.749	0.28372711
1012.908	0.28107377
1013.066	0.28334871
1013.225	0.28084417
1013.383	0.28388137
1013.542	0.28294374
1013.7	0.28720337
1013.859	0.2914045
1014.017	0.29480846
1014.175	0.28740821
1014.334	0.29394446
1014.492	0.2960612
1014.65	0.29886503
1014.809	0.30225591
1014.967	0.29639065
1015.125	0.29541488
1015.284	0.30493119
1015.442	0.29991261
1015.6	0.2946087
1015.758	0.29104257
1015.916	0.28360989
1016.075	0.28427204
1016.233	0.2811077
1016.391	0.28116773
1016.549	0.28243332
1016.707	0.28533038
1016.865	0.28678931
1017.023	0.28465863
1017.181	0.2830635
1017.339	0.28595852
1017.497	0.2805492
1017.655	0.27672525
1017.813	0.27406305
1017.971	0.2759215
1018.129	0.28182937
1018.286	0.28504503
1018.444	0.27683393
1018.602	0.27905041
1018.76	0.28043071
1018.918	0.28216993
1019.075	0.28225738
1019.233	0.28100853
1019.391	0.27813497
1019.549	0.28726162
1019.706	0.28536704
1019.864	0.28675908
1020.022	0.28715417
1020.179	0.28776166
1020.337	0.28720333
1020.494	0.28540559
1020.652	0.27894362
1020.809	0.28207027
1020.967	0.2776272
1021.124	0.27189721
1021.282	0.2763553
1021.439	0.2767957
1021.597	0.28569546
1021.754	0.28940901
1021.911	0.29236522
1022.069	0.29318044
1022.226	0.29386277
1022.384	0.28120741
1022.541	0.27933109
1022.698	0.27262677
1022.855	0.27170233
1023.013	0.26383656
1023.17	0.26183677
1023.327	0.26847732
1023.484	0.27993061
1023.641	0.28162417
1023.798	0.29868339
1023.956	0.30790075
1024.113	0.3070734
1024.27	0.30736085
1024.427	0.30838815
1024.584	0.30212909
1024.741	0.294927
1024.898	0.27702755
1025.055	0.26521183
1025.212	0.26192151
1025.369	0.25563909
1025.525	0.25342365
1025.682	0.26049827
1025.839	0.26872881
1025.996	0.27454987
1026.153	0.28580971
1026.31	0.30230353
1026.466	0.32498478
1026.623	0.32786283
1026.78	0.31936278
1026.937	0.31240129
1027.093	0.30848843
1027.25	0.31319341
1027.407	0.29863894
1027.563	0.29053182
1027.72	0.29031095
1027.876	0.28529837
1028.033	0.29766998
1028.19	0.29598524
1028.346	0.27822886
1028.503	0.28775452
1028.659	0.28215181
1028.816	0.28682277
1028.972	0.30317343
1029.128	0.30362585
1029.285	0.30431054
1029.441	0.31409288
1029.598	0.30256813
1029.754	0.3209651
1029.91	0.3094154
1030.067	0.29283124
1030.223	0.29382752
1030.379	0.29153325
1030.535	0.2978001
1030.691	0.29959896
1030.848	0.29813126
1031.004	0.30637662
1031.16	0.32465365
1031.316	0.33059249
1031.472	0.35267998
1031.628	0.34597799
1031.784	0.35220475
1031.94	0.35409184
1032.096	0.35906013
1032.252	0.35016817
1032.408	0.35120406
1032.564	0.33138915
1032.72	0.33305929
1032.876	0.32108185
1033.032	0.31526328
1033.188	0.30343207
1033.344	0.30975963
1033.5	0.30779738
1033.655	0.31097383
1033.811	0.31299514
1033.967	0.33733021
