Data from 0_1_mm_pl_70pc_Absorbance__0__18-31-21-859.txt Node

Date: Wed Mar 01 18:31:21 CET 2023
User: Ange
Spectrometer: FLMT08341
Trigger mode: 0
Integration Time (sec): 1.000000E-2
Scans to average: 400
Electric dark correction enabled: true
Nonlinearity correction enabled: false
Boxcar width: 3
XAxis mode: Wavelengths
Number of Pixels in Spectrum: 3648
>>>>>Begin Spectral Data<<<<<
345.271	0.01043606
345.487	0.01874903
345.704	0.0206051
345.921	0.03859037
346.137	0.03980689
346.354	0.04064771
346.571	0.0495764
346.787	0.23759861
347.004	-0.11684808
347.22	-0.07073809
347.437	0.01422301
347.653	-0.02122389
347.87	-0.10331877
348.086	-0.30260165
348.303	-0
348.519	0.02140488
348.736	0.03242834
348.952	0.0314505
349.169	0.03240036
349.385	0.03858762
349.601	0.0400155
349.818	0.04218496
350.034	0.04103481
350.251	0.04078398
350.467	0.04284767
350.683	0.04257831
350.9	0.0407015
351.116	0.04117669
351.332	0.0382702
351.549	0.03771664
351.765	0.03867642
351.981	0.03840115
352.197	0.04005403
352.414	0.04073459
352.63	0.03970811
352.846	0.04173939
353.062	0.04394645
353.278	0.04235852
353.495	0.04253807
353.711	0.04194215
353.927	0.04183152
354.143	0.04236622
354.359	0.0402215
354.575	0.03849932
354.792	0.04007954
355.008	0.03904697
355.224	0.0387043
355.44	0.03785763
355.656	0.03750837
355.872	0.0401007
356.088	0.04162434
356.304	0.040438
356.52	0.04099365
356.736	0.04125402
356.952	0.04296139
357.168	0.04314817
357.384	0.04182291
357.6	0.04041818
357.816	0.04193705
358.032	0.0430086
358.248	0.04255924
358.464	0.041546
358.679	0.0417871
358.895	0.043019
359.111	0.04500811
359.327	0.04334855
359.543	0.04289167
359.759	0.04464809
359.974	0.0447204
360.19	0.04435318
360.406	0.042846
360.622	0.04107844
360.838	0.04120357
361.053	0.04119593
361.269	0.04121679
361.485	0.04118558
361.701	0.0415282
361.916	0.04078222
362.132	0.04019054
362.348	0.04200797
362.563	0.04224027
362.779	0.04031489
362.995	0.04083803
363.21	0.04040972
363.426	0.04171113
363.641	0.04234643
363.857	0.04018967
364.073	0.03924419
364.288	0.03930064
364.504	0.03984475
364.719	0.04059682
364.935	0.03928306
365.15	0.03818534
365.366	0.03894537
365.581	0.03915773
365.797	0.04025405
366.012	0.03886418
366.228	0.03826727
366.443	0.03819522
366.658	0.0386681
366.874	0.03850771
367.089	0.03828168
367.305	0.03747944
367.52	0.03772861
367.735	0.03827208
367.951	0.0382758
368.166	0.03905508
368.381	0.03909583
368.597	0.03930442
368.812	0.03966273
369.027	0.04021714
369.243	0.03974215
369.458	0.04033841
369.673	0.04116612
369.888	0.04092642
370.104	0.04065569
370.319	0.0409378
370.534	0.04027584
370.749	0.03964135
370.964	0.04045165
371.179	0.03945309
371.395	0.03981563
371.61	0.04026307
371.825	0.03958578
372.04	0.04030345
372.255	0.04064624
372.47	0.03939263
372.685	0.03954634
372.9	0.03957232
373.115	0.03972484
373.33	0.03950981
373.545	0.03943195
373.76	0.03977504
373.975	0.04050831
374.19	0.03991233
374.405	0.04042815
374.62	0.04034219
374.835	0.04099984
375.05	0.04092473
375.265	0.04047901
375.48	0.04011628
375.695	0.04065557
375.91	0.04074626
376.125	0.04114464
376.339	0.04183719
376.554	0.04181874
376.769	0.04236942
376.984	0.04263854
377.199	0.04351535
377.414	0.04289896
377.628	0.0427874
377.843	0.04263613
378.058	0.04227704
378.273	0.04142989
378.487	0.04121126
378.702	0.04119942
378.917	0.04126793
379.131	0.04063876
379.346	0.04046119
379.561	0.04147406
379.775	0.04208615
379.99	0.04264752
380.205	0.04182537
380.419	0.0418601
380.634	0.04124397
380.848	0.04141673
381.063	0.04098138
381.278	0.04121379
381.492	0.04044813
381.707	0.04083633
381.921	0.04072504
382.136	0.04218044
382.35	0.04156333
382.565	0.04133806
382.779	0.04126477
382.994	0.04188636
383.208	0.04144754
383.422	0.04139839
383.637	0.04126061
383.851	0.04216336
384.066	0.04255693
384.28	0.04268954
384.494	0.04241628
384.709	0.04276706
384.923	0.04293002
385.137	0.04327485
385.352	0.04243967
385.566	0.04178551
385.78	0.04183488
385.995	0.04168781
386.209	0.04181089
386.423	0.04230291
386.637	0.04192299
386.852	0.04199118
387.066	0.04256914
387.28	0.04269932
387.494	0.04316766
387.708	0.04336596
387.923	0.04299629
388.137	0.04325817
388.351	0.04306751
388.565	0.04321687
388.779	0.04330575
388.993	0.04352114
389.207	0.04338267
389.421	0.04322877
389.635	0.04322113
389.85	0.04358913
390.064	0.04326919
390.278	0.04333062
390.492	0.04309424
390.706	0.04304974
390.92	0.04355694
391.134	0.04338419
391.348	0.04407726
391.561	0.04439806
391.775	0.04398061
391.989	0.0441119
392.203	0.04431246
392.417	0.04420943
392.631	0.04456323
392.845	0.0444432
393.059	0.04498029
393.273	0.04551439
393.486	0.04564313
393.7	0.04573108
393.914	0.0455961
394.128	0.04543481
394.342	0.04527139
394.555	0.04486276
394.769	0.04491691
394.983	0.04503716
395.197	0.04529943
395.41	0.04561352
395.624	0.04577782
395.838	0.04582805
396.051	0.04620172
396.265	0.04575709
396.479	0.04604354
396.692	0.0456409
396.906	0.04541536
397.12	0.04521772
397.333	0.04486231
397.547	0.04466817
397.76	0.04477565
397.974	0.04467802
398.187	0.0446367
398.401	0.04515029
398.614	0.04549556
398.828	0.0455812
399.041	0.04546363
399.255	0.04578064
399.468	0.04558446
399.682	0.04580963
399.895	0.04581616
400.109	0.04549557
400.322	0.04579673
400.536	0.04570466
400.749	0.04581043
400.962	0.04592681
401.176	0.04595392
401.389	0.04578209
401.602	0.045556
401.816	0.04549975
402.029	0.04591172
402.242	0.04569515
402.456	0.04570209
402.669	0.04580428
402.882	0.04575068
403.095	0.0461834
403.309	0.04617523
403.522	0.0458082
403.735	0.04569319
403.948	0.04580609
404.161	0.04575499
404.375	0.04562092
404.588	0.04562625
404.801	0.04555979
405.014	0.04566723
405.227	0.04615923
405.44	0.04600482
405.653	0.04604242
405.866	0.04598103
406.079	0.04607287
406.293	0.04621518
406.506	0.04604296
406.719	0.0456941
406.932	0.04567246
407.145	0.045597
407.358	0.04588563
407.571	0.04530508
407.784	0.04530858
407.996	0.04537003
408.209	0.04525843
408.422	0.04514836
408.635	0.04515315
408.848	0.04505881
409.061	0.04541866
409.274	0.04545698
409.487	0.04530156
409.7	0.04553366
409.912	0.04558771
410.125	0.0455062
410.338	0.04533045
410.551	0.04506462
410.764	0.04476137
410.976	0.0448874
411.189	0.04478466
411.402	0.04475934
411.615	0.04478471
411.827	0.04481969
412.04	0.04494984
412.253	0.04506134
412.465	0.04489796
412.678	0.04492745
412.891	0.04474725
413.103	0.04455091
413.316	0.04423046
413.529	0.04405852
413.741	0.04427439
413.954	0.04430461
414.166	0.04396472
414.379	0.04425963
414.591	0.04431526
414.804	0.04438343
415.016	0.04431004
415.229	0.04377529
415.441	0.04379554
415.654	0.04402342
415.866	0.04382393
416.079	0.04352047
416.291	0.04339185
416.504	0.04355058
416.716	0.04350288
416.928	0.04327747
417.141	0.04289672
417.353	0.04263559
417.566	0.04279583
417.778	0.0425976
417.99	0.04220997
418.203	0.04224657
418.415	0.04221315
418.627	0.04221232
418.839	0.04207453
419.052	0.04199795
419.264	0.04216717
419.476	0.04230732
419.688	0.04223766
419.901	0.04217404
420.113	0.04197838
420.325	0.04194249
420.537	0.04162818
420.749	0.04137567
420.961	0.04114814
421.174	0.04092198
421.386	0.04058191
421.598	0.04069357
421.81	0.04055511
422.022	0.04063931
422.234	0.04059455
422.446	0.04046734
422.658	0.04050822
422.87	0.04048953
423.082	0.04026512
423.294	0.04025159
423.506	0.0399684
423.718	0.0397886
423.93	0.0396645
424.142	0.03943326
424.354	0.03931821
424.566	0.03912477
424.778	0.03898186
424.99	0.0389258
425.202	0.03883049
425.414	0.03879456
425.625	0.03861806
425.837	0.03841868
426.049	0.03845161
426.261	0.03821642
426.473	0.03811322
426.684	0.03814375
426.896	0.03793574
427.108	0.03780557
427.32	0.03794468
427.531	0.03792651
427.743	0.03803309
427.955	0.03774315
428.167	0.03757242
428.378	0.03748297
428.59	0.0374173
428.802	0.03723944
429.013	0.03697015
429.225	0.03657636
429.436	0.03644372
429.648	0.03630658
429.86	0.03610976
430.071	0.03577684
430.283	0.03544706
430.494	0.03509485
430.706	0.03511421
430.917	0.03502341
431.129	0.03475649
431.34	0.03467744
431.552	0.03481819
431.763	0.0348833
431.975	0.03511356
432.186	0.03488434
432.398	0.03474268
432.609	0.03467195
432.821	0.03451769
433.032	0.03430328
433.243	0.034085
433.455	0.03384484
433.666	0.03368204
433.877	0.03364047
434.089	0.03342782
434.3	0.03332293
434.511	0.0332368
434.723	0.03298961
434.934	0.03274589
435.145	0.03257585
435.356	0.03237368
435.568	0.03230785
435.779	0.03223304
435.99	0.03203589
436.201	0.03209442
436.412	0.03167357
436.624	0.03158325
436.835	0.03146894
437.046	0.03123443
437.257	0.03100007
437.468	0.03084254
437.679	0.03043593
437.89	0.03041074
438.101	0.03026331
438.312	0.02992617
438.523	0.02975449
438.734	0.02941352
438.945	0.02903801
439.156	0.02888117
439.367	0.02881583
439.578	0.02859146
439.789	0.02856319
440	0.02833092
440.211	0.02824175
440.422	0.02818158
440.633	0.02813506
440.844	0.02804798
441.055	0.02789874
441.266	0.02783456
441.477	0.02771585
441.687	0.02739507
441.898	0.02723717
442.109	0.02694967
442.32	0.02673959
442.531	0.02646775
442.741	0.02613133
442.952	0.02595461
443.163	0.02598898
443.374	0.02579196
443.584	0.02567052
443.795	0.02548398
444.006	0.02525388
444.216	0.02512762
444.427	0.025047
444.638	0.02471538
444.848	0.02451345
445.059	0.0242528
445.27	0.02395402
445.48	0.02387414
445.691	0.02360811
445.901	0.02337294
446.112	0.0234011
446.323	0.02337888
446.533	0.02331999
446.744	0.02316702
446.954	0.0230267
447.165	0.02292089
447.375	0.02283628
447.586	0.0225924
447.796	0.02236093
448.006	0.02227925
448.217	0.02213818
448.427	0.02182978
448.638	0.02162429
448.848	0.02126111
449.058	0.02114727
449.269	0.02093989
449.479	0.02064534
449.689	0.02051693
449.9	0.02057762
450.11	0.02046694
450.32	0.02034656
450.531	0.02011648
450.741	0.019996
450.951	0.01987448
451.161	0.01962423
451.372	0.01923451
451.582	0.01925796
451.792	0.01917635
452.002	0.01902901
452.212	0.01878093
452.422	0.01872955
452.633	0.01868769
452.843	0.01889107
453.053	0.01858809
453.263	0.01857902
453.473	0.01846556
453.683	0.01830386
453.893	0.01807405
454.103	0.01795511
454.313	0.01775624
454.523	0.01770345
454.733	0.01741635
454.943	0.01720999
455.153	0.01724406
455.363	0.01709918
455.573	0.01691236
455.783	0.01676108
455.993	0.01667273
456.203	0.01667706
456.413	0.01662312
456.623	0.0164112
456.833	0.01638183
457.042	0.01627328
457.252	0.01597341
457.462	0.01572765
457.672	0.01554611
457.882	0.01541747
458.091	0.01541772
458.301	0.01515016
458.511	0.01506276
458.721	0.01498586
458.931	0.01481299
459.14	0.01468586
459.35	0.01449303
459.56	0.01437717
459.769	0.01433014
459.979	0.01419684
460.189	0.01407632
460.398	0.01400058
460.608	0.01382815
460.817	0.01379428
461.027	0.01359243
461.237	0.01346954
461.446	0.01331445
461.656	0.01316017
461.865	0.01314207
462.075	0.01314041
462.284	0.01304531
462.494	0.01299696
462.703	0.01291272
462.913	0.01278805
463.122	0.01288462
463.332	0.01263452
463.541	0.01253711
463.751	0.01245274
463.96	0.0123194
464.169	0.01228479
464.379	0.01234938
464.588	0.01214516
464.797	0.01213785
465.007	0.01200128
465.216	0.01194613
465.425	0.01180652
465.635	0.01158654
465.844	0.01140826
466.053	0.0113009
466.263	0.0111724
466.472	0.01105141
466.681	0.01096968
466.89	0.01097342
467.099	0.01087185
467.309	0.01080128
467.518	0.01073241
467.727	0.0107575
467.936	0.01064447
468.145	0.01048989
468.354	0.01050149
468.563	0.01053087
468.772	0.01047544
468.982	0.01042863
469.191	0.01024724
469.4	0.01026966
469.609	0.01028271
469.818	0.01008826
470.027	0.01002244
470.236	0.00992748
470.445	0.00989453
470.654	0.00992172
470.863	0.00983602
471.072	0.00969891
471.28	0.00959837
471.489	0.00955873
471.698	0.00954687
471.907	0.00946968
472.116	0.00940087
472.325	0.00933231
472.534	0.0093135
472.743	0.00933274
472.951	0.00926459
473.16	0.00919941
473.369	0.0092018
473.578	0.0091736
473.786	0.00914055
473.995	0.0091122
474.204	0.00896906
474.413	0.00896196
474.621	0.00885454
474.83	0.00871753
475.039	0.00865097
475.247	0.00853925
475.456	0.00848059
475.665	0.00846445
475.873	0.00833793
476.082	0.00840753
476.291	0.00848069
476.499	0.00848275
476.708	0.0085344
476.916	0.00852007
477.125	0.00857955
477.333	0.00855747
477.542	0.00850971
477.75	0.0083442
477.959	0.00825459
478.167	0.00816556
478.376	0.00807093
478.584	0.00797266
478.793	0.00800635
479.001	0.00787551
479.209	0.00795153
479.418	0.00794028
479.626	0.00795622
479.834	0.00793046
480.043	0.00794162
480.251	0.007908
480.459	0.00794592
480.668	0.00783569
480.876	0.00777103
481.084	0.00775584
481.293	0.00775192
481.501	0.0077116
481.709	0.00766534
481.917	0.00762553
482.125	0.00763236
482.334	0.00773719
482.542	0.00776139
482.75	0.00770725
482.958	0.00771153
483.166	0.0076916
483.374	0.00766784
483.583	0.00770102
483.791	0.00760065
483.999	0.0075804
484.207	0.00768227
484.415	0.00766435
484.623	0.00762955
484.831	0.00761203
485.039	0.0075682
485.247	0.00755538
485.455	0.00755798
485.663	0.0074833
485.871	0.00747578
486.079	0.00752366
486.287	0.00754136
486.495	0.00758925
486.702	0.0076662
486.91	0.00766584
487.118	0.00767956
487.326	0.00771716
487.534	0.00772903
487.742	0.00771333
487.95	0.00764029
488.157	0.0075495
488.365	0.00756923
488.573	0.00757513
488.781	0.00760107
488.988	0.00756107
489.196	0.00764897
489.404	0.00768857
489.612	0.00768104
489.819	0.007663
490.027	0.00771562
490.235	0.00771191
490.442	0.00778475
490.65	0.00778903
490.857	0.00785679
491.065	0.00796027
491.273	0.00795251
491.48	0.00795895
491.688	0.00794724
491.895	0.00793196
492.103	0.00784805
492.31	0.0078391
492.518	0.00780673
492.725	0.00780443
492.933	0.00775445
493.14	0.00776432
493.348	0.00779787
493.555	0.00787503
493.763	0.0078901
493.97	0.0079571
494.177	0.00802647
494.385	0.0081012
494.592	0.00814747
494.8	0.0081492
495.007	0.00818
495.214	0.00813561
495.422	0.00811904
495.629	0.00807886
495.836	0.00806957
496.043	0.00811248
496.251	0.00818851
496.458	0.00820431
496.665	0.00828619
496.872	0.00825517
497.08	0.00828483
497.287	0.00835612
497.494	0.0083915
497.701	0.00843306
497.908	0.0084828
498.115	0.00855373
498.322	0.00859112
498.53	0.00867274
498.737	0.00873685
498.944	0.00873805
499.151	0.00871313
499.358	0.0086924
499.565	0.00868118
499.772	0.00879041
499.979	0.00881361
500.186	0.00875254
500.393	0.00881973
500.6	0.00885903
500.807	0.00896547
501.014	0.00898906
501.221	0.00899836
501.427	0.00903858
501.634	0.00915655
501.841	0.00914788
502.048	0.00919367
502.255	0.00925024
502.462	0.00934991
502.669	0.00941965
502.875	0.00949871
503.082	0.00953637
503.289	0.0096174
503.496	0.00969197
503.702	0.00973019
503.909	0.00979535
504.116	0.009858
504.323	0.00987248
504.529	0.00986878
504.736	0.00988847
504.943	0.00990105
505.149	0.00992844
505.356	0.00989497
505.563	0.00997873
505.769	0.0100458
505.976	0.0101689
506.182	0.01026801
506.389	0.01033637
506.595	0.01037244
506.802	0.01050407
507.008	0.01050605
507.215	0.01055707
507.421	0.01055724
507.628	0.01057202
507.834	0.01056163
508.041	0.01064537
508.247	0.01061979
508.454	0.01066253
508.66	0.01069663
508.866	0.0107597
509.073	0.01079793
509.279	0.01089042
509.486	0.01092231
509.692	0.01100817
509.898	0.0110779
510.105	0.01112853
510.311	0.01111363
510.517	0.01121811
510.723	0.01128085
510.93	0.01130792
511.136	0.01145766
511.342	0.01152426
511.548	0.01159705
511.754	0.01175345
511.961	0.01181632
512.167	0.01187504
512.373	0.01198131
512.579	0.01199867
512.785	0.01204485
512.991	0.01209978
513.197	0.01214919
513.404	0.01220709
513.61	0.01229284
513.816	0.01237497
514.022	0.01245234
514.228	0.01249791
514.434	0.01255436
514.64	0.01259864
514.846	0.01263646
515.052	0.01271224
515.258	0.01273364
515.464	0.01273607
515.669	0.01282302
515.875	0.01286776
516.081	0.01295292
516.287	0.0130503
516.493	0.01312099
516.699	0.01321969
516.905	0.01328336
517.111	0.01338894
517.316	0.01352784
517.522	0.01365275
517.728	0.01372125
517.934	0.01381911
518.139	0.01391722
518.345	0.01404887
518.551	0.01413003
518.757	0.01421595
518.962	0.01427588
519.168	0.01439943
519.374	0.01445649
519.579	0.01450196
519.785	0.01458154
519.991	0.01463944
520.196	0.01467885
520.402	0.01472161
520.607	0.0147807
520.813	0.0148507
521.018	0.01496048
521.224	0.01506621
521.429	0.01515092
521.635	0.01525283
521.84	0.01538146
522.046	0.01547039
522.251	0.01560099
522.457	0.01573528
522.662	0.01578766
522.868	0.01584946
523.073	0.01592659
523.279	0.01600866
523.484	0.01607784
523.689	0.01614025
523.895	0.01617001
524.1	0.01622071
524.305	0.0163588
524.511	0.01647666
524.716	0.01654317
524.921	0.01664058
525.126	0.01676684
525.332	0.01682504
525.537	0.0169656
525.742	0.01701739
525.947	0.01708082
526.153	0.01723027
526.358	0.01731846
526.563	0.01739246
526.768	0.01747647
526.973	0.01756132
527.178	0.01770523
527.383	0.0177952
527.588	0.01785244
527.794	0.01796327
527.999	0.01802863
528.204	0.01818845
528.409	0.01828503
528.614	0.01837182
528.819	0.01850343
529.024	0.01860225
529.229	0.01867662
529.434	0.01880003
529.639	0.01894973
529.843	0.01904727
530.048	0.01918067
530.253	0.01926702
530.458	0.01939331
530.663	0.01952314
530.868	0.01962081
531.073	0.019676
531.278	0.01982271
531.482	0.01990273
531.687	0.02004963
531.892	0.02017016
532.097	0.02026377
532.302	0.02039694
532.506	0.02051741
532.711	0.0206384
532.916	0.02078291
533.12	0.02089178
533.325	0.0209631
533.53	0.02108978
533.734	0.02121251
533.939	0.02133957
534.144	0.02146264
534.348	0.02154762
534.553	0.0217034
534.757	0.02186076
534.962	0.02200316
535.167	0.02212604
535.371	0.02230431
535.576	0.02240833
535.78	0.02253513
535.985	0.02263011
536.189	0.02272135
536.394	0.02282991
536.598	0.02294862
536.803	0.02300573
537.007	0.02313601
537.211	0.02328904
537.416	0.02337185
537.62	0.0235331
537.825	0.02368306
538.029	0.02375907
538.233	0.02390308
538.438	0.02402247
538.642	0.02411913
538.846	0.02430393
539.05	0.0244078
539.255	0.02447452
539.459	0.02465628
539.663	0.02479045
539.867	0.02490987
540.072	0.02507728
540.276	0.02521262
540.48	0.02537317
540.684	0.02554172
540.888	0.02565997
541.092	0.02579359
541.297	0.02590397
541.501	0.02599941
541.705	0.02614294
541.909	0.02631333
542.113	0.0264501
542.317	0.02666322
542.521	0.02679876
542.725	0.0269921
542.929	0.027172
543.133	0.02732786
543.337	0.02746564
543.541	0.02763317
543.745	0.02770276
543.949	0.02784501
544.153	0.02797646
544.357	0.02810254
544.56	0.02820749
544.764	0.02833336
544.968	0.02849759
545.172	0.02863818
545.376	0.02880904
545.58	0.02898305
545.783	0.02911246
545.987	0.02925633
546.191	0.02940458
546.395	0.02955082
546.598	0.02975016
546.802	0.02990086
547.006	0.0300692
547.21	0.03024271
547.413	0.03043787
547.617	0.0306039
547.821	0.03077487
548.024	0.03095575
548.228	0.03109702
548.431	0.03124039
548.635	0.03141706
548.839	0.03153953
549.042	0.03171547
549.246	0.031868
549.449	0.03202484
549.653	0.03219907
549.856	0.03233126
550.06	0.03249192
550.263	0.03271491
550.467	0.03284637
550.67	0.03298257
550.874	0.03314011
551.077	0.03329014
551.28	0.03346832
551.484	0.0336206
551.687	0.03376771
551.891	0.03395946
552.094	0.03417593
552.297	0.03433458
552.501	0.03454678
552.704	0.03474446
552.907	0.03494567
553.11	0.03513118
553.314	0.03529269
553.517	0.03547693
553.72	0.03564588
553.923	0.03579389
554.127	0.0359777
554.33	0.03616544
554.533	0.03634721
554.736	0.03652671
554.939	0.03668901
555.142	0.03690104
555.345	0.03711569
555.549	0.03728444
555.752	0.03744446
555.955	0.03760074
556.158	0.03786309
556.361	0.03803015
556.564	0.03820458
556.767	0.03839752
556.97	0.03859361
557.173	0.03877385
557.376	0.03894575
557.579	0.03905152
557.782	0.03923466
557.984	0.03939974
558.187	0.03957697
558.39	0.03972749
558.593	0.03992718
558.796	0.04017267
558.999	0.04039983
559.202	0.04059842
559.404	0.04081174
559.607	0.04100915
559.81	0.04122817
560.013	0.04142583
560.216	0.04157409
560.418	0.04174919
560.621	0.04194661
560.824	0.042126
561.026	0.04231522
561.229	0.0425133
561.432	0.04274127
561.634	0.04296591
561.837	0.04317658
562.04	0.04337471
562.242	0.0436114
562.445	0.04379449
562.647	0.04399429
562.85	0.04415198
563.053	0.04429872
563.255	0.0445169
563.458	0.04473632
563.66	0.04488772
563.863	0.04507926
564.065	0.0452705
564.268	0.04547461
564.47	0.04569804
564.672	0.04584522
564.875	0.04599674
565.077	0.04626636
565.28	0.04651455
565.482	0.04674556
565.684	0.04692995
565.887	0.04714779
566.089	0.0473967
566.291	0.04762916
566.494	0.04778059
566.696	0.04797753
566.898	0.04816246
567.1	0.04840705
567.303	0.04862886
567.505	0.04878543
567.707	0.04896316
567.909	0.04919587
568.111	0.04937932
568.314	0.04958121
568.516	0.04978695
568.718	0.05001509
568.92	0.05024932
569.122	0.05052862
569.324	0.05074285
569.526	0.05096853
569.728	0.05122095
569.93	0.05142264
570.132	0.05161362
570.334	0.05183759
570.536	0.0520442
570.738	0.05223291
570.94	0.05235987
571.142	0.05255562
571.344	0.05275739
571.546	0.05291485
571.748	0.05314003
571.95	0.05329299
572.152	0.05354343
572.354	0.05384329
572.555	0.05405409
572.757	0.05425978
572.959	0.05456702
573.161	0.05476248
573.363	0.05496831
573.564	0.05517992
573.766	0.05539539
573.968	0.05566139
574.17	0.05591754
574.371	0.05607208
574.573	0.05623342
574.775	0.05644558
574.976	0.05662815
575.178	0.05682168
575.38	0.05703245
575.581	0.05722241
575.783	0.05749111
575.985	0.05775041
576.186	0.05803169
576.388	0.05827313
576.589	0.05849282
576.791	0.05871655
576.992	0.05896121
577.194	0.05916798
577.395	0.05942487
577.597	0.0596447
577.798	0.0599021
578	0.0601325
578.201	0.06033987
578.402	0.06057555
578.604	0.06075866
578.805	0.06095582
579.007	0.06118293
579.208	0.06137791
579.409	0.0615997
579.611	0.06182734
579.812	0.062028
580.013	0.06228
580.215	0.06250191
580.416	0.06269603
580.617	0.06290343
580.818	0.06314283
581.019	0.06333893
581.221	0.06356737
581.422	0.06380556
581.623	0.06402924
581.824	0.06423846
582.025	0.06448921
582.226	0.06471029
582.428	0.06497422
582.629	0.0652233
582.83	0.0654619
583.031	0.06570043
583.232	0.06595907
583.433	0.06620027
583.634	0.06638277
583.835	0.06655573
584.036	0.0667306
584.237	0.06689301
584.438	0.067112
584.639	0.06733816
584.84	0.06752717
585.041	0.06776519
585.242	0.06800287
585.442	0.06825095
585.643	0.06850323
585.844	0.06873099
586.045	0.06895121
586.246	0.06914482
586.447	0.06935812
586.647	0.06955963
586.848	0.06974495
587.049	0.06998202
587.25	0.0701815
587.45	0.07038964
587.651	0.07062787
587.852	0.07087493
588.053	0.07114161
588.253	0.07143675
588.454	0.07166904
588.655	0.07192546
588.855	0.07213737
589.056	0.07237386
589.256	0.07261037
589.457	0.07284175
589.658	0.07304861
589.858	0.07325293
590.059	0.07346233
590.259	0.07368412
590.46	0.07385633
590.66	0.07407177
590.861	0.07425714
591.061	0.07443723
591.262	0.074636
591.462	0.07482561
591.662	0.07506522
591.863	0.07528781
592.063	0.07553211
592.264	0.07577713
592.464	0.07599483
592.664	0.07619755
592.865	0.07644371
593.065	0.07662518
593.265	0.07689591
593.465	0.07703688
593.666	0.07725211
593.866	0.07746929
594.066	0.07775088
594.266	0.07794516
594.467	0.07822027
594.667	0.0784095
594.867	0.07869287
595.067	0.07886807
595.267	0.07907492
595.467	0.07919276
595.668	0.0794004
595.868	0.07957773
596.068	0.07980921
596.268	0.07996567
596.468	0.08019555
596.668	0.0804049
596.868	0.08065235
597.068	0.08087293
597.268	0.08109599
597.468	0.08128166
597.668	0.08150076
597.868	0.081685
598.068	0.081901
598.268	0.08210593
598.467	0.08235179
598.667	0.0825238
598.867	0.08268759
599.067	0.0828922
599.267	0.08310202
599.467	0.08332814
599.667	0.08353699
599.866	0.08372964
600.066	0.08391313
600.266	0.08409392
600.466	0.08428239
600.665	0.08444963
600.865	0.08462448
601.065	0.0848059
601.264	0.08495983
601.464	0.0851547
601.664	0.08539508
601.863	0.08560086
602.063	0.08585243
602.263	0.08600664
602.462	0.08621539
602.662	0.0864025
602.861	0.08662386
603.061	0.08680585
603.26	0.0869964
603.46	0.087136
603.659	0.08730846
603.859	0.08740478
604.058	0.08757304
604.258	0.08775224
604.457	0.08794738
604.657	0.08807459
604.856	0.08824217
605.056	0.08849606
605.255	0.08874595
605.454	0.08898256
605.654	0.08912653
605.853	0.08929099
606.052	0.08952154
606.252	0.08972449
606.451	0.08991032
606.65	0.09009874
606.849	0.09017864
607.049	0.09037664
607.248	0.09052733
607.447	0.0906706
607.646	0.09082925
607.845	0.09096448
608.045	0.09108163
608.244	0.09135005
608.443	0.09150002
608.642	0.09170788
608.841	0.09185532
609.04	0.09198918
609.239	0.09210609
609.438	0.09227202
609.637	0.09240004
609.836	0.0925335
610.035	0.09270763
610.234	0.09289623
610.433	0.09305508
610.632	0.0932708
610.831	0.09351995
611.03	0.09368903
611.229	0.09393537
611.428	0.0940603
611.627	0.09423751
611.826	0.09450394
612.025	0.09469787
612.224	0.09485177
612.422	0.09505282
612.621	0.09521926
612.82	0.09543919
613.019	0.09562191
613.218	0.09575936
613.416	0.09585512
613.615	0.09605762
613.814	0.09618815
614.012	0.09629671
614.211	0.09639904
614.41	0.09657425
614.608	0.09666315
614.807	0.09685556
615.006	0.09695281
615.204	0.09707038
615.403	0.09725059
615.602	0.09743981
615.8	0.09764688
615.999	0.09782404
616.197	0.09798895
616.396	0.09816542
616.594	0.09834162
616.793	0.09853589
616.991	0.09868515
617.19	0.0987407
617.388	0.09893447
617.586	0.09910155
617.785	0.0992444
617.983	0.09936047
618.182	0.09946669
618.38	0.09957831
618.578	0.09972549
618.777	0.09986448
618.975	0.09997392
619.173	0.10011232
619.372	0.10028461
619.57	0.10043704
619.768	0.10061393
619.966	0.10078316
620.165	0.10089946
620.363	0.10107914
620.561	0.10114322
620.759	0.1012993
620.957	0.1014675
621.155	0.10159987
621.354	0.1016814
621.552	0.10185751
621.75	0.10194037
621.948	0.10218584
622.146	0.10231581
622.344	0.1024509
622.542	0.10262081
622.74	0.10280113
622.938	0.10284159
623.136	0.1030328
623.334	0.10313874
623.532	0.10319905
623.73	0.10326269
623.928	0.10335571
624.126	0.10348158
624.324	0.10368854
624.522	0.10377006
624.719	0.10385915
624.917	0.10403671
625.115	0.10413252
625.313	0.10425113
625.511	0.10438362
625.708	0.10444954
625.906	0.10455883
626.104	0.10469759
626.302	0.1048982
626.499	0.10504621
626.697	0.10519948
626.895	0.10527827
627.093	0.10540674
627.29	0.10553985
627.488	0.10565861
627.686	0.10573778
627.883	0.10583261
628.081	0.10587375
628.278	0.1060769
628.476	0.10615753
628.673	0.10630225
628.871	0.10641283
629.068	0.10650265
629.266	0.10669492
629.463	0.10680676
629.661	0.10687026
629.858	0.10699756
630.056	0.10706031
630.253	0.10713671
630.451	0.1072423
630.648	0.10729673
630.845	0.10743691
631.043	0.10755931
631.24	0.10775132
631.438	0.10788005
631.635	0.10802506
631.832	0.10812983
632.029	0.1082838
632.227	0.10840364
632.424	0.1084733
632.621	0.10852783
632.818	0.10861261
633.016	0.10875978
633.213	0.10885774
633.41	0.10895686
633.607	0.10902322
633.804	0.10914015
634.001	0.10918652
634.199	0.10928215
634.396	0.10933266
634.593	0.10940798
634.79	0.10948764
634.987	0.10963676
635.184	0.10970958
635.381	0.10993296
635.578	0.11011585
635.775	0.110243
635.972	0.1103746
636.169	0.11049171
636.366	0.11054053
636.563	0.11064973
636.76	0.11064968
636.957	0.11069411
637.153	0.11071961
637.35	0.11079169
637.547	0.11087836
637.744	0.11099613
637.941	0.11108631
638.138	0.11120975
638.334	0.11125598
638.531	0.11140601
638.728	0.11151037
638.925	0.11164289
639.121	0.11175021
639.318	0.11184103
639.515	0.11190159
639.711	0.11206979
639.908	0.11211075
640.105	0.11220722
640.301	0.11226558
640.498	0.11236646
640.695	0.11250858
640.891	0.11261479
641.088	0.11267893
641.284	0.11274958
641.481	0.11282615
641.677	0.11286403
641.874	0.11288746
642.07	0.112964
642.267	0.11305172
642.463	0.11313613
642.66	0.11328339
642.856	0.1132884
643.053	0.11332588
643.249	0.11343899
643.445	0.11348401
643.642	0.11353449
643.838	0.11356653
644.034	0.1136423
644.231	0.11379379
644.427	0.11393955
644.623	0.11403054
644.82	0.11413828
645.016	0.11422507
645.212	0.11427845
645.408	0.11432683
645.604	0.11442413
645.801	0.11449713
645.997	0.11453852
646.193	0.11455498
646.389	0.11467695
646.585	0.11479967
646.781	0.11491003
646.977	0.1149598
647.173	0.11502272
647.37	0.11507441
647.566	0.11521293
647.762	0.11522189
647.958	0.11529923
648.154	0.11533882
648.35	0.11542364
648.546	0.11551141
648.742	0.11564812
648.937	0.1156143
649.133	0.11573952
649.329	0.1158275
649.525	0.11593692
649.721	0.11602872
649.917	0.11615403
650.113	0.11620121
650.309	0.11638193
650.504	0.1164057
650.7	0.11644854
650.896	0.11647468
651.092	0.11651262
651.287	0.11653717
651.483	0.11665352
651.679	0.11671546
651.875	0.11686128
652.07	0.1169404
652.266	0.11702997
652.462	0.11710021
652.657	0.11716964
652.853	0.11722146
653.048	0.11729489
653.244	0.1172888
653.44	0.11736922
653.635	0.11737804
653.831	0.11747574
654.026	0.11758231
654.222	0.117622
654.417	0.11768984
654.613	0.11775163
654.808	0.11780625
655.004	0.11789482
655.199	0.1179152
655.394	0.11793563
655.59	0.11803902
655.785	0.11806936
655.98	0.11820615
656.176	0.11828406
656.371	0.11844823
656.566	0.1186022
656.762	0.11867393
656.957	0.118745
657.152	0.11883279
657.348	0.11885836
657.543	0.11890712
657.738	0.11897003
657.933	0.11898032
658.128	0.11903992
658.324	0.11907527
658.519	0.11915281
658.714	0.11921846
658.909	0.11931135
659.104	0.11937734
659.299	0.11943873
659.494	0.11950113
659.689	0.11958834
659.884	0.11963325
660.079	0.11969416
660.274	0.11976869
660.469	0.11986211
660.664	0.11996421
660.859	0.12005113
661.054	0.12013065
661.249	0.12020369
661.444	0.12029375
661.639	0.12031533
661.834	0.12028236
662.029	0.12035823
662.224	0.12048001
662.418	0.12060099
662.613	0.12070108
662.808	0.12077222
663.003	0.12088118
663.198	0.12102282
663.392	0.12109303
663.587	0.12119902
663.782	0.12119233
663.977	0.12130932
664.171	0.12144044
664.366	0.1215356
664.561	0.1216025
664.755	0.12168663
664.95	0.1216888
665.144	0.12182076
665.339	0.12186521
665.534	0.12190899
665.728	0.12201731
665.923	0.122133
666.117	0.12216785
666.312	0.12225892
666.506	0.12232499
666.701	0.12234852
666.895	0.1224058
667.09	0.12242059
667.284	0.12244115
667.479	0.12253874
667.673	0.12259559
667.867	0.12268695
668.062	0.1227792
668.256	0.12284318
668.45	0.12295107
668.645	0.1230238
668.839	0.12314783
669.033	0.12319115
669.228	0.12322728
669.422	0.12333718
669.616	0.12341877
669.81	0.12355369
670.004	0.12361248
670.199	0.12365838
670.393	0.12376849
670.587	0.12386369
670.781	0.12394383
670.975	0.12406445
671.169	0.12404258
671.363	0.12413074
671.558	0.12422172
671.752	0.12431572
671.946	0.12441015
672.14	0.12449749
672.334	0.12457183
672.528	0.12472827
672.722	0.12480579
672.916	0.12490587
673.11	0.12495971
673.304	0.12508974
673.497	0.12511626
673.691	0.12518795
673.885	0.12521329
674.079	0.12534224
674.273	0.12537268
674.467	0.125525
674.661	0.12558131
674.854	0.12570973
675.048	0.12582016
675.242	0.12596318
675.436	0.12603462
675.629	0.12614467
675.823	0.12615554
676.017	0.1262642
676.211	0.12634603
676.404	0.12641537
676.598	0.12646014
676.792	0.12652283
676.985	0.12665252
677.179	0.12676355
677.372	0.12681442
677.566	0.12691691
677.76	0.12705437
677.953	0.12723313
678.147	0.12739861
678.34	0.12751457
678.534	0.12764254
678.727	0.12776862
678.921	0.12789157
679.114	0.12795923
679.307	0.12803073
679.501	0.12810432
679.694	0.12814445
679.888	0.12822263
680.081	0.12828087
680.274	0.12831983
680.468	0.12841065
680.661	0.12847733
680.854	0.12865419
681.048	0.12879399
681.241	0.12888536
681.434	0.12902129
681.627	0.12918412
681.821	0.12927894
682.014	0.12942196
682.207	0.12945559
682.4	0.12950688
682.593	0.12962514
682.786	0.12965415
682.98	0.1297396
683.173	0.12989856
683.366	0.12995533
683.559	0.13001006
683.752	0.13016295
683.945	0.13028916
684.138	0.13045772
684.331	0.13055667
684.524	0.1306837
684.717	0.13077539
684.91	0.13097027
685.103	0.13106399
685.296	0.13118522
685.489	0.13130994
685.682	0.13139411
685.874	0.13146942
686.067	0.13159235
686.26	0.1316691
686.453	0.1317501
686.646	0.13179895
686.839	0.13188774
687.031	0.1320159
687.224	0.13208917
687.417	0.13224062
687.61	0.13237055
687.802	0.13246796
687.995	0.13262772
688.188	0.13273042
688.38	0.13282632
688.573	0.13297968
688.766	0.13310765
688.958	0.13318152
689.151	0.13329264
689.343	0.13340908
689.536	0.13353848
689.729	0.13366067
689.921	0.13375878
690.114	0.13375512
690.306	0.13385212
690.499	0.13398938
690.691	0.13413871
690.884	0.13422084
691.076	0.13435998
691.268	0.13445306
691.461	0.13457921
691.653	0.13470025
691.846	0.13485566
692.038	0.13494309
692.23	0.13509185
692.423	0.13519949
692.615	0.13530828
692.807	0.13545749
692.999	0.13559657
693.192	0.13564504
693.384	0.13573578
693.576	0.13580792
693.768	0.13595141
693.961	0.13605678
694.153	0.13622106
694.345	0.13632033
694.537	0.13647101
694.729	0.13660822
694.921	0.13673051
695.113	0.13682589
695.305	0.13691946
695.498	0.13696313
695.69	0.1371083
695.882	0.1371967
696.074	0.13732543
696.266	0.13743962
696.458	0.13753962
696.65	0.13771983
696.842	0.13790289
697.033	0.13805028
697.225	0.13819827
697.417	0.13834633
697.609	0.13853413
697.801	0.13868515
697.993	0.13886366
698.185	0.13897577
698.376	0.13909082
698.568	0.13921979
698.76	0.13929784
698.952	0.13937962
699.144	0.13944137
699.335	0.13951456
699.527	0.13962552
699.719	0.13974035
699.91	0.13990321
700.102	0.14002833
700.294	0.14017773
700.485	0.14034657
700.677	0.14047386
700.869	0.14063673
701.06	0.14077629
701.252	0.14086896
701.443	0.1410603
701.635	0.14120751
701.826	0.14138041
702.018	0.1415074
702.209	0.14163395
702.401	0.14170396
702.592	0.14186151
702.784	0.14193123
702.975	0.14205927
703.166	0.14216301
703.358	0.14230557
703.549	0.14245753
703.741	0.1426488
703.932	0.14277654
704.123	0.14291085
704.315	0.14302034
704.506	0.14320117
704.697	0.14333431
704.888	0.14346523
705.08	0.14357931
705.271	0.14373044
705.462	0.1438466
705.653	0.14397046
705.844	0.1440543
706.035	0.14421324
706.227	0.14428677
706.418	0.14444233
706.609	0.14456439
706.8	0.14472315
706.991	0.14481167
707.182	0.14495024
707.373	0.1450078
707.564	0.14519969
707.755	0.14526208
707.946	0.14539797
708.137	0.14548537
708.328	0.14565684
708.519	0.1457876
708.71	0.14596098
708.901	0.14607833
709.092	0.14627942
709.283	0.14638749
709.473	0.14656214
709.664	0.14676181
709.855	0.14690747
710.046	0.14705815
710.237	0.14721318
710.427	0.14736803
710.618	0.14752886
710.809	0.14767254
711	0.14777058
711.19	0.14788199
711.381	0.14804356
711.572	0.14811551
711.762	0.14826736
711.953	0.14841054
712.144	0.14853395
712.334	0.14868717
712.525	0.14883331
712.715	0.14894945
712.906	0.14913187
713.097	0.14919617
713.287	0.14934394
713.478	0.14949376
713.668	0.14964652
713.859	0.14976415
714.049	0.14990623
714.239	0.15004318
714.43	0.15018679
714.62	0.15027425
714.811	0.1503909
715.001	0.15050496
715.191	0.15069609
715.382	0.15075614
715.572	0.15090524
715.762	0.15106706
715.953	0.15121649
716.143	0.15139105
716.333	0.1514993
716.523	0.15162801
716.714	0.15188501
716.904	0.1520118
717.094	0.15218795
717.284	0.15230369
717.474	0.15240893
717.664	0.15254683
717.855	0.15268621
718.045	0.15275583
718.235	0.15290065
718.425	0.15305316
718.615	0.15327906
718.805	0.15348573
718.995	0.15370341
719.185	0.15389751
719.375	0.1540796
719.565	0.15428265
719.755	0.15441153
719.945	0.15449847
720.135	0.15464511
720.325	0.15476173
720.515	0.1548793
720.704	0.15501348
720.894	0.15514346
721.084	0.1552972
721.274	0.15547109
721.464	0.15561146
721.654	0.15573508
721.843	0.15590065
722.033	0.15603844
722.223	0.15617565
722.413	0.15630423
722.602	0.15647798
722.792	0.15660213
722.982	0.15677439
723.171	0.15687656
723.361	0.15700441
723.55	0.15716458
723.74	0.15727554
723.93	0.15738671
724.119	0.15752838
724.309	0.1576906
724.498	0.15781722
724.688	0.1580248
724.877	0.15814665
725.067	0.15833976
725.256	0.15849641
725.446	0.15866
725.635	0.1587532
725.825	0.15890601
726.014	0.15900445
726.203	0.15910539
726.393	0.15916647
726.582	0.15922487
726.771	0.15933808
726.961	0.15942491
727.15	0.1594951
727.339	0.15958514
727.529	0.159733
727.718	0.15986651
727.907	0.15997097
728.096	0.16007304
728.286	0.16017075
728.475	0.16028155
728.664	0.160377
728.853	0.16048411
729.042	0.16056599
729.231	0.16069984
729.42	0.16074921
729.609	0.16085139
729.799	0.16097075
729.988	0.16106482
730.177	0.161095
730.366	0.16113512
730.555	0.16116757
730.744	0.16126117
730.933	0.16135927
731.122	0.16142457
731.31	0.16150961
731.499	0.161628
731.688	0.16179428
731.877	0.16190747
732.066	0.16207688
732.255	0.16219385
732.444	0.1623032
732.632	0.16243072
732.821	0.16250281
733.01	0.16262024
733.199	0.16270543
733.388	0.16272934
733.576	0.16281664
733.765	0.16292942
733.954	0.16302541
734.142	0.16312312
734.331	0.1632009
734.52	0.16331443
734.708	0.16341787
734.897	0.16343081
735.086	0.16350496
735.274	0.16364128
735.463	0.16376033
735.651	0.16382816
735.84	0.16397987
736.028	0.16412859
736.217	0.16431358
736.405	0.16440753
736.594	0.16446804
736.782	0.16452842
736.971	0.1645864
737.159	0.16463082
737.347	0.16465821
737.536	0.16472985
737.724	0.16482108
737.912	0.16489228
738.101	0.16496276
738.289	0.16508811
738.477	0.16513509
738.666	0.16519669
738.854	0.16527224
739.042	0.165405
739.23	0.16546067
739.418	0.1655417
739.607	0.16559893
739.795	0.16568963
739.983	0.16578085
740.171	0.16584654
740.359	0.16593863
740.547	0.16600967
740.735	0.16611783
740.923	0.16625555
741.112	0.16634516
741.3	0.16643387
741.488	0.16652362
741.676	0.16661389
741.864	0.16671279
742.052	0.16680588
742.239	0.16680284
742.427	0.16691808
742.615	0.16698843
742.803	0.16707428
742.991	0.16704506
743.179	0.1671726
743.367	0.1671974
743.555	0.16732977
743.742	0.16737985
743.93	0.16746365
744.118	0.16751938
744.306	0.16762008
744.494	0.16762059
744.681	0.16768033
744.869	0.16767901
745.057	0.16772487
745.244	0.16776319
745.432	0.16785357
745.62	0.16792537
745.807	0.1680417
745.995	0.16819527
746.182	0.16825453
746.37	0.16828041
746.558	0.16836901
746.745	0.16838946
746.933	0.16845702
747.12	0.16846654
747.308	0.16850472
747.495	0.16861389
747.683	0.16872754
747.87	0.16876372
748.057	0.1689117
748.245	0.16896974
748.432	0.1690302
748.62	0.16905118
748.807	0.16906803
748.994	0.16909128
749.182	0.16918531
749.369	0.16914133
749.556	0.16914213
749.743	0.16917529
749.931	0.16922559
750.118	0.16928427
750.305	0.16934524
750.492	0.16935806
750.68	0.16945237
750.867	0.16949854
751.054	0.16954092
751.241	0.16956934
751.428	0.16960505
751.615	0.1696444
751.802	0.16973077
751.989	0.16977765
752.176	0.16986931
752.363	0.16992368
752.55	0.16996418
752.737	0.1699909
752.924	0.17003741
753.111	0.17007356
753.298	0.17006748
753.485	0.17004231
753.672	0.17009938
753.859	0.1701785
754.046	0.17026683
754.233	0.17028208
754.42	0.17026785
754.606	0.17033377
754.793	0.17036714
754.98	0.17042114
755.167	0.17038293
755.353	0.17041272
755.54	0.17048086
755.727	0.17050966
755.914	0.17049447
756.1	0.17053848
756.287	0.1704908
756.474	0.17048075
756.66	0.17048546
756.847	0.17045888
757.033	0.17043621
757.22	0.17045103
757.407	0.17051895
757.593	0.17056458
757.78	0.17063511
757.966	0.17068356
758.153	0.17071419
758.339	0.1707906
758.526	0.17082483
758.712	0.17080557
758.898	0.17079127
759.085	0.17075491
759.271	0.17070077
759.458	0.17072368
759.644	0.17070738
759.83	0.17072231
760.017	0.170772
760.203	0.17076992
760.389	0.1708223
760.576	0.17088866
760.762	0.17087844
760.948	0.17085324
761.134	0.17081214
761.32	0.17075768
761.507	0.17075778
761.693	0.17080543
761.879	0.17080221
762.065	0.17084525
762.251	0.17090647
762.437	0.17098511
762.623	0.17097286
762.809	0.17096289
762.995	0.17091125
763.181	0.17087783
763.367	0.1708367
763.553	0.17086471
763.739	0.17086769
763.925	0.17094388
764.111	0.17102289
764.297	0.17103723
764.483	0.17100749
764.669	0.17096243
764.855	0.17082463
765.041	0.17077592
765.227	0.17071919
765.412	0.17065667
765.598	0.17060033
765.784	0.17060841
765.97	0.1706787
766.156	0.17078522
766.341	0.17084458
766.527	0.17080915
766.713	0.17077619
766.898	0.17080416
767.084	0.17077323
767.27	0.17067093
767.455	0.17060183
767.641	0.17052206
767.827	0.17051377
768.012	0.17052847
768.198	0.17052395
768.383	0.17052694
768.569	0.17054347
768.754	0.17051003
768.94	0.17041724
769.125	0.17033325
769.311	0.17024882
769.496	0.17012815
769.682	0.17005569
769.867	0.1700003
770.052	0.17001055
770.238	0.17001606
770.423	0.17004771
770.608	0.17004428
770.794	0.17006407
770.979	0.16999309
771.164	0.16993836
771.35	0.16983735
771.535	0.16977136
771.72	0.16966408
771.905	0.16962977
772.09	0.16959425
772.276	0.1696112
772.461	0.1695911
772.646	0.16953785
772.831	0.1694964
773.016	0.16949483
773.201	0.16940933
773.386	0.1692846
773.571	0.16916683
773.756	0.1690787
773.941	0.16905654
774.126	0.16905061
774.311	0.16892646
774.496	0.16890048
774.681	0.168913
774.866	0.16890204
775.051	0.16888522
775.236	0.16876019
775.421	0.1686314
775.606	0.16860622
775.791	0.16849961
775.976	0.1683538
776.16	0.16830441
776.345	0.16816503
776.53	0.16816671
776.715	0.16816701
776.899	0.16810624
777.084	0.16806596
777.269	0.16805131
777.454	0.16792266
777.638	0.1678969
777.823	0.16778362
778.008	0.16764959
778.192	0.16756339
778.377	0.1674769
778.561	0.16739674
778.746	0.16730893
778.931	0.1672185
779.115	0.16718344
779.3	0.16706943
779.484	0.1669406
779.669	0.16691104
779.853	0.16679116
780.037	0.16674998
780.222	0.16670074
780.406	0.1665749
780.591	0.16653507
780.775	0.16650267
780.959	0.16637404
781.144	0.16632286
781.328	0.1661825
781.512	0.16603433
781.697	0.16591282
781.881	0.16580697
782.065	0.16563991
782.249	0.16554273
782.434	0.16543566
782.618	0.16542128
782.802	0.16540101
782.986	0.16535764
783.17	0.16530115
783.354	0.16523513
783.539	0.16506707
783.723	0.16494268
783.907	0.16476178
784.091	0.16463392
784.275	0.16456421
784.459	0.16442405
784.643	0.16436187
784.827	0.16433936
785.011	0.16423343
785.195	0.16419405
785.379	0.16407866
785.563	0.16387282
785.747	0.16372196
785.93	0.16365437
786.114	0.16344091
786.298	0.16331845
786.482	0.16319471
786.666	0.16305129
786.85	0.16298539
787.033	0.16291399
787.217	0.16274715
787.401	0.16269372
787.585	0.16262342
787.768	0.16248153
787.952	0.16236469
788.136	0.16220098
788.319	0.16207209
788.503	0.16192505
788.687	0.16178511
788.87	0.16161293
789.054	0.16149881
789.237	0.16137069
789.421	0.16127193
789.605	0.16112178
789.788	0.1610023
789.972	0.16087405
790.155	0.16073806
790.338	0.16054508
790.522	0.16039397
790.705	0.16022497
790.889	0.16003971
791.072	0.15986156
791.256	0.15973065
791.439	0.15963592
791.622	0.15960992
791.806	0.15954284
791.989	0.15941045
792.172	0.15938687
792.355	0.15929818
792.539	0.15920706
792.722	0.15900021
792.905	0.15875445
793.088	0.15858086
793.271	0.15848306
793.455	0.1583139
793.638	0.15810609
793.821	0.15787365
794.004	0.15778219
794.187	0.15774881
794.37	0.15762443
794.553	0.15745122
794.736	0.15727364
794.919	0.15716791
795.102	0.15705671
795.285	0.15692442
795.468	0.15671212
795.651	0.15652229
795.834	0.15640688
796.017	0.15623363
796.2	0.15608937
796.383	0.15597331
796.566	0.15581369
796.749	0.15568906
796.931	0.15557516
797.114	0.15540943
797.297	0.15528263
797.48	0.15516971
797.663	0.15496054
797.845	0.154865
798.028	0.15469272
798.211	0.15450102
798.393	0.15427437
798.576	0.15411392
798.759	0.1539117
798.941	0.15372248
799.124	0.15348657
799.307	0.1532825
799.489	0.15317041
799.672	0.15307511
799.854	0.15287924
800.037	0.15272348
800.219	0.15263565
800.402	0.15248876
800.584	0.1523722
800.767	0.15221327
800.949	0.15204995
801.132	0.15193085
801.314	0.15170408
801.496	0.15152731
801.679	0.15130698
801.861	0.15114426
802.043	0.1508751
802.226	0.15070138
802.408	0.15051037
802.59	0.15041418
802.772	0.15025316
802.955	0.15015537
803.137	0.14998626
803.319	0.14986402
803.501	0.14966634
803.684	0.1494585
803.866	0.14924746
804.048	0.14900009
804.23	0.14876834
804.412	0.14856523
804.594	0.14834577
804.776	0.14821679
804.958	0.1480695
805.14	0.14790563
805.322	0.14781438
805.504	0.14771124
805.686	0.14751444
805.868	0.14732157
806.05	0.14715249
806.232	0.14698891
806.414	0.1468123
806.596	0.14660415
806.778	0.14632797
806.96	0.14623656
807.141	0.14608813
807.323	0.14582873
807.505	0.14555624
807.687	0.14540303
807.869	0.14520775
808.05	0.14499112
808.232	0.14472085
808.414	0.14454694
808.595	0.14439611
808.777	0.1442954
808.959	0.14409215
809.14	0.14396565
809.322	0.14388022
809.504	0.14370928
809.685	0.14353979
809.867	0.14337477
810.048	0.14319261
810.23	0.1429825
810.411	0.14268256
810.593	0.14242787
810.774	0.14217782
810.956	0.14201044
811.137	0.14170979
811.319	0.14148159
811.5	0.1412565
811.681	0.14114458
811.863	0.14101724
812.044	0.14084663
812.225	0.14061617
812.407	0.14055555
812.588	0.14034627
812.769	0.14017989
812.951	0.13989525
813.132	0.13964742
813.313	0.1394535
813.494	0.13921378
813.675	0.13893152
813.857	0.13873714
814.038	0.13861235
814.219	0.13845726
814.4	0.13823513
814.581	0.13808229
814.762	0.1379397
814.943	0.13779123
815.124	0.13756156
815.305	0.13726011
815.486	0.13706682
815.667	0.13687365
815.848	0.13661366
816.029	0.13638541
816.21	0.1361596
816.391	0.13594752
816.572	0.13574811
816.753	0.135519
816.934	0.13530141
817.115	0.13513853
817.295	0.13492691
817.476	0.13470117
817.657	0.13448944
817.838	0.13425868
818.019	0.13399124
818.199	0.13377436
818.38	0.13357497
818.561	0.13334137
818.741	0.13320519
818.922	0.1330394
819.103	0.13286396
819.283	0.13272614
819.464	0.13253681
819.645	0.13229133
819.825	0.13205388
820.006	0.13170446
820.186	0.13148291
820.367	0.13120016
820.547	0.13089767
820.728	0.13064997
820.908	0.13042395
821.089	0.13027059
821.269	0.13008377
821.45	0.12979356
821.63	0.12967976
821.81	0.12957947
821.991	0.12930361
822.171	0.1290501
822.351	0.12871226
822.532	0.12847683
822.712	0.12825218
822.892	0.12792
823.072	0.12757715
823.253	0.12741186
823.433	0.1272211
823.613	0.12705861
823.793	0.12686712
823.973	0.12669877
824.154	0.12655639
824.334	0.12641396
824.514	0.1262075
824.694	0.12590238
824.874	0.12560308
825.054	0.1254125
825.234	0.12518586
825.414	0.12490396
825.594	0.12463121
825.774	0.12439791
825.954	0.12430607
826.134	0.12421804
826.314	0.12398636
826.494	0.12380569
826.674	0.12357725
826.854	0.12340749
827.033	0.12318644
827.213	0.12290502
827.393	0.12258162
827.573	0.12233915
827.753	0.12207803
827.932	0.12191165
828.112	0.12164879
828.292	0.12143783
828.472	0.12115982
828.651	0.12102973
828.831	0.12076798
829.011	0.12057763
829.19	0.12026799
829.37	0.12003507
829.549	0.11978553
829.729	0.11954117
829.909	0.11926835
830.088	0.1189998
830.268	0.11876032
830.447	0.11854688
830.627	0.11835557
830.806	0.11823941
830.986	0.11807795
831.165	0.11790307
831.344	0.11775636
831.524	0.11745611
831.703	0.1172527
831.883	0.11689953
832.062	0.11650059
832.241	0.11619448
832.421	0.11588244
832.6	0.11559596
832.779	0.11540178
832.958	0.1151385
833.138	0.11493924
833.317	0.11472716
833.496	0.11452998
833.675	0.11426427
833.854	0.11401151
834.034	0.11378715
834.213	0.11356973
834.392	0.11339119
834.571	0.11311962
834.75	0.11289082
834.929	0.11263372
835.108	0.11249314
835.287	0.11224518
835.466	0.1120423
835.645	0.11183472
835.824	0.11164424
836.003	0.11140349
836.182	0.11123773
836.361	0.11091589
836.54	0.1106155
836.719	0.11037341
836.897	0.11005828
837.076	0.10983419
837.255	0.10959565
837.434	0.10932198
837.613	0.10906878
837.791	0.10895176
837.97	0.10875559
838.149	0.10852339
838.328	0.10833616
838.506	0.10817668
838.685	0.10793846
838.864	0.10775306
839.042	0.10747484
839.221	0.10716205
839.4	0.10703594
839.578	0.10675095
839.757	0.10640573
839.935	0.1061097
840.114	0.10587487
840.292	0.10569891
840.471	0.1055284
840.649	0.10521306
840.828	0.10500901
841.006	0.10483664
841.185	0.10468246
841.363	0.1044348
841.541	0.10410818
841.72	0.10391348
841.898	0.10372456
842.076	0.10341961
842.255	0.10318903
842.433	0.10290179
842.611	0.10270355
842.789	0.10248707
842.968	0.10212854
843.146	0.1019018
843.324	0.10175377
843.502	0.10155053
843.68	0.10141614
843.859	0.10117623
844.037	0.10090157
844.215	0.10076453
844.393	0.10052107
844.571	0.10027474
844.749	0.09996589
844.927	0.09967532
845.105	0.09939192
845.283	0.09917186
845.461	0.09884317
845.639	0.09857924
845.817	0.09834996
845.995	0.09820581
846.173	0.09801632
846.351	0.09788337
846.529	0.09772489
846.706	0.09751966
846.884	0.09735784
847.062	0.09705913
847.24	0.09669849
847.418	0.09636438
847.595	0.09600053
847.773	0.09570431
847.951	0.0954479
848.129	0.09511135
848.306	0.09496311
848.484	0.0948629
848.662	0.09474718
848.839	0.0946228
849.017	0.09443288
849.194	0.09422705
849.372	0.09402234
849.549	0.09374178
849.727	0.09347669
849.905	0.09314829
850.082	0.09287864
850.26	0.09258212
850.437	0.09234297
850.614	0.09217299
850.792	0.09197005
850.969	0.09172499
851.147	0.09160008
851.324	0.09142721
851.501	0.09122446
851.679	0.09095178
851.856	0.09063585
852.033	0.09038878
852.211	0.09010555
852.388	0.08973969
852.565	0.08939932
852.742	0.08919885
852.92	0.08899164
853.097	0.08871574
853.274	0.08853172
853.451	0.08833454
853.628	0.08822002
853.805	0.08803749
853.982	0.0877714
854.159	0.08756129
854.336	0.08741025
854.514	0.08716687
854.691	0.08687773
854.868	0.08656071
855.045	0.0862691
855.221	0.08607322
855.398	0.08582515
855.575	0.08560244
855.752	0.0852869
855.929	0.08512075
856.106	0.08495249
856.283	0.08479597
856.46	0.08460763
856.637	0.0845276
856.813	0.0842932
856.99	0.08413362
857.167	0.08389228
857.344	0.08370687
857.52	0.08341771
857.697	0.0831206
857.874	0.08285562
858.05	0.08255408
858.227	0.08228602
858.404	0.08207526
858.58	0.08193748
858.757	0.08179089
858.933	0.08164208
859.11	0.08146324
859.287	0.08135079
859.463	0.08115433
859.64	0.08092618
859.816	0.08056618
859.993	0.08033866
860.169	0.08006464
860.345	0.07973816
860.522	0.07947139
860.698	0.07929029
860.875	0.07914095
861.051	0.07895489
861.227	0.07887283
861.404	0.07871656
861.58	0.07850178
861.756	0.07838646
861.932	0.07818721
862.109	0.07794073
862.285	0.07772201
862.461	0.07733089
862.637	0.0770852
862.813	0.07685354
862.99	0.07653798
863.166	0.07625592
863.342	0.07615736
863.518	0.075979
863.694	0.07587807
863.87	0.07572879
864.046	0.07552673
864.222	0.07533288
864.398	0.07525775
864.574	0.0749296
864.75	0.07467216
864.926	0.0743711
865.102	0.07410957
865.278	0.07388507
865.454	0.07365993
865.63	0.07335264
865.805	0.07313716
865.981	0.07297723
866.157	0.0727799
866.333	0.07265001
866.509	0.07248585
866.684	0.07238769
866.86	0.07235262
867.036	0.0721868
867.212	0.07192712
867.387	0.071751
867.563	0.07143367
867.739	0.0712441
867.914	0.07091483
868.09	0.0705691
868.265	0.07033022
868.441	0.07012099
868.617	0.06985206
868.792	0.06965026
868.968	0.06949419
869.143	0.0693395
869.319	0.06915852
869.494	0.06896644
869.67	0.06882124
869.845	0.06866643
870.02	0.0685685
870.196	0.06827486
870.371	0.06803107
870.546	0.06776274
870.722	0.06750614
870.897	0.06723602
871.072	0.06708575
871.248	0.06673561
871.423	0.06650977
871.598	0.06629602
871.773	0.06611058
871.949	0.06594965
872.124	0.06582796
872.299	0.06561757
872.474	0.0655431
872.649	0.06537006
872.824	0.06527152
872.999	0.06499325
873.174	0.06479245
873.349	0.06446092
873.524	0.06421231
873.699	0.06389878
873.874	0.06362528
874.049	0.06339458
874.224	0.0632598
874.399	0.06314119
874.574	0.0630219
874.749	0.06278973
874.924	0.06258517
875.099	0.06244519
875.274	0.06222148
875.449	0.06204935
875.623	0.06173921
875.798	0.06145033
875.973	0.06130866
876.148	0.06110482
876.322	0.06095906
876.497	0.0607934
876.672	0.06058785
876.846	0.06043496
877.021	0.06034427
877.196	0.06021768
877.37	0.06018837
877.545	0.06007355
877.72	0.05983176
877.894	0.05958415
878.069	0.0593901
878.243	0.05916578
878.418	0.05885357
878.592	0.05853696
878.767	0.05826309
878.941	0.0580491
879.116	0.05779659
879.29	0.05765892
879.464	0.05747272
879.639	0.05731752
879.813	0.0572002
879.987	0.05713847
880.162	0.05711757
880.336	0.05705735
880.51	0.05693668
880.685	0.05686879
880.859	0.05679355
881.033	0.05656279
881.207	0.05621843
881.381	0.05595088
881.556	0.05579924
881.73	0.05545323
881.904	0.05527691
882.078	0.05501363
882.252	0.05479484
882.426	0.05472814
882.6	0.05459305
882.774	0.05443097
882.948	0.05435177
883.122	0.05422648
883.296	0.05409815
883.47	0.05396086
883.644	0.05376153
883.818	0.05356639
883.992	0.05329612
884.166	0.05312035
884.34	0.05287127
884.514	0.05266613
884.687	0.05253936
884.861	0.05239412
885.035	0.05208054
885.209	0.0519861
885.382	0.05195638
885.556	0.05183057
885.73	0.05164383
885.904	0.05150223
886.077	0.05128447
886.251	0.05120666
886.425	0.05100275
886.598	0.05067564
886.772	0.05033383
886.945	0.050228
887.119	0.05000935
887.292	0.04978611
887.466	0.04966353
887.64	0.04960011
887.813	0.04948396
887.986	0.04943256
888.16	0.04914886
888.333	0.04890934
888.507	0.04873236
888.68	0.04854955
888.854	0.0483616
889.027	0.04815812
889.2	0.04796734
889.374	0.04783413
889.547	0.04778152
889.72	0.04764087
889.893	0.04752846
890.067	0.04734968
890.24	0.04718884
890.413	0.04695679
890.586	0.04679326
890.759	0.04663415
890.933	0.04652027
891.106	0.04645737
891.279	0.04633816
891.452	0.04628045
891.625	0.04621094
891.798	0.04615343
891.971	0.04594798
892.144	0.04583927
892.317	0.04549613
892.49	0.0451484
892.663	0.04487482
892.836	0.04482332
893.009	0.04466465
893.182	0.04456414
893.355	0.04439044
893.527	0.04428718
893.7	0.04433465
893.873	0.04428108
894.046	0.04408022
894.219	0.04396181
894.391	0.04383808
894.564	0.04371919
894.737	0.04359174
894.91	0.04331424
895.082	0.0430067
895.255	0.04267764
895.428	0.04244747
895.6	0.04221372
895.773	0.04201236
895.945	0.04183893
896.118	0.04183179
896.291	0.04174167
896.463	0.04180763
896.636	0.04170026
896.808	0.04161556
896.981	0.04153125
897.153	0.04142884
897.326	0.04123419
897.498	0.04115466
897.67	0.04097505
897.843	0.04078229
898.015	0.04062189
898.187	0.04037009
898.36	0.04015378
898.532	0.0399398
898.704	0.03974714
898.877	0.03957535
899.049	0.03942804
899.221	0.03931262
899.393	0.03913272
899.566	0.03905304
899.738	0.03896745
899.91	0.03890624
900.082	0.03875924
900.254	0.0387633
900.426	0.03862544
900.598	0.03858693
900.77	0.03835546
900.942	0.03821075
901.114	0.03801323
901.286	0.03790443
901.458	0.03763865
901.63	0.03739593
901.802	0.03719805
901.974	0.03719477
902.146	0.03712341
902.318	0.03697798
902.49	0.03676811
902.662	0.03656678
902.834	0.03656544
903.005	0.03650073
903.177	0.03629339
903.349	0.03605518
903.521	0.03588563
903.693	0.03568066
903.864	0.0354882
904.036	0.03529171
904.208	0.03515024
904.379	0.03506136
904.551	0.035094
904.723	0.03497631
904.894	0.03494183
905.066	0.03501727
905.237	0.03508681
905.409	0.03492322
905.58	0.03485241
905.752	0.03469309
905.923	0.03461859
906.095	0.0345334
906.266	0.03430312
906.438	0.03404394
906.609	0.03393831
906.78	0.03373778
906.952	0.0335931
907.123	0.03341183
907.295	0.03323825
907.466	0.03320482
907.637	0.0330071
907.808	0.03303186
907.98	0.03301031
908.151	0.0329194
908.322	0.03290305
908.493	0.03292508
908.665	0.03296111
908.836	0.03294788
909.007	0.0327935
909.178	0.03262777
909.349	0.03259242
909.52	0.03243111
909.691	0.03224882
909.862	0.03192709
910.033	0.03183989
910.204	0.03167744
910.375	0.03158516
910.546	0.03137186
910.717	0.03125646
910.888	0.03108261
911.059	0.03107896
911.23	0.03095982
911.401	0.03080307
911.572	0.03063178
911.742	0.03045055
911.913	0.03030941
912.084	0.03011399
912.255	0.029942
912.426	0.02974725
912.596	0.02953898
912.767	0.02937928
912.938	0.02927517
913.108	0.02911527
913.279	0.02905404
913.45	0.02891699
913.62	0.02880247
913.791	0.02890137
913.962	0.02890781
914.132	0.02879717
914.303	0.02872684
914.473	0.02882957
914.644	0.02871963
914.814	0.02854849
914.985	0.02823086
915.155	0.02808781
915.326	0.02804832
915.496	0.02801455
915.666	0.02767752
915.837	0.02752192
916.007	0.0273792
916.177	0.02731413
916.348	0.02715871
916.518	0.02692827
916.688	0.02678581
916.858	0.02669421
917.029	0.02665074
917.199	0.02653892
917.369	0.02648125
917.539	0.02643506
917.709	0.02637749
917.88	0.02619876
918.05	0.02610688
918.22	0.02595396
918.39	0.02598348
918.56	0.02584536
918.73	0.02572155
918.9	0.02561101
919.07	0.02551783
919.24	0.02539466
919.41	0.02536875
919.58	0.02528001
919.75	0.02524814
919.92	0.0252542
920.09	0.02518155
920.26	0.02513532
920.429	0.02523184
920.599	0.02505243
920.769	0.02504946
920.939	0.02490006
921.109	0.02465759
921.278	0.02454741
921.448	0.02440733
921.618	0.02419954
921.787	0.02408233
921.957	0.02389472
922.127	0.02383192
922.296	0.02372495
922.466	0.02372196
922.636	0.02372883
922.805	0.02377541
922.975	0.02381316
923.144	0.0236838
923.314	0.02362976
923.483	0.02350154
923.653	0.02331924
923.822	0.02326357
923.992	0.02296263
924.161	0.02283754
924.331	0.02264686
924.5	0.02246225
924.669	0.02247613
924.839	0.02230985
925.008	0.02226202
925.177	0.0222444
925.347	0.02220364
925.516	0.02229989
925.685	0.02240121
925.854	0.02235382
926.023	0.02239046
926.193	0.02227668
926.362	0.02220338
926.531	0.02199287
926.7	0.02183157
926.869	0.02166431
927.038	0.021474
927.207	0.02122617
927.376	0.02097029
927.545	0.02081272
927.715	0.02089758
927.884	0.02091655
928.052	0.02082554
928.221	0.02085566
928.39	0.02098373
928.559	0.0210599
928.728	0.02120848
928.897	0.02120732
929.066	0.02111551
929.235	0.02101831
929.404	0.0210617
929.572	0.0208248
929.741	0.02072366
929.91	0.02052613
930.079	0.02051595
930.247	0.02047239
930.416	0.02047844
930.585	0.02024105
930.753	0.02035296
930.922	0.02028647
931.091	0.02026554
931.259	0.01994267
931.428	0.01976148
931.596	0.01964005
931.765	0.01959125
931.934	0.01948727
932.102	0.01942759
932.27	0.01926477
932.439	0.01931524
932.607	0.01920928
932.776	0.01902492
932.944	0.01890295
933.113	0.01879061
933.281	0.01853496
933.449	0.01837768
933.618	0.01819265
933.786	0.0181948
933.954	0.0182683
934.123	0.01815804
934.291	0.01810901
934.459	0.01819917
934.627	0.01822304
934.795	0.01839228
934.964	0.01846442
935.132	0.01842384
935.3	0.01828881
935.468	0.01848949
935.636	0.01854769
935.804	0.01878222
935.972	0.01851344
936.14	0.0184775
936.308	0.018555
936.476	0.01881115
936.644	0.01866125
936.812	0.01855548
936.98	0.01839376
937.148	0.01840209
937.316	0.01823403
937.484	0.01818193
937.652	0.01841958
937.82	0.01849028
937.987	0.01877721
938.155	0.01893359
938.323	0.01914066
938.491	0.01950226
938.658	0.01958782
938.826	0.01952942
938.994	0.01985592
939.162	0.01973254
939.329	0.01966435
939.497	0.01945931
939.665	0.01962693
939.832	0.01957728
940	0.01956756
940.167	0.01932258
940.335	0.01951588
940.502	0.01994651
940.67	0.02016966
940.837	0.01996428
941.005	0.02032261
941.172	0.02029327
941.34	0.02028151
941.507	0.02091007
941.674	0.02053859
941.842	0.02060269
942.009	0.02077935
942.177	0.02128053
942.344	0.02199223
942.511	0.02228249
942.678	0.02186638
942.846	0.02252934
943.013	0.02230619
943.18	0.02264482
943.347	0.02174344
943.514	0.02129635
943.682	0.02138746
943.849	0.02173131
944.016	0.02066562
944.183	0.02256481
944.35	0.02200547
944.517	0.02306016
944.684	0.02370406
944.851	0.02369163
945.018	0.02294146
945.185	0.02405068
945.352	0.02325668
945.519	0.02350097
945.686	0.02295514
945.853	0.02223228
946.02	0.02124542
946.187	0.02171538
946.353	0.02104494
946.52	0.02042351
946.687	0.01959084
946.854	0.01930486
947.021	0.01962703
947.187	0.01983141
947.354	0.01964473
947.521	0.01929103
947.687	0.01886493
947.854	0.01922277
948.021	0.01959043
948.187	0.01930922
948.354	0.01839663
948.52	0.01761491
948.687	0.01786857
948.854	0.01875538
949.02	0.01850857
949.187	0.01805769
949.353	0.01748715
949.52	0.01748682
949.686	0.01703819
949.852	0.0169502
950.019	0.01559423
950.185	0.01578516
950.352	0.01591085
950.518	0.01663724
950.684	0.01750915
950.851	0.0175582
951.017	0.01687336
951.183	0.01772085
951.349	0.01735675
951.516	0.01695762
951.682	0.0157456
951.848	0.01475206
952.014	0.01499583
952.18	0.01489668
952.346	0.01448613
952.512	0.01424417
952.679	0.01440608
952.845	0.01450059
953.011	0.01542682
953.177	0.0153637
953.343	0.01555541
953.509	0.01539467
953.675	0.01533711
953.841	0.01555021
954.007	0.01597458
954.172	0.01510099
954.338	0.01549843
954.504	0.01533022
954.67	0.01552373
954.836	0.01551157
955.002	0.01472001
955.167	0.01450368
955.333	0.01426071
955.499	0.01378554
955.665	0.01396113
955.83	0.0134224
955.996	0.01333725
956.162	0.01320002
956.327	0.01333915
956.493	0.01327263
956.659	0.01324862
956.824	0.01237315
956.99	0.01242905
957.155	0.01231068
957.321	0.01253628
957.486	0.01226378
957.652	0.01193741
957.817	0.01144578
957.983	0.01190979
958.148	0.01199165
958.314	0.0117436
958.479	0.01152117
958.644	0.01161114
958.81	0.01195862
958.975	0.01205897
959.14	0.01228688
959.306	0.01210118
959.471	0.01201005
959.636	0.01185918
959.801	0.01140744
959.967	0.01114903
960.132	0.01118102
960.297	0.01090743
960.462	0.01069957
960.627	0.01077513
960.792	0.01096411
960.957	0.01094823
961.123	0.01150974
961.288	0.01172128
961.453	0.01142061
961.618	0.01144633
961.783	0.01129936
961.948	0.01088819
962.113	0.01124391
962.277	0.01064377
962.442	0.01041952
962.607	0.01030715
962.772	0.01044508
962.937	0.01041543
963.102	0.01047768
963.267	0.01029215
963.431	0.01047678
963.596	0.01048725
963.761	0.01058735
963.926	0.01034062
964.09	0.0104762
964.255	0.01054904
964.42	0.01046286
964.584	0.01017519
964.749	0.00978399
964.914	0.00988287
965.078	0.00962256
965.243	0.00932506
965.407	0.008921
965.572	0.0089079
965.736	0.00917038
965.901	0.00964888
966.065	0.00972574
966.23	0.01002053
966.394	0.01034248
966.559	0.01085186
966.723	0.01064128
966.887	0.01021683
967.052	0.00995131
967.216	0.00958704
967.38	0.00941958
967.545	0.00939204
967.709	0.00895119
967.873	0.00893098
968.037	0.00917296
968.202	0.00915924
968.366	0.00920522
968.53	0.00925092
968.694	0.00893605
968.858	0.00918632
969.022	0.00895516
969.187	0.00914462
969.351	0.00887397
969.515	0.00909895
969.679	0.0090623
969.843	0.00926144
970.007	0.00911528
970.171	0.0091249
970.335	0.00878318
970.499	0.00911754
970.662	0.00890662
970.826	0.00895395
970.99	0.00896531
971.154	0.0088492
971.318	0.00907652
971.482	0.00885776
971.645	0.00831406
971.809	0.00847704
971.973	0.00830699
972.137	0.00804068
972.3	0.00792523
972.464	0.00785782
972.628	0.00817492
972.791	0.00862163
972.955	0.0081461
973.119	0.00804578
973.282	0.00853871
973.446	0.00883439
973.609	0.00853497
973.773	0.0083517
973.936	0.00823131
974.1	0.00849166
974.263	0.00842542
974.427	0.00798997
974.59	0.00801737
974.754	0.00828021
974.917	0.00852427
975.08	0.00838103
975.244	0.00849335
975.407	0.00850528
975.57	0.0082801
975.734	0.00788559
975.897	0.0076886
976.06	0.00814079
976.223	0.00828993
976.387	0.00809466
976.55	0.00818428
976.713	0.00825856
976.876	0.00868953
977.039	0.00907298
977.202	0.00864427
977.365	0.0084793
977.528	0.00856247
977.692	0.00852308
977.855	0.00866946
978.018	0.00863288
978.181	0.00822289
978.344	0.00830404
978.506	0.00826584
978.669	0.00823486
978.832	0.00813836
978.995	0.00789192
979.158	0.0076476
979.321	0.0078409
979.484	0.00752989
979.646	0.00754911
979.809	0.00729617
979.972	0.00751689
980.135	0.00742474
980.297	0.00725597
980.46	0.00708636
980.623	0.00732345
980.786	0.00734571
980.948	0.0076369
981.111	0.0078551
981.273	0.00804408
981.436	0.00820376
981.599	0.00834671
981.761	0.00775694
981.924	0.00770328
982.086	0.00751286
982.249	0.00713062
982.411	0.0071467
982.573	0.00678626
982.736	0.0066961
982.898	0.00671469
983.061	0.00675331
983.223	0.00646549
983.385	0.00659565
983.548	0.00704579
983.71	0.00752718
983.872	0.00732306
984.034	0.00734201
984.197	0.00783739
984.359	0.00833739
984.521	0.00853047
984.683	0.00762496
984.845	0.00763068
985.008	0.00820722
985.17	0.00878381
985.332	0.00857171
985.494	0.00837681
985.656	0.0079557
985.818	0.00826531
985.98	0.0082377
986.142	0.00786335
986.304	0.00740893
986.466	0.00743584
986.628	0.00734755
986.79	0.00746052
986.952	0.00705375
987.113	0.00725675
987.275	0.00739683
987.437	0.00752466
987.599	0.00685849
987.761	0.00705882
987.922	0.00752597
988.084	0.00795106
988.246	0.00737886
988.408	0.00719344
988.569	0.00742571
988.731	0.0072277
988.893	0.00699553
989.054	0.00670224
989.216	0.00691641
989.377	0.00703389
989.539	0.00666234
989.701	0.00594675
989.862	0.00617975
990.024	0.00608981
990.185	0.00582333
990.347	0.00610593
990.508	0.00614793
990.669	0.00646745
990.831	0.00721491
990.992	0.00722669
991.154	0.00728574
991.315	0.0075281
991.476	0.00702452
991.638	0.00675667
991.799	0.00693842
991.96	0.00709909
992.121	0.00746529
992.283	0.00795233
992.444	0.00775242
992.605	0.00794321
992.766	0.00832029
992.927	0.00818696
993.088	0.00718166
993.249	0.00749869
993.41	0.00680558
993.572	0.00690493
993.733	0.00700915
993.894	0.00666917
994.055	0.00676107
994.216	0.00735799
994.376	0.00700704
994.537	0.00701531
994.698	0.00690998
994.859	0.00706852
995.02	0.00720502
995.181	0.00701922
995.342	0.00683594
995.503	0.0071596
995.663	0.00798668
995.824	0.00792086
995.985	0.00825052
996.146	0.00845068
996.306	0.00856926
996.467	0.00885784
996.628	0.00846966
996.788	0.00782091
996.949	0.00801819
997.11	0.00740925
997.27	0.00771813
997.431	0.00765483
997.591	0.00825815
997.752	0.00746241
997.912	0.00808344
998.073	0.00864445
998.233	0.00827578
998.394	0.00838872
998.554	0.00915523
998.714	0.00893521
998.875	0.0100638
999.035	0.00947923
999.196	0.0090716
999.356	0.00974337
999.516	0.00921514
999.676	0.00799657
999.837	0.00712777
999.997	0.00647452
1000.157	0.00655427
1000.317	0.00644229
1000.477	0.0062828
1000.638	0.00759914
1000.798	0.00778266
1000.958	0.00842342
1001.118	0.00871588
1001.278	0.00845095
1001.438	0.00804817
1001.598	0.00716113
1001.758	0.00682915
1001.918	0.00799456
1002.078	0.0072716
1002.238	0.00722407
1002.398	0.00888377
1002.558	0.00983863
1002.718	0.0105429
1002.878	0.0098359
1003.037	0.00877274
1003.197	0.00996352
1003.357	0.01036718
1003.517	0.00942999
1003.677	0.00881275
1003.836	0.00903044
1003.996	0.00932218
1004.156	0.00957123
1004.315	0.00953334
1004.475	0.0095706
1004.635	0.00904448
1004.794	0.00966498
1004.954	0.00999749
1005.114	0.00989047
1005.273	0.01011981
1005.433	0.00962821
1005.592	0.01054453
1005.752	0.01099957
1005.911	0.01049663
1006.071	0.01104641
1006.23	0.01108962
1006.389	0.01134306
1006.549	0.0118183
1006.708	0.01196648
1006.868	0.0118356
1007.027	0.01182114
1007.186	0.01137887
1007.345	0.01109079
1007.505	0.01069278
1007.664	0.00956158
1007.823	0.0092837
1007.982	0.00924935
1008.142	0.01002233
1008.301	0.00912432
1008.46	0.00906813
1008.619	0.00856471
1008.778	0.01028776
1008.937	0.00912315
1009.096	0.00875505
1009.255	0.00918119
1009.414	0.00997973
1009.573	0.01025756
1009.732	0.01109845
1009.891	0.00982783
1010.05	0.00936641
1010.209	0.00875446
1010.368	0.00839137
1010.527	0.00745444
1010.686	0.00794803
1010.845	0.00897041
1011.003	0.01018625
1011.162	0.01220363
1011.321	0.01453332
1011.48	0.01422559
1011.638	0.01508088
1011.797	0.01577355
1011.956	0.01518245
1012.115	0.01444841
1012.273	0.01182216
1012.432	0.01176386
1012.59	0.0109905
1012.749	0.01160734
1012.908	0.01109642
1013.066	0.01130587
1013.225	0.01099377
1013.383	0.01344886
1013.542	0.01200919
1013.7	0.01469665
1013.859	0.01465218
1014.017	0.01417785
1014.175	0.01327869
1014.334	0.01371222
1014.492	0.01187459
1014.65	0.01394187
1014.809	0.01298449
1014.967	0.01374415
1015.125	0.01300822
1015.284	0.01406755
1015.442	0.0151735
1015.6	0.01835991
1015.758	0.01703708
1015.916	0.01607062
1016.075	0.01710361
1016.233	0.01792586
1016.391	0.01929873
1016.549	0.01839203
1016.707	0.01681407
1016.865	0.01872484
1017.023	0.01977663
1017.181	0.01712579
1017.339	0.01860236
1017.497	0.01546168
1017.655	0.01670525
1017.813	0.01809916
1017.971	0.016717
1018.129	0.01515729
1018.286	0.01670672
1018.444	0.01501203
1018.602	0.01569942
1018.76	0.01498322
1018.918	0.01441645
1019.075	0.01418532
1019.233	0.01563331
1019.391	0.01499591
1019.549	0.01909026
1019.706	0.02064491
1019.864	0.02323814
1020.022	0.02241996
1020.179	0.02505313
1020.337	0.02416989
1020.494	0.02625528
1020.652	0.02473987
1020.809	0.02714045
1020.967	0.02424619
1021.124	0.02628046
1021.282	0.02338379
1021.439	0.02750133
1021.597	0.02689363
1021.754	0.023691
1021.911	0.02176083
1022.069	0.02120266
1022.226	0.01894822
1022.384	0.02108452
1022.541	0.01902722
1022.698	0.02051095
1022.855	0.02244838
1023.013	0.02158972
1023.17	0.02262863
1023.327	0.02423566
1023.484	0.02480385
1023.641	0.02405709
1023.798	0.02468366
1023.956	0.02839405
1024.113	0.02803952
1024.27	0.02778387
1024.427	0.02498164
1024.584	0.02522258
1024.741	0.02411624
1024.898	0.02357032
1025.055	0.01888439
1025.212	0.02036412
1025.369	0.02078685
1025.525	0.02132512
1025.682	0.01987861
1025.839	0.02180396
1025.996	0.02006672
1026.153	0.024352
1026.31	0.02685296
1026.466	0.02737685
1026.623	0.031612
1026.78	0.03320906
1026.937	0.03450168
1027.093	0.03693777
1027.25	0.0389791
1027.407	0.03783532
1027.563	0.04171539
1027.72	0.04325411
1027.876	0.04314522
1028.033	0.04414355
1028.19	0.0452348
1028.346	0.03665557
1028.503	0.03401366
1028.659	0.03032918
1028.816	0.02470163
1028.972	0.0245796
1029.128	0.02112969
1029.285	0.01670826
1029.441	0.01965456
1029.598	0.02079248
1029.754	0.02462498
1029.91	0.02986166
1030.067	0.03133637
1030.223	0.03246325
1030.379	0.03817804
1030.535	0.03925315
1030.691	0.0397397
1030.848	0.03969311
1031.004	0.0409853
1031.16	0.03962459
1031.316	0.03788431
1031.472	0.03396381
1031.628	0.03477174
1031.784	0.03914777
1031.94	0.03772839
1032.096	0.03220505
1032.252	0.03380179
1032.408	0.04457671
1032.564	0.05028331
1032.72	0.05548846
1032.876	0.04662694
1033.032	0.04522494
1033.188	0.0484304
1033.344	0.0481955
1033.5	0.04243136
1033.655	0.03603274
1033.811	0.02967625
1033.967	0.04031932
