Data from 0_1_mm_pl_60pc_Absorbance__0__18-30-33-517.txt Node

Date: Wed Mar 01 18:30:33 CET 2023
User: Ange
Spectrometer: FLMT08341
Trigger mode: 0
Integration Time (sec): 1.000000E-2
Scans to average: 400
Electric dark correction enabled: true
Nonlinearity correction enabled: false
Boxcar width: 3
XAxis mode: Wavelengths
Number of Pixels in Spectrum: 3648
>>>>>Begin Spectral Data<<<<<
345.271	0.00645843
345.487	0.00506714
345.704	0.00906502
345.921	0.01783588
346.137	0.01366635
346.354	0.00004675
346.571	-0.0106977
346.787	-0.11759885
347.004	0.01099273
347.22	0.04268006
347.437	0.10787858
347.653	0.23379506
347.87	-0.07970946
348.086	0.30846326
348.303	-0.87130761
348.519	0.04357307
348.736	0.04099765
348.952	0.03855093
349.169	0.03925871
349.385	0.04239348
349.601	0.03983905
349.818	0.04101356
350.034	0.03955357
350.251	0.04010967
350.467	0.04021505
350.683	0.04006889
350.9	0.03807486
351.116	0.03941967
351.332	0.03729268
351.549	0.03884153
351.765	0.03873375
351.981	0.03954761
352.197	0.04007973
352.414	0.04134562
352.63	0.04138126
352.846	0.04205658
353.062	0.0429951
353.278	0.04174852
353.495	0.04205832
353.711	0.04212915
353.927	0.0432808
354.143	0.0432809
354.359	0.0422713
354.575	0.04104894
354.792	0.04292204
355.008	0.04313587
355.224	0.04376337
355.44	0.04199488
355.656	0.04110925
355.872	0.04262068
356.088	0.04297443
356.304	0.04126729
356.52	0.04103923
356.736	0.04084994
356.952	0.04144216
357.168	0.04210158
357.384	0.04175251
357.6	0.04177401
357.816	0.04306868
358.032	0.04276471
358.248	0.04328863
358.464	0.04354607
358.679	0.04315374
358.895	0.04485272
359.111	0.04669122
359.327	0.04670673
359.543	0.04851216
359.759	0.04896184
359.974	0.04873121
360.19	0.04886995
360.406	0.04815407
360.622	0.0461284
360.838	0.04586321
361.053	0.04358196
361.269	0.04318025
361.485	0.04328986
361.701	0.04351864
361.916	0.04245319
362.132	0.04338236
362.348	0.04384243
362.563	0.04499079
362.779	0.04354643
362.995	0.04375871
363.21	0.0438178
363.426	0.04445557
363.641	0.04346013
363.857	0.0437668
364.073	0.04340121
364.288	0.04399313
364.504	0.04584547
364.719	0.04625093
364.935	0.04570652
365.15	0.04627826
365.366	0.04526874
365.581	0.04535674
365.797	0.04666007
366.012	0.0451261
366.228	0.04467958
366.443	0.04421617
366.658	0.0447542
366.874	0.04545231
367.089	0.04617142
367.305	0.0455614
367.52	0.04503113
367.735	0.04510555
367.951	0.04570075
368.166	0.04596901
368.381	0.04554977
368.597	0.0452103
368.812	0.04559092
369.027	0.04740533
369.243	0.04785687
369.458	0.04789912
369.673	0.04780114
369.888	0.04779434
370.104	0.04788906
370.319	0.04784324
370.534	0.04720767
370.749	0.0468548
370.964	0.0482514
371.179	0.04814255
371.395	0.04839038
371.61	0.04850436
371.825	0.04860465
372.04	0.04877662
372.255	0.0482524
372.47	0.04733854
372.685	0.0480058
372.9	0.04798287
373.115	0.04832493
373.33	0.04833695
373.545	0.04788335
373.76	0.04833588
373.975	0.0486762
374.19	0.04748187
374.405	0.04798117
374.62	0.04808991
374.835	0.04799377
375.05	0.04825013
375.265	0.04905725
375.48	0.0484894
375.695	0.04906775
375.91	0.04915285
376.125	0.04889458
376.339	0.04946313
376.554	0.04948434
376.769	0.0493982
376.984	0.04984496
377.199	0.05034201
377.414	0.04970486
377.628	0.05023065
377.843	0.05034815
378.058	0.05028447
378.273	0.05031735
378.487	0.05022289
378.702	0.05050882
378.917	0.05127243
379.131	0.05110915
379.346	0.05072711
379.561	0.0511011
379.775	0.05083972
379.99	0.05157903
380.205	0.05072775
380.419	0.05063576
380.634	0.04985154
380.848	0.04984863
381.063	0.05012941
381.278	0.05032376
381.492	0.04938974
381.707	0.05021369
381.921	0.05012526
382.136	0.0509525
382.35	0.05099939
382.565	0.05107382
382.779	0.05128256
382.994	0.05197334
383.208	0.05168587
383.422	0.05236212
383.637	0.0522386
383.851	0.05251516
384.066	0.05284295
384.28	0.05249565
384.494	0.05255768
384.709	0.05299678
384.923	0.05259472
385.137	0.05287918
385.352	0.05263022
385.566	0.05200994
385.78	0.05232734
385.995	0.05188885
386.209	0.05239835
386.423	0.05280332
386.637	0.05262424
386.852	0.05278064
387.066	0.05320291
387.28	0.05339905
387.494	0.05394634
387.708	0.05377508
387.923	0.05380817
388.137	0.05446967
388.351	0.05454753
388.565	0.0545827
388.779	0.05490385
388.993	0.0554681
389.207	0.05533463
389.421	0.05553613
389.635	0.05509243
389.85	0.05535796
390.064	0.0558639
390.278	0.05603942
390.492	0.05628919
390.706	0.05642658
390.92	0.05640152
391.134	0.05719222
391.348	0.05792078
391.561	0.05749033
391.775	0.05702114
391.989	0.05659176
392.203	0.05698945
392.417	0.05694871
392.631	0.05679869
392.845	0.0565005
393.059	0.05722962
393.273	0.05735685
393.486	0.05714539
393.7	0.05681685
393.914	0.05720817
394.128	0.05714459
394.342	0.05737546
394.555	0.05699514
394.769	0.05722289
394.983	0.05788639
395.197	0.05797466
395.41	0.05773091
395.624	0.05773663
395.838	0.0572239
396.051	0.05760252
396.265	0.05755059
396.479	0.0573725
396.692	0.05745918
396.906	0.05740952
397.12	0.05762971
397.333	0.05809193
397.547	0.05806816
397.76	0.05833025
397.974	0.0584161
398.187	0.05850709
398.401	0.0589281
398.614	0.05914675
398.828	0.05912161
399.041	0.05893547
399.255	0.05874514
399.468	0.05867998
399.682	0.05896917
399.895	0.0592164
400.109	0.05920078
400.322	0.05920538
400.536	0.05915777
400.749	0.05971702
400.962	0.05986755
401.176	0.05965139
401.389	0.05944246
401.602	0.0590023
401.816	0.05901708
402.029	0.05936938
402.242	0.05915753
402.456	0.05913611
402.669	0.05894679
402.882	0.05892274
403.095	0.05926965
403.309	0.05930559
403.522	0.05917935
403.735	0.05920555
403.948	0.05923139
404.161	0.05945397
404.375	0.05933007
404.588	0.05917402
404.801	0.05891389
405.014	0.05919802
405.227	0.0591753
405.44	0.05915604
405.653	0.05935141
405.866	0.05924922
406.079	0.05913652
406.293	0.05949256
406.506	0.05920725
406.719	0.05897497
406.932	0.05917371
407.145	0.05894968
407.358	0.05933566
407.571	0.05936674
407.784	0.05935131
407.996	0.05927262
408.209	0.05913053
408.422	0.05875972
408.635	0.05876448
408.848	0.05866685
409.061	0.0588758
409.274	0.05900372
409.487	0.05882497
409.7	0.0591443
409.912	0.0591651
410.125	0.05920812
410.338	0.05900063
410.551	0.05854376
410.764	0.05812537
410.976	0.05829344
411.189	0.05828931
411.402	0.05814743
411.615	0.05803961
411.827	0.05788233
412.04	0.0582621
412.253	0.05851795
412.465	0.05857805
412.678	0.05847262
412.891	0.05857605
413.103	0.05855808
413.316	0.05849603
413.529	0.05806208
413.741	0.05781652
413.954	0.05767997
414.166	0.05743939
414.379	0.05747655
414.591	0.05731737
414.804	0.05728808
415.016	0.05728972
415.229	0.05697905
415.441	0.05692347
415.654	0.0570123
415.866	0.05694903
416.079	0.05684993
416.291	0.05669742
416.504	0.05691733
416.716	0.05702233
416.928	0.05685287
417.141	0.05643483
417.353	0.0562872
417.566	0.05625606
417.778	0.05612227
417.99	0.05574475
418.203	0.05575514
418.415	0.05566183
418.627	0.05581342
418.839	0.0555739
419.052	0.0555505
419.264	0.05556183
419.476	0.05543887
419.688	0.05533807
419.901	0.05534869
420.113	0.05497223
420.325	0.05484927
420.537	0.05444796
420.749	0.05439766
420.961	0.05444448
421.174	0.05420887
421.386	0.05367803
421.598	0.05368953
421.81	0.05371144
422.022	0.05370659
422.234	0.05347695
422.446	0.05307777
422.658	0.05288326
422.87	0.05286552
423.082	0.05283815
423.294	0.05256268
423.506	0.05229589
423.718	0.05208347
423.93	0.05189895
424.142	0.051685
424.354	0.05151262
424.566	0.05130929
424.778	0.0510633
424.99	0.05102634
425.202	0.05095852
425.414	0.05105744
425.625	0.05104257
425.837	0.05104833
426.049	0.05104782
426.261	0.0509779
426.473	0.05082356
426.684	0.05052792
426.896	0.05004645
427.108	0.04979467
427.32	0.04965443
427.531	0.04938506
427.743	0.04913953
427.955	0.04887843
428.167	0.04875047
428.378	0.04881774
428.59	0.04853628
428.802	0.04850622
429.013	0.04831866
429.225	0.04820915
429.436	0.04815616
429.648	0.04804161
429.86	0.04767344
430.071	0.04751227
430.283	0.04691759
430.494	0.04640744
430.706	0.04622522
430.917	0.04586539
431.129	0.0456728
431.34	0.04561672
431.552	0.04572965
431.763	0.04569684
431.975	0.04583272
432.186	0.04557684
432.398	0.0455105
432.609	0.04518117
432.821	0.04496684
433.032	0.04457247
433.243	0.04433527
433.455	0.04412602
433.666	0.04391286
433.877	0.04371025
434.089	0.04356526
434.3	0.04342074
434.511	0.04321734
434.723	0.04302988
434.934	0.04272721
435.145	0.04260094
435.356	0.04243139
435.568	0.04217397
435.779	0.04200039
435.99	0.04184036
436.201	0.04176508
436.412	0.04155132
436.624	0.04135702
436.835	0.04118134
437.046	0.04102943
437.257	0.04073615
437.468	0.04054184
437.679	0.04015817
437.89	0.03989264
438.101	0.03976942
438.312	0.03940913
438.523	0.03919387
438.734	0.03900222
438.945	0.03864135
439.156	0.03842688
439.367	0.03830765
439.578	0.03797235
439.789	0.03779399
440	0.03753197
440.211	0.03730926
440.422	0.03706676
440.633	0.03690735
440.844	0.03672007
441.055	0.036497
441.266	0.03626639
441.477	0.03599711
441.687	0.03574868
441.898	0.03563091
442.109	0.03540609
442.32	0.03515501
442.531	0.03485642
442.741	0.03460551
442.952	0.03446259
443.163	0.03424029
443.374	0.03406694
443.584	0.03374823
443.795	0.03344016
444.006	0.03320279
444.216	0.03300636
444.427	0.03285282
444.638	0.03251792
444.848	0.03220795
445.059	0.03199094
445.27	0.03173034
445.48	0.03157597
445.691	0.031314
445.901	0.03094128
446.112	0.030872
446.323	0.0306362
446.533	0.03042764
446.744	0.03015391
446.954	0.02991124
447.165	0.02984469
447.375	0.02972591
447.586	0.02951541
447.796	0.0294909
448.006	0.02934341
448.217	0.02928726
448.427	0.02904702
448.638	0.02856109
448.848	0.02822684
449.058	0.02802185
449.269	0.02771201
449.479	0.02756545
449.689	0.02739662
449.9	0.02731718
450.11	0.02717203
450.32	0.02699518
450.531	0.0266818
450.741	0.02638739
450.951	0.02607198
451.161	0.02579847
451.372	0.02535442
451.582	0.0253757
451.792	0.02525079
452.002	0.02503067
452.212	0.02477182
452.422	0.02469378
452.633	0.02458993
452.843	0.02462837
453.053	0.02436481
453.263	0.02431174
453.473	0.02418862
453.683	0.02400186
453.893	0.02365832
454.103	0.02344932
454.313	0.02328746
454.523	0.0230847
454.733	0.02266396
454.943	0.02238256
455.153	0.02235451
455.363	0.02218463
455.573	0.02185096
455.783	0.02162057
455.993	0.02142181
456.203	0.02138229
456.413	0.02134453
456.623	0.02104278
456.833	0.02096983
457.042	0.02088773
457.252	0.02074284
457.462	0.02061902
457.672	0.02041757
457.882	0.0202972
458.091	0.02023226
458.301	0.02002822
458.511	0.01990163
458.721	0.01967663
458.931	0.01947765
459.14	0.01935315
459.35	0.01908796
459.56	0.01896755
459.769	0.01880212
459.979	0.018668
460.189	0.0185567
460.398	0.01832996
460.608	0.01819982
460.817	0.01812303
461.027	0.01792139
461.237	0.01775812
461.446	0.01750548
461.656	0.0173858
461.865	0.01729551
462.075	0.01712029
462.284	0.0169752
462.494	0.01678855
462.703	0.0166175
462.913	0.01644841
463.122	0.01634809
463.332	0.01618551
463.541	0.01611747
463.751	0.01602218
463.96	0.01592552
464.169	0.01594272
464.379	0.015928
464.588	0.01571454
464.797	0.01567274
465.007	0.01555676
465.216	0.01550742
465.425	0.01540661
465.635	0.01521103
465.844	0.01503727
466.053	0.01494772
466.263	0.01477208
466.472	0.01462483
466.681	0.01440436
466.89	0.01428576
467.099	0.01416522
467.309	0.01410269
467.518	0.01403946
467.727	0.01390737
467.936	0.01379297
468.145	0.01370102
468.354	0.01366559
468.563	0.01359016
468.772	0.01351131
468.982	0.0134024
469.191	0.01339017
469.4	0.01330095
469.609	0.01322655
469.818	0.01304433
470.027	0.01292978
470.236	0.01282918
470.445	0.01266893
470.654	0.01255254
470.863	0.01247822
471.072	0.01236777
471.28	0.01229371
471.489	0.01229804
471.698	0.01226567
471.907	0.0122185
472.116	0.01217542
472.325	0.01201904
472.534	0.01194524
472.743	0.01193789
472.951	0.01184949
473.16	0.01184961
473.369	0.01188529
473.578	0.01176719
473.786	0.01181113
473.995	0.01174992
474.204	0.01163225
474.413	0.01154851
474.621	0.01142835
474.83	0.01121502
475.039	0.01123887
475.247	0.01112567
475.456	0.01099715
475.665	0.01089944
475.873	0.01076244
476.082	0.01072944
476.291	0.01077112
476.499	0.01074185
476.708	0.01079724
476.916	0.01083841
477.125	0.01089548
477.333	0.01092652
477.542	0.01077522
477.75	0.01062313
477.959	0.01048365
478.167	0.01033181
478.376	0.01022142
478.584	0.01012794
478.793	0.01012326
479.001	0.01006105
479.209	0.01009696
479.418	0.01007255
479.626	0.01005328
479.834	0.01005926
480.043	0.01001414
480.251	0.0099807
480.459	0.00997407
480.668	0.00990036
480.876	0.00987255
481.084	0.00978409
481.293	0.00975224
481.501	0.00970835
481.709	0.00962347
481.917	0.00958291
482.125	0.00961928
482.334	0.00965834
482.542	0.00975631
482.75	0.00967864
482.958	0.00962973
483.166	0.00959034
483.374	0.00963018
483.583	0.00963689
483.791	0.00948647
483.999	0.00946691
484.207	0.0095011
484.415	0.00956526
484.623	0.00957262
484.831	0.00948897
485.039	0.00939489
485.247	0.00943545
485.455	0.0093741
485.663	0.00933972
485.871	0.00932641
486.079	0.00928705
486.287	0.00929501
486.495	0.00937181
486.702	0.00941766
486.91	0.00947094
487.118	0.00949724
487.326	0.00947743
487.534	0.00956822
487.742	0.00960381
487.95	0.00950803
488.157	0.00942765
488.365	0.00938503
488.573	0.0094093
488.781	0.00945079
488.988	0.00934032
489.196	0.00939815
489.404	0.00945701
489.612	0.00949608
489.819	0.00953617
490.027	0.00950239
490.235	0.0094794
490.442	0.00951717
490.65	0.00945584
490.857	0.00947053
491.065	0.00951848
491.273	0.00947044
491.48	0.00945754
491.688	0.00944393
491.895	0.00947991
492.103	0.00947768
492.31	0.00951448
492.518	0.0095074
492.725	0.00947872
492.933	0.00952997
493.14	0.00953151
493.348	0.00955743
493.555	0.00963241
493.763	0.00958054
493.97	0.00963161
494.177	0.00966257
494.385	0.00971012
494.592	0.00975917
494.8	0.00976444
495.007	0.00970748
495.214	0.0097381
495.422	0.00969378
495.629	0.00974673
495.836	0.00970346
496.043	0.00973129
496.251	0.00977869
496.458	0.00987259
496.665	0.00996461
496.872	0.01001617
497.08	0.01004661
497.287	0.01015757
497.494	0.01017122
497.701	0.01023302
497.908	0.01026405
498.115	0.01026736
498.322	0.01032738
498.53	0.01038594
498.737	0.01040655
498.944	0.01042725
499.151	0.01042901
499.358	0.01042945
499.565	0.01044762
499.772	0.01048894
499.979	0.01052147
500.186	0.01051352
500.393	0.01059
500.6	0.01059863
500.807	0.01072456
501.014	0.01082238
501.221	0.01080854
501.427	0.01078816
501.634	0.01087192
501.841	0.01088622
502.048	0.01099313
502.255	0.01098038
502.462	0.01096491
502.669	0.01106127
502.875	0.01120652
503.082	0.01124096
503.289	0.01131052
503.496	0.01127483
503.702	0.0113461
503.909	0.01140381
504.116	0.01143815
504.323	0.0113836
504.529	0.01139778
504.736	0.0114398
504.943	0.01153999
505.149	0.01157621
505.356	0.01157952
505.563	0.011655
505.769	0.01176721
505.976	0.01181203
506.182	0.0118833
506.389	0.01191827
506.595	0.01191529
506.802	0.01211418
507.008	0.0120958
507.215	0.01215362
507.421	0.01227292
507.628	0.01233805
507.834	0.01236518
508.041	0.01248458
508.247	0.01241054
508.454	0.01253051
508.66	0.01258456
508.866	0.01263314
509.073	0.01268404
509.279	0.01281773
509.486	0.01285372
509.692	0.01292737
509.898	0.01297121
510.105	0.0129922
510.311	0.01301263
510.517	0.01306892
510.723	0.01307856
510.93	0.01312837
511.136	0.0132806
511.342	0.01338882
511.548	0.01347092
511.754	0.01355985
511.961	0.01363057
512.167	0.01372177
512.373	0.01382202
512.579	0.01388976
512.785	0.01393396
512.991	0.01400665
513.197	0.01404697
513.404	0.01415193
513.61	0.01423739
513.816	0.01432045
514.022	0.01437844
514.228	0.0144196
514.434	0.0145041
514.64	0.01458993
514.846	0.01460818
515.052	0.01467519
515.258	0.01469567
515.464	0.01470075
515.669	0.01479871
515.875	0.01486107
516.081	0.01500386
516.287	0.01514282
516.493	0.01521676
516.699	0.01533871
516.905	0.01544886
517.111	0.0155658
517.316	0.01565025
517.522	0.01569721
517.728	0.01576317
517.934	0.0158448
518.139	0.01590119
518.345	0.01598844
518.551	0.01604309
518.757	0.01617193
518.962	0.01622445
519.168	0.01632641
519.374	0.01640504
519.579	0.01650943
519.785	0.01662391
519.991	0.01672619
520.196	0.01678307
520.402	0.01687143
520.607	0.01688587
520.813	0.01692335
521.018	0.01702019
521.224	0.01712627
521.429	0.01723055
521.635	0.01734961
521.84	0.01749066
522.046	0.01767852
522.251	0.01785883
522.457	0.01796116
522.662	0.01803383
522.868	0.01810485
523.073	0.01814968
523.279	0.01822299
523.484	0.01825184
523.689	0.01835735
523.895	0.01843764
524.1	0.01849787
524.305	0.0185938
524.511	0.01875918
524.716	0.01887026
524.921	0.01894568
525.126	0.01901462
525.332	0.01910106
525.537	0.01918824
525.742	0.0193005
525.947	0.01936879
526.153	0.01947014
526.358	0.01959406
526.563	0.01971112
526.768	0.01983323
526.973	0.01999383
527.178	0.02010132
527.383	0.02020338
527.588	0.02032188
527.794	0.02043744
527.999	0.02055106
528.204	0.02065092
528.409	0.02075951
528.614	0.02089222
528.819	0.02104013
529.024	0.0211383
529.229	0.02124139
529.434	0.02133198
529.639	0.02151381
529.843	0.02158496
530.048	0.02164768
530.253	0.02172086
530.458	0.02185756
530.663	0.02195868
530.868	0.02207135
531.073	0.02215117
531.278	0.02231261
531.482	0.02242844
531.687	0.02254375
531.892	0.02260379
532.097	0.02273919
532.302	0.02284655
532.506	0.02293787
532.711	0.0230594
532.916	0.02322672
533.12	0.02338607
533.325	0.02355309
533.53	0.02365652
533.734	0.02381405
533.939	0.02396879
534.144	0.02404801
534.348	0.02410758
534.553	0.02420225
534.757	0.02431767
534.962	0.02448651
535.167	0.02463662
535.371	0.02478642
535.576	0.02495525
535.78	0.02516102
535.985	0.02532655
536.189	0.02546147
536.394	0.02558006
536.598	0.02569231
536.803	0.02577114
537.007	0.02590969
537.211	0.02600386
537.416	0.02609601
537.62	0.02623048
537.825	0.02638984
538.029	0.0265029
538.233	0.026674
538.438	0.02681494
538.642	0.02694499
538.846	0.0270879
539.05	0.02722564
539.255	0.02733772
539.459	0.02749445
539.663	0.02765493
539.867	0.02779221
540.072	0.02799566
540.276	0.02815051
540.48	0.02831398
540.684	0.0284706
540.888	0.02860176
541.092	0.02870437
541.297	0.02883387
541.501	0.02894487
541.705	0.02914143
541.909	0.02927877
542.113	0.02942349
542.317	0.02960826
542.521	0.02977516
542.725	0.02991463
542.929	0.03001327
543.133	0.03011773
543.337	0.03026064
543.541	0.0304119
543.745	0.0304985
543.949	0.03063222
544.153	0.03077478
544.357	0.03096585
544.56	0.03113194
544.764	0.03126457
544.968	0.03138174
545.172	0.03157574
545.376	0.03174343
545.58	0.03196922
545.783	0.03211886
545.987	0.03229178
546.191	0.03247202
546.395	0.03266325
546.598	0.03279742
546.802	0.03295481
547.006	0.03308202
547.21	0.03323594
547.413	0.03337162
547.617	0.03352944
547.821	0.03369321
548.024	0.03389156
548.228	0.03403502
548.431	0.0342038
548.635	0.03439311
548.839	0.03455207
549.042	0.034738
549.246	0.03489255
549.449	0.03506631
549.653	0.03524511
549.856	0.03540257
550.06	0.03554558
550.263	0.03574264
550.467	0.03591227
550.67	0.03606576
550.874	0.03624986
551.077	0.03643621
551.28	0.0366036
551.484	0.03680237
551.687	0.03700759
551.891	0.03719081
552.094	0.0374174
552.297	0.03753058
552.501	0.03772344
552.704	0.0378772
552.907	0.03805605
553.11	0.03820017
553.314	0.03835387
553.517	0.03850622
553.72	0.03873814
553.923	0.03888418
554.127	0.03911408
554.33	0.03929004
554.533	0.03947578
554.736	0.03963229
554.939	0.03984511
555.142	0.04002528
555.345	0.04021473
555.549	0.04038752
555.752	0.0405889
555.955	0.0407471
556.158	0.0410136
556.361	0.04119516
556.564	0.0413689
556.767	0.04156311
556.97	0.0417211
557.173	0.04187886
557.376	0.04205413
557.579	0.04217262
557.782	0.04233094
557.984	0.04254584
558.187	0.04271355
558.39	0.04287021
558.593	0.04302788
558.796	0.04323611
558.999	0.0434778
559.202	0.04367974
559.404	0.04381827
559.607	0.04404018
559.81	0.04427143
560.013	0.04447388
560.216	0.04465866
560.418	0.04484727
560.621	0.04504756
560.824	0.04526601
561.026	0.04543627
561.229	0.04566323
561.432	0.04591572
561.634	0.04614563
561.837	0.04633014
562.04	0.04653104
562.242	0.04674027
562.445	0.04694395
562.647	0.04710928
562.85	0.04724979
563.053	0.04735158
563.255	0.04756621
563.458	0.04775755
563.66	0.04793941
563.863	0.04814474
564.065	0.0483158
564.268	0.04854223
564.47	0.04882324
564.672	0.04896193
564.875	0.04916074
565.077	0.04938578
565.28	0.04959866
565.482	0.04986468
565.684	0.0500762
565.887	0.05030028
566.089	0.05053666
566.291	0.050736
566.494	0.05092536
566.696	0.05113794
566.898	0.05130631
567.1	0.0514834
567.303	0.05166944
567.505	0.05185203
567.707	0.05205367
567.909	0.05224377
568.111	0.05243286
568.314	0.05262712
568.516	0.05282021
568.718	0.05302084
568.92	0.05324525
569.122	0.05346718
569.324	0.0536876
569.526	0.05388587
569.728	0.05414012
569.93	0.05438021
570.132	0.05458068
570.334	0.0547842
570.536	0.05498328
570.738	0.05515974
570.94	0.05528901
571.142	0.0555069
571.344	0.05568599
571.546	0.05586451
571.748	0.05610234
571.95	0.05629252
572.152	0.05653935
572.354	0.05684155
572.555	0.05700101
572.757	0.05720222
572.959	0.0574441
573.161	0.05761649
573.363	0.05778601
573.564	0.05802988
573.766	0.05822259
573.968	0.05844913
574.17	0.05871327
574.371	0.05888058
574.573	0.05906306
574.775	0.05928446
574.976	0.05942648
575.178	0.05963125
575.38	0.0598415
575.581	0.06002914
575.783	0.06027764
575.985	0.06050858
576.186	0.06077012
576.388	0.06102463
576.589	0.06122627
576.791	0.06146366
576.992	0.06169491
577.194	0.06192398
577.395	0.06216874
577.597	0.06235848
577.798	0.06259904
578	0.06282556
578.201	0.06301626
578.402	0.06323613
578.604	0.06338475
578.805	0.06360935
579.007	0.06384728
579.208	0.06400673
579.409	0.06421744
579.611	0.06445304
579.812	0.06464957
580.013	0.06491221
580.215	0.06508181
580.416	0.06526937
580.617	0.0654987
580.818	0.06569811
581.019	0.06587906
581.221	0.06606625
581.422	0.06628123
581.623	0.06653359
581.824	0.06671237
582.025	0.06690334
582.226	0.06712738
582.428	0.06737879
582.629	0.0676157
582.83	0.0678259
583.031	0.06800925
583.232	0.06824596
583.433	0.06850669
583.634	0.06870823
583.835	0.06889743
584.036	0.06912649
584.237	0.06929527
584.438	0.06951017
584.639	0.06972272
584.84	0.06993788
585.041	0.07011977
585.242	0.07031409
585.442	0.07048573
585.643	0.0707393
585.844	0.07096775
586.045	0.07118665
586.246	0.07128585
586.447	0.07147021
586.647	0.07165082
586.848	0.07185313
587.049	0.07204948
587.25	0.07222156
587.45	0.0724376
587.651	0.07270468
587.852	0.07295502
588.053	0.07321899
588.253	0.07345822
588.454	0.07370782
588.655	0.07390161
588.855	0.07408823
589.056	0.07427109
589.256	0.07449798
589.457	0.07472092
589.658	0.07489244
589.858	0.07505022
590.059	0.07528469
590.259	0.0754834
590.46	0.07571428
590.66	0.07589116
590.861	0.07602874
591.061	0.07622613
591.262	0.076429
591.462	0.07663426
591.662	0.07683318
591.863	0.07700983
592.063	0.07724908
592.264	0.07748545
592.464	0.07769399
592.664	0.07786779
592.865	0.07805517
593.065	0.07822973
593.265	0.07846216
593.465	0.07859409
593.666	0.07878416
593.866	0.07898748
594.066	0.07926811
594.266	0.07942112
594.467	0.0796612
594.667	0.0798057
594.867	0.08004031
595.067	0.08020587
595.267	0.08036313
595.467	0.08045756
595.668	0.08067075
595.868	0.08086678
596.068	0.0810728
596.268	0.08123055
596.468	0.08144933
596.668	0.08166199
596.868	0.08189619
597.068	0.08211618
597.268	0.08232763
597.468	0.08251437
597.668	0.08274894
597.868	0.08292664
598.068	0.08313258
598.268	0.08329692
598.467	0.08353429
598.667	0.08361734
598.867	0.08377732
599.067	0.083931
599.267	0.08412871
599.467	0.08429697
599.667	0.08447101
599.866	0.08457821
600.066	0.08480053
600.266	0.08497441
600.466	0.08516741
600.665	0.08529976
600.865	0.08545629
601.065	0.08565021
601.264	0.08579494
601.464	0.08594636
601.664	0.08616416
601.863	0.08629939
602.063	0.08650307
602.263	0.08664178
602.462	0.08678676
602.662	0.08697813
602.861	0.08719266
603.061	0.08730721
603.26	0.08750786
603.46	0.08758904
603.659	0.08776291
603.859	0.08788109
604.058	0.08802589
604.258	0.08820221
604.457	0.08842115
604.657	0.08852356
604.856	0.08868995
605.056	0.08889408
605.255	0.08909909
605.454	0.08928266
605.654	0.08939667
605.853	0.08954485
606.052	0.08975562
606.252	0.09000331
606.451	0.0901526
606.65	0.0903254
606.849	0.09039739
607.049	0.09056035
607.248	0.09067219
607.447	0.09079079
607.646	0.09089187
607.845	0.09099138
608.045	0.09109468
608.244	0.0913449
608.443	0.09146925
608.642	0.09166968
608.841	0.09178116
609.04	0.09191105
609.239	0.09205358
609.438	0.09216606
609.637	0.09226414
609.836	0.09242329
610.035	0.09248893
610.234	0.09269035
610.433	0.09280681
610.632	0.09299389
610.831	0.09321905
611.03	0.09335799
611.229	0.09351477
611.428	0.09366725
611.627	0.09377025
611.826	0.09397883
612.025	0.09415736
612.224	0.09426674
612.422	0.0944403
612.621	0.09457086
612.82	0.09474602
613.019	0.09490594
613.218	0.09504582
613.416	0.09506419
613.615	0.09520655
613.814	0.09533076
614.012	0.09546271
614.211	0.09554817
614.41	0.09570243
614.608	0.09579057
614.807	0.09599526
615.006	0.09615092
615.204	0.09621931
615.403	0.09634541
615.602	0.09651635
615.8	0.09666175
615.999	0.09676866
616.197	0.0968916
616.396	0.09701314
616.594	0.0971498
616.793	0.09730384
616.991	0.0973904
617.19	0.09739125
617.388	0.09760616
617.586	0.09776188
617.785	0.09784455
617.983	0.09796371
618.182	0.09802487
618.38	0.09813148
618.578	0.09831383
618.777	0.0983694
618.975	0.09848607
619.173	0.09860635
619.372	0.09875046
619.57	0.09886604
619.768	0.09903299
619.966	0.09915949
620.165	0.09926131
620.363	0.09938565
620.561	0.09943778
620.759	0.09954016
620.957	0.09967416
621.155	0.09979138
621.354	0.09986703
621.552	0.10002623
621.75	0.10006189
621.948	0.10024552
622.146	0.10034561
622.344	0.100437
622.542	0.10055653
622.74	0.1006713
622.938	0.10068711
623.136	0.10080326
623.334	0.1009324
623.532	0.10096617
623.73	0.10106536
623.928	0.10113401
624.126	0.10124866
624.324	0.10141147
624.522	0.10148704
624.719	0.10151953
624.917	0.10167843
625.115	0.10174001
625.313	0.10183331
625.511	0.1019969
625.708	0.10200853
625.906	0.10212254
626.104	0.1022517
626.302	0.10241324
626.499	0.10255966
626.697	0.1026669
626.895	0.10265248
627.093	0.10279747
627.29	0.10291552
627.488	0.10300313
627.686	0.1030694
627.883	0.10309662
628.081	0.10313436
628.278	0.1033421
628.476	0.10336637
628.673	0.10344188
628.871	0.10352222
629.068	0.10357238
629.266	0.10371327
629.463	0.10377373
629.661	0.1037763
629.858	0.10389399
630.056	0.10395029
630.253	0.10398254
630.451	0.10407771
630.648	0.10410672
630.845	0.10419422
631.043	0.10425909
631.24	0.10439824
631.438	0.10446867
631.635	0.10461626
631.832	0.10467399
632.029	0.10481203
632.227	0.10493716
632.424	0.10500946
632.621	0.10504401
632.818	0.10508762
633.016	0.10517768
633.213	0.10523901
633.41	0.10532039
633.607	0.1053478
633.804	0.1054351
634.001	0.10542546
634.199	0.10553463
634.396	0.1055544
634.593	0.10561123
634.79	0.10565954
634.987	0.10580682
635.184	0.10587619
635.381	0.10604909
635.578	0.10615225
635.775	0.10622567
635.972	0.10631637
636.169	0.10639516
636.366	0.10638053
636.563	0.10645927
636.76	0.10646225
636.957	0.10648082
637.153	0.10650163
637.35	0.10652949
637.547	0.10657924
637.744	0.10664908
637.941	0.10672351
638.138	0.1068144
638.334	0.10686868
638.531	0.10695264
638.728	0.10702772
638.925	0.10713023
639.121	0.10719966
639.318	0.10723648
639.515	0.10727313
639.711	0.10737314
639.908	0.10744231
640.105	0.10754001
640.301	0.10756247
640.498	0.10760804
640.695	0.10768344
640.891	0.1077321
641.088	0.10777777
641.284	0.10780772
641.481	0.10781321
641.677	0.10782612
641.874	0.107858
642.07	0.10792946
642.267	0.10801172
642.463	0.10805946
642.66	0.1081644
642.856	0.10817846
643.053	0.10817908
643.249	0.10824528
643.445	0.10826251
643.642	0.10827909
643.838	0.10833229
644.034	0.10831987
644.231	0.10841763
644.427	0.1085145
644.623	0.10859385
644.82	0.10867083
645.016	0.10872034
645.212	0.10868209
645.408	0.1087363
645.604	0.10883208
645.801	0.10889144
645.997	0.10889755
646.193	0.10887284
646.389	0.10897981
646.585	0.10907592
646.781	0.10915094
646.977	0.10912554
647.173	0.10916686
647.37	0.10916309
647.566	0.10924386
647.762	0.10921078
647.958	0.10929397
648.154	0.1092909
648.35	0.10933738
648.546	0.10936583
648.742	0.10949155
648.937	0.10944735
649.133	0.10951224
649.329	0.10952869
649.525	0.10961143
649.721	0.10967366
649.917	0.10976792
650.113	0.10979287
650.309	0.10991437
650.504	0.10994147
650.7	0.10995796
650.896	0.10995656
651.092	0.11001355
651.287	0.11000502
651.483	0.11009351
651.679	0.11012519
651.875	0.11021714
652.07	0.11025406
652.266	0.11032544
652.462	0.11034633
652.657	0.1103735
652.853	0.11035014
653.048	0.11037208
653.244	0.11032376
653.44	0.11037746
653.635	0.11034609
653.831	0.11041171
654.026	0.11049115
654.222	0.11054246
654.417	0.1106064
654.613	0.11065456
654.808	0.11064808
655.004	0.110737
655.199	0.11070754
655.394	0.11070179
655.59	0.11076442
655.785	0.11078808
655.98	0.11086836
656.176	0.11092114
656.371	0.11100691
656.566	0.11111526
656.762	0.11114422
656.957	0.11115236
657.152	0.1111866
657.348	0.11121052
657.543	0.11125137
657.738	0.1112673
657.933	0.11128055
658.128	0.11127574
658.324	0.11128149
658.519	0.11128725
658.714	0.11130668
658.909	0.11132209
659.104	0.11133665
659.299	0.11131615
659.494	0.11141987
659.689	0.11149053
659.884	0.11151569
660.079	0.11152047
660.274	0.11162173
660.469	0.11166568
660.664	0.11172425
660.859	0.11171317
661.054	0.11172716
661.249	0.11180874
661.444	0.11187194
661.639	0.11186231
661.834	0.11186015
662.029	0.11190345
662.224	0.11200537
662.418	0.11207669
662.613	0.11211061
662.808	0.11215462
663.003	0.11216946
663.198	0.11221322
663.392	0.11225461
663.587	0.11234087
663.782	0.11232615
663.977	0.11237861
664.171	0.11243989
664.366	0.11249062
664.561	0.11257578
664.755	0.11261428
664.95	0.11258174
665.144	0.11266153
665.339	0.11269602
665.534	0.11269875
665.728	0.11278196
665.923	0.1128086
666.117	0.11282917
666.312	0.11287761
666.506	0.11294376
666.701	0.11295143
666.895	0.11298509
667.09	0.11301591
667.284	0.11307493
667.479	0.11315014
667.673	0.11318619
667.867	0.11321842
668.062	0.11324868
668.256	0.11330686
668.45	0.11336
668.645	0.11337021
668.839	0.11344416
669.033	0.11346596
669.228	0.11349004
669.422	0.11356774
669.616	0.11362558
669.81	0.1137227
670.004	0.11375507
670.199	0.1137766
670.393	0.11380536
670.587	0.11383842
670.781	0.11389599
670.975	0.11392927
671.169	0.11387058
671.363	0.11391898
671.558	0.11395255
671.752	0.11402945
671.946	0.11408303
672.14	0.11412961
672.334	0.1142049
672.528	0.11433266
672.722	0.1143721
672.916	0.11440685
673.11	0.11440297
673.304	0.11449596
673.497	0.1145256
673.691	0.11455766
673.885	0.1145688
674.079	0.11465517
674.273	0.11469176
674.467	0.11479202
674.661	0.1148158
674.854	0.11488498
675.048	0.11496728
675.242	0.11501028
675.436	0.11504777
675.629	0.11511916
675.823	0.11512206
676.017	0.11519801
676.211	0.11519092
676.404	0.11522196
676.598	0.11526396
676.792	0.11528266
676.985	0.11536608
677.179	0.115434
677.372	0.11541089
677.566	0.11551407
677.76	0.11561332
677.953	0.11569267
678.147	0.11578569
678.34	0.11587369
678.534	0.11597377
678.727	0.11609117
678.921	0.11617462
679.114	0.11619196
679.307	0.11623931
679.501	0.11628573
679.694	0.11627434
679.888	0.11631247
680.081	0.11636335
680.274	0.11634903
680.468	0.11641554
680.661	0.11646726
680.854	0.11660415
681.048	0.11668322
681.241	0.11674523
681.434	0.1167943
681.627	0.11695235
681.821	0.11701872
682.014	0.11712061
682.207	0.11712345
682.4	0.11715859
682.593	0.11725324
682.786	0.11729174
682.98	0.11727808
683.173	0.11734965
683.366	0.11738188
683.559	0.11739139
683.752	0.11750078
683.945	0.11758141
684.138	0.11770548
684.331	0.11780696
684.524	0.11789218
684.717	0.11796739
684.91	0.11813266
685.103	0.11820559
685.296	0.11825386
685.489	0.11828784
685.682	0.11832586
685.874	0.11839275
686.067	0.11848149
686.26	0.11854273
686.453	0.11857759
686.646	0.1186459
686.839	0.11873586
687.031	0.11882599
687.224	0.11885267
687.417	0.11898207
687.61	0.11900745
687.802	0.11904754
687.995	0.11910332
688.188	0.11917097
688.38	0.11924265
688.573	0.11935469
688.766	0.1193957
688.958	0.1194352
689.151	0.1195592
689.343	0.1196655
689.536	0.1197514
689.729	0.11978398
689.921	0.11981711
690.114	0.11981684
690.306	0.11992391
690.499	0.12000028
690.691	0.12007386
690.884	0.12015425
691.076	0.12029125
691.268	0.12039134
691.461	0.12047511
691.653	0.12055014
691.846	0.12063339
692.038	0.12070969
692.23	0.12075798
692.423	0.12083781
692.615	0.12092363
692.807	0.12098849
692.999	0.12109059
693.192	0.12111433
693.384	0.12115453
693.576	0.12121418
693.768	0.12131607
693.961	0.12135269
694.153	0.12146006
694.345	0.12152503
694.537	0.12164042
694.729	0.12171034
694.921	0.12178296
695.113	0.12181737
695.305	0.12188449
695.498	0.12191749
695.69	0.12203333
695.882	0.12209528
696.074	0.1222356
696.266	0.12234458
696.458	0.12238809
696.65	0.12249234
696.842	0.12262407
697.033	0.12269877
697.225	0.12281393
697.417	0.12292558
697.609	0.1229984
697.801	0.12312892
697.993	0.12330392
698.185	0.12339458
698.376	0.12350078
698.568	0.12356887
698.76	0.12363008
698.952	0.12375247
699.144	0.12382356
699.335	0.12384718
699.527	0.12391502
699.719	0.12399153
699.91	0.12414617
700.102	0.12418516
700.294	0.12428753
700.485	0.12436896
700.677	0.12446625
700.869	0.12458547
701.06	0.12469272
701.252	0.12473825
701.443	0.12486886
701.635	0.12497819
701.826	0.12512405
702.018	0.12521506
702.209	0.12533906
702.401	0.1254154
702.592	0.12552862
702.784	0.125601
702.975	0.12567464
703.166	0.12578036
703.358	0.12585165
703.549	0.12595637
703.741	0.12600318
703.932	0.12611307
704.123	0.12624437
704.315	0.12632864
704.506	0.12644648
704.697	0.12657491
704.888	0.12665137
705.08	0.1267956
705.271	0.12689359
705.462	0.12696122
705.653	0.12707487
705.844	0.12707892
706.035	0.12714771
706.227	0.12716829
706.418	0.12726732
706.609	0.12735735
706.8	0.1274806
706.991	0.12751429
707.182	0.12765625
707.373	0.12772869
707.564	0.12790874
707.755	0.12795594
707.946	0.12801555
708.137	0.1280691
708.328	0.12816093
708.519	0.12827292
708.71	0.12840918
708.901	0.12849379
709.092	0.12862362
709.283	0.12870949
709.473	0.12882592
709.664	0.12901422
709.855	0.12909945
710.046	0.12920441
710.237	0.12933413
710.427	0.12945425
710.618	0.12958069
710.809	0.12969174
711	0.12974888
711.19	0.12977394
711.381	0.12990164
711.572	0.12996453
711.762	0.13010482
711.953	0.13018245
712.144	0.13027385
712.334	0.13038515
712.525	0.13055811
712.715	0.1306283
712.906	0.13070781
713.097	0.13070793
713.287	0.13084124
713.478	0.13092787
713.668	0.13102127
713.859	0.1311084
714.049	0.13119092
714.239	0.13130608
714.43	0.1314406
714.62	0.1315334
714.811	0.1316301
715.001	0.13175471
715.191	0.131879
715.382	0.13199115
715.572	0.13212235
715.762	0.1322315
715.953	0.13231525
716.143	0.13245574
716.333	0.13252213
716.523	0.13258833
716.714	0.13273781
716.904	0.13278579
717.094	0.13293689
717.284	0.13302905
717.474	0.13314696
717.664	0.13327488
717.855	0.13340146
718.045	0.1334914
718.235	0.13370262
718.425	0.13379393
718.615	0.13396882
718.805	0.13406684
718.995	0.1342
719.185	0.13438628
719.375	0.13452184
719.565	0.13461466
719.755	0.13471507
719.945	0.13483626
720.135	0.13499956
720.325	0.13514876
720.515	0.13525084
720.704	0.13534258
720.894	0.1354712
721.084	0.13562113
721.274	0.13573029
721.464	0.13581095
721.654	0.13588366
721.843	0.1359776
722.033	0.13608217
722.223	0.13617395
722.413	0.13627037
722.602	0.13637138
722.792	0.13646882
722.982	0.1365992
723.171	0.1366944
723.361	0.13678335
723.55	0.13694813
723.74	0.1370591
723.93	0.13714446
724.119	0.13728442
724.309	0.13734963
724.498	0.13741962
724.688	0.13760205
724.877	0.13765868
725.067	0.13780933
725.256	0.13791135
725.446	0.13797449
725.635	0.13808214
725.825	0.13823814
726.014	0.13830545
726.203	0.13843741
726.393	0.13842916
726.582	0.13851811
726.771	0.13862216
726.961	0.13872555
727.15	0.13877707
727.339	0.13882601
727.529	0.13882514
727.718	0.13889804
727.907	0.13893984
728.096	0.13904984
728.286	0.13912506
728.475	0.13919043
728.664	0.13927603
728.853	0.1394009
729.042	0.13947478
729.231	0.13960541
729.42	0.13961735
729.609	0.13964905
729.799	0.13977029
729.988	0.13982827
730.177	0.13984093
730.366	0.13991
730.555	0.13998224
730.744	0.14008883
730.933	0.14016757
731.122	0.14017072
731.31	0.14024138
731.499	0.14035334
731.688	0.14046726
731.877	0.1404991
732.066	0.14059062
732.255	0.14066517
732.444	0.14075093
732.632	0.14079506
732.821	0.14083245
733.01	0.14093437
733.199	0.14099622
733.388	0.14101385
733.576	0.14109537
733.765	0.14120427
733.954	0.14131697
734.142	0.1413804
734.331	0.14143572
734.52	0.14152401
734.708	0.14159446
734.897	0.14162707
735.086	0.14164924
735.274	0.14172479
735.463	0.14180843
735.651	0.14187048
735.84	0.14197894
736.028	0.14208946
736.217	0.14221177
736.405	0.1423088
736.594	0.14238022
736.782	0.142408
736.971	0.14242728
737.159	0.14243582
737.347	0.14248012
737.536	0.14250278
737.724	0.14255618
737.912	0.14261697
738.101	0.14270875
738.289	0.14280243
738.477	0.14290967
738.666	0.14295404
738.854	0.1430213
739.042	0.14311922
739.23	0.14315249
739.418	0.14318865
739.607	0.14325713
739.795	0.1432527
739.983	0.14336706
740.171	0.1434464
740.359	0.14353317
740.547	0.14357433
740.735	0.14370107
740.923	0.14383922
741.112	0.14394214
741.3	0.1438987
741.488	0.1439527
741.676	0.14403742
741.864	0.14416804
742.052	0.14424198
742.239	0.14418973
742.427	0.14425733
742.615	0.14434379
742.803	0.14441255
742.991	0.14434112
743.179	0.14438974
743.367	0.1443618
743.555	0.14448154
743.742	0.14450026
743.93	0.14456414
744.118	0.14460925
744.306	0.1447404
744.494	0.14474317
744.681	0.14482091
744.869	0.14483244
745.057	0.14487245
745.244	0.1449185
745.432	0.14497573
745.62	0.14494265
745.807	0.14505844
745.995	0.14517415
746.182	0.14516247
746.37	0.14522954
746.558	0.14530927
746.745	0.14528315
746.933	0.14539647
747.12	0.14541294
747.308	0.14540915
747.495	0.14548115
747.683	0.14554654
747.87	0.14557851
748.057	0.14567234
748.245	0.14569188
748.432	0.14567387
748.62	0.14569333
748.807	0.14576851
748.994	0.14582387
749.182	0.1458914
749.369	0.14596716
749.556	0.1460229
749.743	0.1460559
749.931	0.14609226
750.118	0.14613945
750.305	0.1461448
750.492	0.14615317
750.68	0.14615737
750.867	0.14615675
751.054	0.14623065
751.241	0.14627942
751.428	0.14629762
751.615	0.14632756
751.802	0.1463623
751.989	0.14642146
752.176	0.14649771
752.363	0.14651527
752.55	0.14650561
752.737	0.14656652
752.924	0.14663233
753.111	0.14662186
753.298	0.14663389
753.485	0.14656959
753.672	0.1466219
753.859	0.1466798
754.046	0.14664544
754.233	0.14662429
754.42	0.14665833
754.606	0.14670309
754.793	0.14676012
754.98	0.14674926
755.167	0.14673557
755.353	0.1467484
755.54	0.14678163
755.727	0.14679755
755.914	0.14678689
756.1	0.14681585
756.287	0.1468539
756.474	0.14684637
756.66	0.14687101
756.847	0.14682892
757.033	0.14683941
757.22	0.14682986
757.407	0.14688297
757.593	0.14688051
757.78	0.14693045
757.966	0.1469611
758.153	0.14699788
758.339	0.14705517
758.526	0.14706882
758.712	0.14703673
758.898	0.14704016
759.085	0.14696633
759.271	0.14692893
759.458	0.14695768
759.644	0.14689697
759.83	0.14689586
760.017	0.14693754
760.203	0.14691496
760.389	0.14697248
760.576	0.14698913
760.762	0.14695614
760.948	0.14693076
761.134	0.14690726
761.32	0.14685078
761.507	0.14682944
761.693	0.14686537
761.879	0.14686057
762.065	0.1469132
762.251	0.14691957
762.437	0.14696571
762.623	0.14696463
762.809	0.1469482
762.995	0.14689153
763.181	0.14687854
763.367	0.14681774
763.553	0.14686195
763.739	0.14685343
763.925	0.14688476
764.111	0.14699587
764.297	0.14706217
764.483	0.14703032
764.669	0.14702661
764.855	0.14696949
765.041	0.14693814
765.227	0.1468982
765.412	0.14683038
765.598	0.14671
765.784	0.14671372
765.97	0.14674406
766.156	0.14675281
766.341	0.14678126
766.527	0.14676636
766.713	0.1467157
766.898	0.14675518
767.084	0.14674177
767.27	0.14663693
767.455	0.14664853
767.641	0.14661732
767.827	0.14661554
768.012	0.14665915
768.198	0.14670868
768.383	0.14674538
768.569	0.14679821
768.754	0.14673707
768.94	0.14664332
769.125	0.14655718
769.311	0.14643051
769.496	0.14630356
769.682	0.14623948
769.867	0.14622023
770.052	0.1462302
770.238	0.14624906
770.423	0.14623169
770.608	0.14622614
770.794	0.14626649
770.979	0.14616392
771.164	0.14605037
771.35	0.14592964
771.535	0.14585613
771.72	0.14583795
771.905	0.14583852
772.09	0.14574391
772.276	0.1457729
772.461	0.14579174
772.646	0.1457567
772.831	0.14573116
773.016	0.14570979
773.201	0.14562583
773.386	0.1455817
773.571	0.14550325
773.756	0.14542155
773.941	0.14540234
774.126	0.14531797
774.311	0.14522425
774.496	0.14519244
774.681	0.14518564
774.866	0.14507711
775.051	0.1449938
775.236	0.14487227
775.421	0.14481174
775.606	0.14473977
775.791	0.1446413
775.976	0.14452262
776.16	0.14453245
776.345	0.14450793
776.53	0.14451682
776.715	0.14448917
776.899	0.14443314
777.084	0.14440933
777.269	0.14437622
777.454	0.14429782
777.638	0.14422109
777.823	0.14414674
778.008	0.14400519
778.192	0.14398739
778.377	0.14388607
778.561	0.14381712
778.746	0.14375558
778.931	0.14365294
779.115	0.14360706
779.3	0.14351103
779.484	0.14334952
779.669	0.14333039
779.853	0.14317928
780.037	0.14309406
780.222	0.1430711
780.406	0.14298126
780.591	0.14302972
780.775	0.14299763
780.959	0.14286606
781.144	0.14281193
781.328	0.1426993
781.512	0.14257269
781.697	0.14250172
781.881	0.14236684
782.065	0.14229103
782.249	0.14220612
782.434	0.14215528
782.618	0.14212951
782.802	0.14210372
782.986	0.14204075
783.17	0.141997
783.354	0.14187607
783.539	0.14178394
783.723	0.14171402
783.907	0.14155941
784.091	0.14141853
784.275	0.1413393
784.459	0.14121854
784.643	0.14117952
784.827	0.14114586
785.011	0.14102607
785.195	0.14100272
785.379	0.14095546
785.563	0.1407757
785.747	0.14067633
785.93	0.14059115
786.114	0.14044616
786.298	0.14034513
786.482	0.14020215
786.666	0.14003347
786.85	0.13996684
787.033	0.13984755
787.217	0.13969006
787.401	0.1396253
787.585	0.13950273
787.768	0.13940351
787.952	0.13931953
788.136	0.13915879
788.319	0.13903425
788.503	0.13893619
788.687	0.13875586
788.87	0.13866843
789.054	0.13854903
789.237	0.13846788
789.421	0.13838453
789.605	0.13825912
789.788	0.13812722
789.972	0.13808129
790.155	0.13794879
790.338	0.13777942
790.522	0.13764093
790.705	0.13753353
790.889	0.13741914
791.072	0.13733641
791.256	0.13721211
791.439	0.13710764
791.622	0.13713198
791.806	0.13705089
791.989	0.13692155
792.172	0.13685607
792.355	0.13673264
792.539	0.1366248
792.722	0.13646834
792.905	0.13623534
793.088	0.13605633
793.271	0.13598277
793.455	0.1358134
793.638	0.13566395
793.821	0.13546223
794.004	0.13535648
794.187	0.13531075
794.37	0.13521424
794.553	0.13507614
794.736	0.13499042
794.919	0.13489057
795.102	0.13482729
795.285	0.13471967
795.468	0.13455687
795.651	0.13443494
795.834	0.13429877
796.017	0.13418744
796.2	0.13403261
796.383	0.13389439
796.566	0.13372809
796.749	0.13358508
796.931	0.1334701
797.114	0.13336352
797.297	0.1332063
797.48	0.13306113
797.663	0.13294351
797.845	0.13290035
798.028	0.13277148
798.211	0.13257758
798.393	0.13233518
798.576	0.13218037
798.759	0.13206626
798.941	0.13186822
799.124	0.13169729
799.307	0.13150069
799.489	0.13141691
799.672	0.13133011
799.854	0.13116555
800.037	0.13101977
800.219	0.13090367
800.402	0.13075386
800.584	0.13068199
800.767	0.13051541
800.949	0.13039525
801.132	0.13027665
801.314	0.13012714
801.496	0.12999834
801.679	0.12983209
801.861	0.12965652
802.043	0.12945203
802.226	0.12931791
802.408	0.12918557
802.59	0.12908513
802.772	0.12892225
802.955	0.12879937
803.137	0.12865264
803.319	0.1285665
803.501	0.12836893
803.684	0.12815787
803.866	0.12790226
804.048	0.12769956
804.23	0.12748111
804.412	0.12732296
804.594	0.12712051
804.776	0.12699498
804.958	0.12688197
805.14	0.12680211
805.322	0.12670706
805.504	0.12658756
805.686	0.12643368
805.868	0.1262494
806.05	0.12611526
806.232	0.12597566
806.414	0.12579347
806.596	0.12558706
806.778	0.12544653
806.96	0.12533373
807.141	0.1252441
807.323	0.12506331
807.505	0.12487274
807.687	0.12474329
807.869	0.12465467
808.05	0.12449716
808.232	0.12429994
808.414	0.12420283
808.595	0.12406991
808.777	0.12389791
808.959	0.12376836
809.14	0.1235716
809.322	0.12342097
809.504	0.12325774
809.685	0.12303284
809.867	0.12288259
810.048	0.12270894
810.23	0.12255147
810.411	0.12242642
810.593	0.12224711
810.774	0.12207051
810.956	0.12195176
811.137	0.12163695
811.319	0.12151375
811.5	0.12126927
811.681	0.12111649
811.863	0.12097368
812.044	0.12081956
812.225	0.12066505
812.407	0.12065003
812.588	0.12050424
812.769	0.12032943
812.951	0.12011788
813.132	0.11990654
813.313	0.11974479
813.494	0.11944968
813.675	0.11915161
813.857	0.11894804
814.038	0.11883031
814.219	0.1186369
814.4	0.11845209
814.581	0.1183372
814.762	0.11822162
814.943	0.11820397
815.124	0.11798995
815.305	0.11782013
815.486	0.11769158
815.667	0.11753146
815.848	0.11734839
816.029	0.11714215
816.21	0.11692127
816.391	0.11682832
816.572	0.11660021
816.753	0.11644614
816.934	0.11624593
817.115	0.11601909
817.295	0.11587437
817.476	0.1156637
817.657	0.11542168
817.838	0.11523988
818.019	0.11494899
818.199	0.11476945
818.38	0.11458655
818.561	0.11436856
818.741	0.11422439
818.922	0.11399891
819.103	0.1138415
819.283	0.1137598
819.464	0.11360802
819.645	0.11349413
819.825	0.11333351
820.006	0.11306181
820.186	0.11290133
820.367	0.11266285
820.547	0.11235104
820.728	0.11209519
820.908	0.11178294
821.089	0.11164483
821.269	0.11151742
821.45	0.11130098
821.63	0.11121937
821.81	0.11112821
821.991	0.11095157
822.171	0.11075939
822.351	0.11049848
822.532	0.11029632
822.712	0.11009034
822.892	0.10978713
823.072	0.10951419
823.253	0.10934967
823.433	0.10925183
823.613	0.10905502
823.793	0.10887141
823.973	0.10873332
824.154	0.10858583
824.334	0.10848102
824.514	0.10831811
824.694	0.10799054
824.874	0.10770644
825.054	0.10746777
825.234	0.1072741
825.414	0.10705705
825.594	0.10677006
825.774	0.10652133
825.954	0.1064941
826.134	0.10646662
826.314	0.10629646
826.494	0.10616861
826.674	0.10602431
826.854	0.10585477
827.033	0.10562844
827.213	0.10534072
827.393	0.10500637
827.573	0.10479061
827.753	0.10448849
827.932	0.10420009
828.112	0.10402383
828.292	0.10393093
828.472	0.1037109
828.651	0.10364437
828.831	0.10344625
829.011	0.10333413
829.19	0.10321585
829.37	0.10299332
829.549	0.10267742
829.729	0.10248773
829.909	0.1021704
830.088	0.10198406
830.268	0.10173122
830.447	0.1015205
830.627	0.10135492
830.806	0.10127986
830.986	0.10113654
831.165	0.1010695
831.344	0.10089802
831.524	0.10069545
831.703	0.10045907
831.883	0.10015755
832.062	0.0998584
832.241	0.09956033
832.421	0.09925248
832.6	0.09899628
832.779	0.09878546
832.958	0.09861347
833.138	0.09847922
833.317	0.09834782
833.496	0.0981932
833.675	0.09804119
833.854	0.09786855
834.034	0.09770801
834.213	0.09752842
834.392	0.09737021
834.571	0.09708311
834.75	0.09691763
834.929	0.09664593
835.108	0.0964278
835.287	0.09623923
835.466	0.09603624
835.645	0.0958153
835.824	0.09564803
836.003	0.09543817
836.182	0.09528373
836.361	0.09506592
836.54	0.09484237
836.719	0.09464282
836.897	0.09439328
837.076	0.09420764
837.255	0.09400088
837.434	0.09374906
837.613	0.09353469
837.791	0.09336917
837.97	0.09315373
838.149	0.09299743
838.328	0.09281139
838.506	0.09265865
838.685	0.09253034
838.864	0.09239489
839.042	0.09215446
839.221	0.09194938
839.4	0.0917376
839.578	0.09147831
839.757	0.09120303
839.935	0.0909542
840.114	0.09071684
840.292	0.09055851
840.471	0.09041158
840.649	0.09021437
840.828	0.08997704
841.006	0.08978082
841.185	0.08959212
841.363	0.08937469
841.541	0.08912075
841.72	0.08885942
841.898	0.08864971
842.076	0.0885218
842.255	0.08836147
842.433	0.0881338
842.611	0.08792635
842.789	0.08772958
842.968	0.08750192
843.146	0.08737207
843.324	0.08719201
843.502	0.08696935
843.68	0.08688092
843.859	0.08668633
844.037	0.08649397
844.215	0.0863332
844.393	0.08608851
844.571	0.08588045
844.749	0.08565134
844.927	0.08538674
845.105	0.08523883
845.283	0.08508251
845.461	0.08487995
845.639	0.08467483
845.817	0.08446913
845.995	0.08426871
846.173	0.0841586
846.351	0.08399783
846.529	0.08372461
846.706	0.08347969
846.884	0.08327017
847.062	0.08302273
847.24	0.0827901
847.418	0.08241009
847.595	0.08204008
847.773	0.08186987
847.951	0.08164583
848.129	0.08144687
848.306	0.08135964
848.484	0.08125664
848.662	0.08121248
848.839	0.08115205
849.017	0.08098128
849.194	0.08081722
849.372	0.08062538
849.549	0.08030246
849.727	0.08011552
849.905	0.07985619
850.082	0.07966643
850.26	0.07945194
850.437	0.07929674
850.614	0.07911624
850.792	0.07901024
850.969	0.07876235
851.147	0.07864335
851.324	0.07849713
851.501	0.07823549
851.679	0.07797615
851.856	0.07765781
852.033	0.07744878
852.211	0.07726064
852.388	0.07696005
852.565	0.076674
852.742	0.07654663
852.92	0.07632502
853.097	0.07621678
853.274	0.07601298
853.451	0.07579741
853.628	0.07564494
853.805	0.07541417
853.982	0.07517331
854.159	0.07498032
854.336	0.0748248
854.514	0.07458343
854.691	0.07431066
854.868	0.073997
855.045	0.07378087
855.221	0.07359365
855.398	0.07342424
855.575	0.0731868
855.752	0.07295302
855.929	0.07283166
856.106	0.07279463
856.283	0.07267727
856.46	0.07249851
856.637	0.07245532
856.813	0.07225149
856.99	0.07210584
857.167	0.07191107
857.344	0.07168449
857.52	0.07142078
857.697	0.07119076
857.874	0.07087298
858.05	0.07069553
858.227	0.07049208
858.404	0.0703229
858.58	0.07019842
858.757	0.07005128
858.933	0.06989108
859.11	0.06975297
859.287	0.06958387
859.463	0.06940837
859.64	0.06922169
859.816	0.06891528
859.993	0.06870275
860.169	0.06845221
860.345	0.06821505
860.522	0.06802076
860.698	0.06790713
860.875	0.06773815
861.051	0.06759624
861.227	0.06745869
861.404	0.06744026
861.58	0.06724518
861.756	0.06709745
861.932	0.06692059
862.109	0.06668908
862.285	0.06640877
862.461	0.06619131
862.637	0.06586804
862.813	0.06571692
862.99	0.06541275
863.166	0.06513426
863.342	0.06501414
863.518	0.06486585
863.694	0.06481515
863.87	0.06473828
864.046	0.06457193
864.222	0.06446075
864.398	0.06436543
864.574	0.06416471
864.75	0.06407206
864.926	0.06373922
865.102	0.06352121
865.278	0.0632716
865.454	0.06312855
865.63	0.06291525
865.805	0.06269439
865.981	0.06248833
866.157	0.06243329
866.333	0.06229729
866.509	0.06225964
866.684	0.06211361
866.86	0.06201483
867.036	0.06192237
867.212	0.06172244
867.387	0.0614833
867.563	0.06126057
867.739	0.06094781
867.914	0.0606891
868.09	0.06042165
868.265	0.06022087
868.441	0.06006343
868.617	0.05982545
868.792	0.05969459
868.968	0.05959342
869.143	0.05950538
869.319	0.05936332
869.494	0.05919682
869.67	0.05903114
869.845	0.05890239
870.02	0.05867573
870.196	0.05848543
870.371	0.05823
870.546	0.05792468
870.722	0.05766775
870.897	0.05742384
871.072	0.0572813
871.248	0.05699834
871.423	0.05677438
871.598	0.05661394
871.773	0.0564642
871.949	0.05634512
872.124	0.0562696
872.299	0.05608458
872.474	0.05606722
872.649	0.05602545
872.824	0.05589202
872.999	0.05581364
873.174	0.05559388
873.349	0.05535996
873.524	0.05505274
873.699	0.05479557
873.874	0.05448418
874.049	0.0542805
874.224	0.05405647
874.399	0.05394811
874.574	0.05389911
874.749	0.05375768
874.924	0.05353352
875.099	0.05337104
875.274	0.05324038
875.449	0.05311558
875.623	0.05284039
875.798	0.05253677
875.973	0.05245578
876.148	0.05230984
876.322	0.05213018
876.497	0.05185681
876.672	0.05162582
876.846	0.05157111
877.021	0.05138778
877.196	0.0513338
877.37	0.05130127
877.545	0.05128768
877.72	0.05121515
877.894	0.05112124
878.069	0.05086291
878.243	0.05071769
878.418	0.05039761
878.592	0.05014129
878.767	0.0497941
878.941	0.04953062
879.116	0.04934259
879.29	0.04925029
879.464	0.04907234
879.639	0.04891812
879.813	0.04883642
879.987	0.04895735
880.162	0.04898927
880.336	0.04892209
880.51	0.04882026
880.685	0.04869359
880.859	0.0486849
881.033	0.04846054
881.207	0.04805101
881.381	0.04784219
881.556	0.04754176
881.73	0.04724612
881.904	0.04709707
882.078	0.04683535
882.252	0.04674753
882.426	0.0466706
882.6	0.04650386
882.774	0.04645525
882.948	0.04636956
883.122	0.04623138
883.296	0.04618003
883.47	0.0460046
883.644	0.04590564
883.818	0.04579792
883.992	0.04564129
884.166	0.04550663
884.34	0.04544296
884.514	0.04526071
884.687	0.04513598
884.861	0.04498152
885.035	0.04480617
885.209	0.04463416
885.382	0.04460752
885.556	0.04441038
885.73	0.04427413
885.904	0.04410008
886.077	0.04396538
886.251	0.04385821
886.425	0.04375275
886.598	0.04351505
886.772	0.04327934
886.945	0.04308052
887.119	0.04299174
887.292	0.04279967
887.466	0.042641
887.64	0.04249811
887.813	0.04238741
887.986	0.04230818
888.16	0.04217631
888.333	0.04196254
888.507	0.04171853
888.68	0.04152138
888.854	0.04136815
889.027	0.04113924
889.2	0.04099722
889.374	0.04085764
889.547	0.04075123
889.72	0.04067151
889.893	0.04055871
890.067	0.04041659
890.24	0.04040984
890.413	0.04022305
890.586	0.04015687
890.759	0.03999748
890.933	0.03997661
891.106	0.03988968
891.279	0.03986403
891.452	0.03970471
891.625	0.03960382
891.798	0.03936061
891.971	0.0392727
892.144	0.03912515
892.317	0.03892473
892.49	0.03859582
892.663	0.03838355
892.836	0.03837568
893.009	0.03832514
893.182	0.03818425
893.355	0.03804301
893.527	0.03795013
893.7	0.03795891
893.873	0.03789324
894.046	0.03764293
894.219	0.03748855
894.391	0.03740589
894.564	0.03716015
894.737	0.03688589
894.91	0.03665735
895.082	0.03640843
895.255	0.03624767
895.428	0.03608176
895.6	0.03586924
895.773	0.03580692
895.945	0.03581289
896.118	0.03572949
896.291	0.03570478
896.463	0.03568023
896.636	0.03563115
896.808	0.03557607
896.981	0.03547646
897.153	0.03538982
897.326	0.03532117
897.498	0.03516429
897.67	0.03501312
897.843	0.03481894
898.015	0.03466581
898.187	0.03449514
898.36	0.03414264
898.532	0.03396128
898.704	0.0338985
898.877	0.03377328
899.049	0.03368759
899.221	0.03349903
899.393	0.03336782
899.566	0.03344696
899.738	0.03338855
899.91	0.03327151
900.082	0.03313122
900.254	0.03299109
900.426	0.03298682
900.598	0.03288592
900.77	0.03268305
900.942	0.03249276
901.114	0.0323625
901.286	0.03223056
901.458	0.03213117
901.63	0.03193688
901.802	0.03175254
901.974	0.03163438
902.146	0.03147841
902.318	0.03135571
902.49	0.03124027
902.662	0.03103535
902.834	0.03098627
903.005	0.03095678
903.177	0.03088983
903.349	0.03083904
903.521	0.03068959
903.693	0.03052133
903.864	0.03043786
904.036	0.03033956
904.208	0.03015891
904.379	0.03004926
904.551	0.02997889
904.723	0.0298878
904.894	0.02984564
905.066	0.02973887
905.237	0.02964538
905.409	0.02958025
905.58	0.02944776
905.752	0.02941628
905.923	0.02937098
906.095	0.02923168
906.266	0.02914675
906.438	0.02891339
906.609	0.02880562
906.78	0.02870797
906.952	0.02849505
907.123	0.02829322
907.295	0.02827368
907.466	0.02822846
907.637	0.02814536
907.808	0.02814961
907.98	0.02811786
908.151	0.0280868
908.322	0.02805682
908.493	0.02801424
908.665	0.02796103
908.836	0.0279087
909.007	0.02778135
909.178	0.02773737
909.349	0.02763176
909.52	0.02750491
909.691	0.02737209
909.862	0.02721715
910.033	0.02714671
910.204	0.02702225
910.375	0.02694895
910.546	0.0268137
910.717	0.02670474
910.888	0.02653118
911.059	0.02643173
911.23	0.02644508
911.401	0.02639335
911.572	0.02623865
911.742	0.02608002
911.913	0.02598006
912.084	0.02588687
912.255	0.02575692
912.426	0.02558173
912.596	0.02535366
912.767	0.02505123
912.938	0.02497751
913.108	0.02478331
913.279	0.02460275
913.45	0.02447006
913.62	0.02424444
913.791	0.02432033
913.962	0.02437781
914.132	0.02427448
914.303	0.02420411
914.473	0.02425715
914.644	0.02422781
914.814	0.02411788
914.985	0.02396382
915.155	0.0238195
915.326	0.0236921
915.496	0.0235908
915.666	0.02344893
915.837	0.02328756
916.007	0.02318599
916.177	0.02298728
916.348	0.02296534
916.518	0.02288518
916.688	0.02285442
916.858	0.02280084
917.029	0.0227584
917.199	0.02265638
917.369	0.02262038
917.539	0.02251422
917.709	0.02248819
917.88	0.0224444
918.05	0.02221767
918.22	0.02204614
918.39	0.02204771
918.56	0.02188882
918.73	0.02180107
918.9	0.02167053
919.07	0.02157081
919.24	0.02156968
919.41	0.02163865
919.58	0.02160813
919.75	0.02165085
919.92	0.02158335
920.09	0.02158922
920.26	0.0214499
920.429	0.02143935
920.599	0.021253
920.769	0.02110351
920.939	0.02087161
921.109	0.02071985
921.278	0.02056529
921.448	0.02043135
921.618	0.02037343
921.787	0.02035035
921.957	0.02024897
922.127	0.02030385
922.296	0.02024351
922.466	0.02027177
922.636	0.02025715
922.805	0.02022875
922.975	0.02024302
923.144	0.02021741
923.314	0.02020485
923.483	0.02014658
923.653	0.0199567
923.822	0.01989325
923.992	0.01962857
924.161	0.01939793
924.331	0.0192373
924.5	0.0191819
924.669	0.01904279
924.839	0.0187934
925.008	0.01876776
925.177	0.01879691
925.347	0.01869211
925.516	0.01876966
925.685	0.01854542
925.854	0.01854412
926.023	0.01872489
926.193	0.01862138
926.362	0.01846707
926.531	0.01841456
926.7	0.01824813
926.869	0.01824152
927.038	0.01810419
927.207	0.01790073
927.376	0.01777436
927.545	0.0176501
927.715	0.01764267
927.884	0.0176286
928.052	0.01763415
928.221	0.01763252
928.39	0.0177167
928.559	0.01764942
928.728	0.01792478
928.897	0.01801031
929.066	0.0180331
929.235	0.01803917
929.404	0.01809551
929.572	0.01781479
929.741	0.01791941
929.91	0.01765452
930.079	0.01760885
930.247	0.01758951
930.416	0.01743104
930.585	0.01716528
930.753	0.01729533
930.922	0.01722193
931.091	0.01709433
931.259	0.01685619
931.428	0.01657092
931.596	0.01634473
931.765	0.01628764
931.934	0.01629737
932.102	0.01623614
932.27	0.01630605
932.439	0.01636871
932.607	0.01645994
932.776	0.0164527
932.944	0.01635524
933.113	0.01611973
933.281	0.01585053
933.449	0.01561882
933.618	0.01539956
933.786	0.01519656
933.954	0.0151397
934.123	0.01520497
934.291	0.01521154
934.459	0.01540277
934.627	0.01540359
934.795	0.01533581
934.964	0.01538751
935.132	0.01538801
935.3	0.01547527
935.468	0.01550353
935.636	0.01525905
935.804	0.01539602
935.972	0.01537724
936.14	0.01548138
936.308	0.01541903
936.476	0.01545193
936.644	0.01535102
936.812	0.01537816
936.98	0.01526608
937.148	0.01558068
937.316	0.0154092
937.484	0.01568877
937.652	0.01560441
937.82	0.015496
937.987	0.01592033
938.155	0.0157866
938.323	0.01555071
938.491	0.0157512
938.658	0.01588939
938.826	0.01588871
938.994	0.01652245
939.162	0.01624744
939.329	0.01661388
939.497	0.01652222
939.665	0.01636564
939.832	0.01609129
940	0.0165745
940.167	0.01687262
940.335	0.01695248
940.502	0.01747912
940.67	0.01748779
940.837	0.0177018
941.005	0.01790611
941.172	0.01772518
941.34	0.01705888
941.507	0.01726426
941.674	0.01642196
941.842	0.01708379
942.009	0.01748254
942.177	0.0174957
942.344	0.01705803
942.511	0.01759502
942.678	0.01770992
942.846	0.01832026
943.013	0.01776911
943.18	0.01781647
943.347	0.01785513
943.514	0.01823885
943.682	0.01826252
943.849	0.01813753
944.016	0.01775672
944.183	0.01905607
944.35	0.01813005
944.517	0.01812411
944.684	0.0182422
944.851	0.01809941
945.018	0.01799409
945.185	0.0182639
945.352	0.01786441
945.519	0.01837608
945.686	0.0184008
945.853	0.01795795
946.02	0.01676663
946.187	0.0171967
946.353	0.01591254
946.52	0.01523477
946.687	0.01470994
946.854	0.01501663
947.021	0.01559681
947.187	0.01627578
947.354	0.01537123
947.521	0.0158613
947.687	0.01614311
947.854	0.01605416
948.021	0.01566744
948.187	0.01442305
948.354	0.01380848
948.52	0.01431849
948.687	0.01444497
948.854	0.01423926
949.02	0.01396162
949.187	0.01403401
949.353	0.01396419
949.52	0.01397915
949.686	0.01364551
949.852	0.01330329
950.019	0.01320089
950.185	0.01313392
950.352	0.01274115
950.518	0.01360192
950.684	0.01400733
950.851	0.01409193
951.017	0.01436557
951.183	0.01430556
951.349	0.01506225
951.516	0.01454538
951.682	0.01343731
951.848	0.01326051
952.014	0.0126285
952.18	0.01265856
952.346	0.01292976
952.512	0.01224156
952.679	0.01269216
952.845	0.01304516
953.011	0.01303136
953.177	0.01316536
953.343	0.01283555
953.509	0.01265445
953.675	0.01271799
953.841	0.01247561
954.007	0.01286551
954.172	0.01284919
954.338	0.01262735
954.504	0.01239781
954.67	0.01199959
954.836	0.01225246
955.002	0.01148966
955.167	0.01131966
955.333	0.01080729
955.499	0.01121637
955.665	0.01146884
955.83	0.01157039
955.996	0.0111997
956.162	0.01114861
956.327	0.01111559
956.493	0.0116524
956.659	0.01131176
956.824	0.01084904
956.99	0.01094373
957.155	0.01097994
957.321	0.011549
957.486	0.01136188
957.652	0.01066386
957.817	0.01076009
957.983	0.01099687
958.148	0.01078459
958.314	0.01025419
958.479	0.01005972
958.644	0.01006208
958.81	0.01035902
958.975	0.01015663
959.14	0.01007892
959.306	0.00980396
959.471	0.00996909
959.636	0.00981764
959.801	0.0095193
959.967	0.009174
960.132	0.00899123
960.297	0.0090553
960.462	0.0090402
960.627	0.00926381
960.792	0.00928358
960.957	0.00924681
961.123	0.00935212
961.288	0.00962601
961.453	0.00950228
961.618	0.00931941
961.783	0.00905534
961.948	0.00922893
962.113	0.00927225
962.277	0.00899759
962.442	0.00880253
962.607	0.00848897
962.772	0.00889669
962.937	0.00862168
963.102	0.00830541
963.267	0.00876018
963.431	0.008919
963.596	0.00900148
963.761	0.00925218
963.926	0.00872138
964.09	0.00910105
964.255	0.00913939
964.42	0.00892716
964.584	0.0088352
964.749	0.00835146
964.914	0.00842415
965.078	0.00849959
965.243	0.00796459
965.407	0.00763516
965.572	0.00706121
965.736	0.00699421
965.901	0.00743829
966.065	0.00721673
966.23	0.00708753
966.394	0.00735147
966.559	0.00756159
966.723	0.0077134
966.887	0.00761318
967.052	0.00734359
967.216	0.00731751
967.38	0.00738807
967.545	0.00764173
967.709	0.00777545
967.873	0.00768445
968.037	0.00772631
968.202	0.00762032
968.366	0.00769851
968.53	0.00779542
968.694	0.00770279
968.858	0.00779849
969.022	0.00760747
969.187	0.00755166
969.351	0.00745952
969.515	0.00744914
969.679	0.00750898
969.843	0.00730675
970.007	0.00697748
970.171	0.00689203
970.335	0.00710456
970.499	0.00737272
970.662	0.00709072
970.826	0.0071611
970.99	0.00710833
971.154	0.0072249
971.318	0.00748739
971.482	0.0074491
971.645	0.00738366
971.809	0.00731628
971.973	0.00695155
972.137	0.00660796
972.3	0.0061107
972.464	0.00620462
972.628	0.00601746
972.791	0.00609956
972.955	0.00585286
973.119	0.0056585
973.282	0.00600443
973.446	0.00607483
973.609	0.00583557
973.773	0.0056303
973.936	0.00540335
974.1	0.00594418
974.263	0.00577544
974.427	0.00533485
974.59	0.00578673
974.754	0.00619147
974.917	0.00639997
975.08	0.00647135
975.244	0.00648669
975.407	0.00689592
975.57	0.00728072
975.734	0.00721355
975.897	0.00669382
976.06	0.00693981
976.223	0.00684969
976.387	0.00671911
976.55	0.00692958
976.713	0.00711065
976.876	0.00723152
977.039	0.00754325
977.202	0.00766838
977.365	0.00767252
977.528	0.00746887
977.692	0.00734543
977.855	0.0069604
978.018	0.00678183
978.181	0.00647045
978.344	0.0059374
978.506	0.00615424
978.669	0.00624205
978.832	0.00640501
978.995	0.00668971
979.158	0.00653662
979.321	0.00649133
979.484	0.00680005
979.646	0.00668213
979.809	0.00680329
979.972	0.00683506
980.135	0.00676812
980.297	0.00679497
980.46	0.00712996
980.623	0.00720611
980.786	0.00688298
980.948	0.00690302
981.111	0.00705832
981.273	0.00669749
981.436	0.00657893
981.599	0.00677289
981.761	0.00611709
981.924	0.00626987
982.086	0.0059026
982.249	0.00538905
982.411	0.00559529
982.573	0.00562824
982.736	0.00499567
982.898	0.00497776
983.061	0.00521488
983.223	0.00516665
983.385	0.00499817
983.548	0.00508108
983.71	0.00534843
983.872	0.00533264
984.034	0.00559595
984.197	0.00615527
984.359	0.0062701
984.521	0.00662033
984.683	0.00660292
984.845	0.006665
985.008	0.00747328
985.17	0.00770116
985.332	0.0068629
985.494	0.00656171
985.656	0.00620616
985.818	0.00592638
985.98	0.00584159
986.142	0.00551016
986.304	0.00581989
986.466	0.00600545
986.628	0.00620285
986.79	0.00685173
986.952	0.00683385
987.113	0.00699388
987.275	0.00675666
987.437	0.00645495
987.599	0.0060094
987.761	0.00613378
987.922	0.00600177
988.084	0.00638437
988.246	0.00609393
988.408	0.00586258
988.569	0.00578236
988.731	0.00571428
988.893	0.00581999
989.054	0.0055479
989.216	0.00556954
989.377	0.00576898
989.539	0.00572959
989.701	0.00514538
989.862	0.00482916
990.024	0.00471323
990.185	0.00422727
990.347	0.00456423
990.508	0.00409353
990.669	0.00421803
990.831	0.0049432
990.992	0.00528881
991.154	0.00446735
991.315	0.00512317
991.476	0.0041309
991.638	0.00406532
991.799	0.00417084
991.96	0.00423386
992.121	0.00426065
992.283	0.00485636
992.444	0.00506874
992.605	0.00563622
992.766	0.00630557
992.927	0.00645569
993.088	0.00573928
993.249	0.00548394
993.41	0.00557012
993.572	0.00590299
993.733	0.0060581
993.894	0.00546406
994.055	0.00553395
994.216	0.00661879
994.376	0.00742137
994.537	0.00750105
994.698	0.00638087
994.859	0.0066345
995.02	0.00668007
995.181	0.00646767
995.342	0.00550253
995.503	0.00555614
995.663	0.00602648
995.824	0.00645261
995.985	0.00614213
996.146	0.00595149
996.306	0.00624904
996.467	0.00626024
996.628	0.00573357
996.788	0.00552419
996.949	0.00560434
997.11	0.0051579
997.27	0.0053614
997.431	0.00583394
997.591	0.00645902
997.752	0.00613769
997.912	0.00562334
998.073	0.00606161
998.233	0.00603431
998.394	0.00628892
998.554	0.00602683
998.714	0.00582419
998.875	0.00665186
999.035	0.00721685
999.196	0.00653487
999.356	0.00682417
999.516	0.00655341
999.676	0.00567218
999.837	0.00525278
999.997	0.00459074
1000.157	0.00365549
1000.317	0.00388835
1000.477	0.00405989
1000.638	0.0042547
1000.798	0.00507588
1000.958	0.00465402
1001.118	0.0054297
1001.278	0.00539225
1001.438	0.00527371
1001.598	0.00537941
1001.758	0.00617266
1001.918	0.00560394
1002.078	0.00646063
1002.238	0.00623262
1002.398	0.00761232
1002.558	0.00707058
1002.718	0.00646583
1002.878	0.00648435
1003.037	0.00716139
1003.197	0.00783881
1003.357	0.00772314
1003.517	0.00769337
1003.677	0.00772624
1003.836	0.00806253
1003.996	0.00750066
1004.156	0.00780961
1004.315	0.00775557
1004.475	0.00810823
1004.635	0.00696913
1004.794	0.00766713
1004.954	0.00793859
1005.114	0.00715727
1005.273	0.00621663
1005.433	0.00487999
1005.592	0.00488144
1005.752	0.00581967
1005.911	0.00584486
1006.071	0.00621883
1006.23	0.00617381
1006.389	0.00616733
1006.549	0.00637206
1006.708	0.00635569
1006.868	0.00611105
1007.027	0.00590775
1007.186	0.00563381
1007.345	0.00659333
1007.505	0.00668725
1007.664	0.00646013
1007.823	0.00597275
1007.982	0.00689402
1008.142	0.0071893
1008.301	0.00607673
1008.46	0.00656154
1008.619	0.00545894
1008.778	0.00569544
1008.937	0.00526714
1009.096	0.00381613
1009.255	0.0040662
1009.414	0.00568778
1009.573	0.00472404
1009.732	0.00586916
1009.891	0.00639149
1010.05	0.00640228
1010.209	0.00769089
1010.368	0.00742801
1010.527	0.00541801
1010.686	0.00629807
1010.845	0.00634568
1011.003	0.00642637
1011.162	0.00735538
1011.321	0.00709577
1011.48	0.0071448
1011.638	0.00867634
1011.797	0.00799626
1011.956	0.00844713
1012.115	0.00761565
1012.273	0.00715205
1012.432	0.00720364
1012.59	0.00676259
1012.749	0.00668528
1012.908	0.00636291
1013.066	0.00492633
1013.225	0.00607744
1013.383	0.00686943
1013.542	0.0072699
1013.7	0.00903087
1013.859	0.00988668
1014.017	0.01116482
1014.175	0.01120667
1014.334	0.01175828
1014.492	0.01217551
1014.65	0.01119948
1014.809	0.00944319
1014.967	0.01019699
1015.125	0.01022614
1015.284	0.01120532
1015.442	0.01215813
1015.6	0.01272528
1015.758	0.01362605
1015.916	0.01381835
1016.075	0.01286822
1016.233	0.01203348
1016.391	0.01321133
1016.549	0.01215116
1016.707	0.01296439
1016.865	0.01387389
1017.023	0.01475196
1017.181	0.01394515
1017.339	0.01437401
1017.497	0.01315088
1017.655	0.01184767
1017.813	0.00845547
1017.971	0.00732652
1018.129	0.00634973
1018.286	0.00639368
1018.444	0.00685764
1018.602	0.00595282
1018.76	0.00605392
1018.918	0.0080099
1019.075	0.0078081
1019.233	0.00808234
1019.391	0.00973702
1019.549	0.01085851
1019.706	0.01318535
1019.864	0.01667635
1020.022	0.0165305
1020.179	0.01775998
1020.337	0.01816817
1020.494	0.01610466
1020.652	0.01663997
1020.809	0.01686981
1020.967	0.01588024
1021.124	0.01588967
1021.282	0.01580309
1021.439	0.01695726
1021.597	0.01895734
1021.754	0.01592841
1021.911	0.01458294
1022.069	0.011652
1022.226	0.01046796
1022.384	0.0119078
1022.541	0.01296379
1022.698	0.01100418
1022.855	0.01310395
1023.013	0.01335593
1023.17	0.01689052
1023.327	0.01731499
1023.484	0.01695834
1023.641	0.01606254
1023.798	0.0180953
1023.956	0.02070986
1024.113	0.01958653
1024.27	0.0175866
1024.427	0.01713615
1024.584	0.01660173
1024.741	0.01487066
1024.898	0.01551989
1025.055	0.01218519
1025.212	0.01333823
1025.369	0.01437931
1025.525	0.01504958
1025.682	0.01560833
1025.839	0.01826824
1025.996	0.01691483
1026.153	0.01921606
1026.31	0.02035703
1026.466	0.01651456
1026.623	0.01697627
1026.78	0.01758
1026.937	0.01420246
1027.093	0.01670228
1027.25	0.01497268
1027.407	0.01477074
1027.563	0.01859742
1027.72	0.02006817
1027.876	0.02058509
1028.033	0.02130455
1028.19	0.02108946
1028.346	0.01544501
1028.503	0.01735347
1028.659	0.01450347
1028.816	0.0126279
1028.972	0.00954473
1029.128	0.00874059
1029.285	0.00780752
1029.441	0.01246392
1029.598	0.00949264
1029.754	0.01280122
1029.91	0.01574027
1030.067	0.017605
1030.223	0.01703278
1030.379	0.01958651
1030.535	0.01898951
1030.691	0.02194159
1030.848	0.02771307
1031.004	0.03662016
1031.16	0.03494599
1031.316	0.03624952
1031.472	0.03314815
1031.628	0.03586916
1031.784	0.03201028
1031.94	0.02765957
1032.096	0.0133244
1032.252	0.01637753
1032.408	0.01987179
1032.564	0.02315375
1032.72	0.02540337
1032.876	0.02551091
1033.032	0.02478607
1033.188	0.02578515
1033.344	0.01892241
1033.5	0.01281215
1033.655	0.00770464
1033.811	0.0013146
1033.967	0.00123384
