Data from 0_1_mm_pl_80pc_Absorbance__0__18-32-38-566.txt Node

Date: Wed Mar 01 18:32:38 CET 2023
User: Ange
Spectrometer: FLMT08341
Trigger mode: 0
Integration Time (sec): 1.000000E-2
Scans to average: 400
Electric dark correction enabled: true
Nonlinearity correction enabled: false
Boxcar width: 3
XAxis mode: Wavelengths
Number of Pixels in Spectrum: 3648
>>>>>Begin Spectral Data<<<<<
345.271	-0.00790674
345.487	0.00376506
345.704	0.01215563
345.921	0.01627327
346.137	0.00714182
346.354	0.01137364
346.571	0.02810779
346.787	-0.04799155
347.004	0.10689343
347.22	0.11245911
347.437	0.17882548
347.653	-0.05991461
347.87	-0.03617965
348.086	0.0890751
348.303	-1.03640349
348.519	0.06157279
348.736	0.04331795
348.952	0.03905257
349.169	0.03364972
349.385	0.03888281
349.601	0.03692753
349.818	0.03666361
350.034	0.03801899
350.251	0.03790087
350.467	0.03861922
350.683	0.04000004
350.9	0.03856196
351.116	0.03995016
351.332	0.0382481
351.549	0.03603581
351.765	0.03717762
351.981	0.03743885
352.197	0.03725962
352.414	0.03782999
352.63	0.03813823
352.846	0.03817989
353.062	0.04032123
353.278	0.03921448
353.495	0.03816209
353.711	0.03779134
353.927	0.0381747
354.143	0.03732757
354.359	0.03660285
354.575	0.03443283
354.792	0.03634649
355.008	0.03701463
355.224	0.03667341
355.44	0.03462453
355.656	0.03375054
355.872	0.03488959
356.088	0.03690789
356.304	0.03396536
356.52	0.0340696
356.736	0.03489298
356.952	0.03590054
357.168	0.03642929
357.384	0.03791309
357.6	0.03591916
357.816	0.03745196
358.032	0.03689526
358.248	0.03637202
358.464	0.03582491
358.679	0.03403806
358.895	0.03403469
359.111	0.03598052
359.327	0.03515877
359.543	0.03659454
359.759	0.03760436
359.974	0.03775614
360.19	0.0384106
360.406	0.03762311
360.622	0.03629767
360.838	0.03521327
361.053	0.03383312
361.269	0.03331597
361.485	0.03396431
361.701	0.03462107
361.916	0.03316767
362.132	0.03197054
362.348	0.03456018
362.563	0.03476059
362.779	0.03366158
362.995	0.03315662
363.21	0.03311139
363.426	0.03379019
363.641	0.03435313
363.857	0.03227424
364.073	0.03148597
364.288	0.03221219
364.504	0.0326397
364.719	0.03274033
364.935	0.03214318
365.15	0.03139354
365.366	0.03187997
365.581	0.03203046
365.797	0.03191917
366.012	0.03092387
366.228	0.02994322
366.443	0.02910522
366.658	0.03027783
366.874	0.03018322
367.089	0.03006461
367.305	0.02926042
367.52	0.02928239
367.735	0.02936605
367.951	0.02980542
368.166	0.02963495
368.381	0.02901152
368.597	0.02930787
368.812	0.03015375
369.027	0.03105604
369.243	0.03108383
369.458	0.03132336
369.673	0.03192493
369.888	0.03207088
370.104	0.03215999
370.319	0.03157345
370.534	0.03015021
370.749	0.03010496
370.964	0.03098635
371.179	0.03059942
371.395	0.03041312
371.61	0.02995981
371.825	0.03069666
372.04	0.03105332
372.255	0.03079005
372.47	0.02936819
372.685	0.02912763
372.9	0.02950434
373.115	0.02995138
373.33	0.0293242
373.545	0.02979059
373.76	0.02988692
373.975	0.03036146
374.19	0.02939367
374.405	0.02963936
374.62	0.02940496
374.835	0.02944859
375.05	0.02876417
375.265	0.029434
375.48	0.02905357
375.695	0.03019574
375.91	0.03069781
376.125	0.03112967
376.339	0.03152254
376.554	0.03208867
376.769	0.03211815
376.984	0.03250505
377.199	0.03243924
377.414	0.03190257
377.628	0.03213394
377.843	0.03227337
378.058	0.0321574
378.273	0.03126746
378.487	0.03112422
378.702	0.03109684
378.917	0.03111329
379.131	0.02993307
379.346	0.02886382
379.561	0.02872333
379.775	0.02880637
379.99	0.02865981
380.205	0.02800863
380.419	0.02763067
380.634	0.02751949
380.848	0.02785563
381.063	0.02804188
381.278	0.02800155
381.492	0.02823528
381.707	0.02895974
381.921	0.02868258
382.136	0.02964984
382.35	0.02997857
382.565	0.02998089
382.779	0.03028948
382.994	0.03039424
383.208	0.03039759
383.422	0.03064772
383.637	0.03022717
383.851	0.03060555
384.066	0.03095985
384.28	0.03083356
384.494	0.03049448
384.709	0.03045914
384.923	0.03086829
385.137	0.03118489
385.352	0.0304213
385.566	0.02955821
385.78	0.02976286
385.995	0.02967092
386.209	0.02924916
386.423	0.02914469
386.637	0.02889793
386.852	0.02889403
387.066	0.02950146
387.28	0.02932161
387.494	0.02964605
387.708	0.03000292
387.923	0.02993516
388.137	0.03009672
388.351	0.03045491
388.565	0.03023549
388.779	0.03034707
388.993	0.03077111
389.207	0.03101814
389.421	0.03105907
389.635	0.03091831
389.85	0.03095998
390.064	0.03082681
390.278	0.03078486
390.492	0.03060079
390.706	0.03030739
390.92	0.03004403
391.134	0.03021179
391.348	0.0302274
391.561	0.03025663
391.775	0.0304939
391.989	0.03028112
392.203	0.03042198
392.417	0.03044869
392.631	0.03065092
392.845	0.03063204
393.059	0.03155384
393.273	0.03156425
393.486	0.03174257
393.7	0.03205086
393.914	0.03219237
394.128	0.0319982
394.342	0.03211281
394.555	0.03163081
394.769	0.03178401
394.983	0.03186406
395.197	0.03171566
395.41	0.03175833
395.624	0.03149382
395.838	0.03131199
396.051	0.03138457
396.265	0.03125573
396.479	0.03117485
396.692	0.03137034
396.906	0.03148185
397.12	0.03155654
397.333	0.03147278
397.547	0.03136518
397.76	0.03088244
397.974	0.030871
398.187	0.03049231
398.401	0.03042412
398.614	0.03053497
398.828	0.03046813
399.041	0.03032098
399.255	0.0305431
399.468	0.03049748
399.682	0.03079203
399.895	0.03114966
400.109	0.0311536
400.322	0.0315267
400.536	0.03147747
400.749	0.03165921
400.962	0.03190668
401.176	0.03163748
401.389	0.03126668
401.602	0.03130985
401.816	0.03111655
402.029	0.03119422
402.242	0.03115439
402.456	0.03112749
402.669	0.03107875
402.882	0.03127501
403.095	0.0312683
403.309	0.03123408
403.522	0.03135603
403.735	0.03143708
403.948	0.03140852
404.161	0.0315707
404.375	0.03155093
404.588	0.03164106
404.801	0.03140321
405.014	0.03145647
405.227	0.03150599
405.44	0.03138681
405.653	0.03139282
405.866	0.03131937
406.079	0.03134488
406.293	0.03151423
406.506	0.03119147
406.719	0.03102137
406.932	0.03083092
407.145	0.03074675
407.358	0.03073118
407.571	0.03040492
407.784	0.0305165
407.996	0.03068394
408.209	0.03058596
408.422	0.03075949
408.635	0.03098774
408.848	0.03076423
409.061	0.03111212
409.274	0.03121472
409.487	0.03087275
409.7	0.0308822
409.912	0.03061089
410.125	0.03035612
410.338	0.03050783
410.551	0.03020095
410.764	0.02990119
410.976	0.03014034
411.189	0.0301918
411.402	0.0303519
411.615	0.03037594
411.827	0.03029463
412.04	0.03039214
412.253	0.03066033
412.465	0.03072839
412.678	0.03065587
412.891	0.03055718
413.103	0.03050434
413.316	0.03025557
413.529	0.03002638
413.741	0.02979166
413.954	0.02966303
414.166	0.02967172
414.379	0.02989557
414.591	0.02981353
414.804	0.02978205
415.016	0.02986112
415.229	0.02968785
415.441	0.02959849
415.654	0.02964512
415.866	0.02942224
416.079	0.02916301
416.291	0.02924675
416.504	0.02924136
416.716	0.02923985
416.928	0.02917898
417.141	0.02894975
417.353	0.02897551
417.566	0.02899366
417.778	0.02874326
417.99	0.02838704
418.203	0.0281858
418.415	0.02831587
418.627	0.02815304
418.839	0.02787976
419.052	0.02804933
419.264	0.02827306
419.476	0.02845069
419.688	0.02880482
419.901	0.02869164
420.113	0.02870646
420.325	0.02880649
420.537	0.02861887
420.749	0.02833121
420.961	0.02822743
421.174	0.0281167
421.386	0.02785784
421.598	0.02803676
421.81	0.02788046
422.022	0.02762485
422.234	0.0276228
422.446	0.02744831
422.658	0.02716601
422.87	0.02697314
423.082	0.02665933
423.294	0.02659441
423.506	0.02645901
423.718	0.02629447
423.93	0.02618744
424.142	0.02617524
424.354	0.02626457
424.566	0.02608944
424.778	0.02591733
424.99	0.02604337
425.202	0.02609705
425.414	0.02622098
425.625	0.02609889
425.837	0.02608195
426.049	0.02617658
426.261	0.0261015
426.473	0.02605572
426.684	0.02589589
426.896	0.02553166
427.108	0.0254291
427.32	0.02526871
427.531	0.02517963
427.743	0.02513697
427.955	0.02495334
428.167	0.024796
428.378	0.02495595
428.59	0.02489987
428.802	0.02479873
429.013	0.02466101
429.225	0.02447992
429.436	0.0244223
429.648	0.02440851
429.86	0.02407468
430.071	0.02384716
430.283	0.02367732
430.494	0.0234401
430.706	0.02354565
430.917	0.02319641
431.129	0.02302238
431.34	0.02306748
431.552	0.02304375
431.763	0.02306727
431.975	0.02330178
432.186	0.02300129
432.398	0.02317906
432.609	0.02320596
432.821	0.02309735
433.032	0.02307121
433.243	0.02292071
433.455	0.02264687
433.666	0.02267332
433.877	0.02259794
434.089	0.02243866
434.3	0.02235035
434.511	0.02215288
434.723	0.02214172
434.934	0.02200179
435.145	0.02195242
435.356	0.02179465
435.568	0.02168379
435.779	0.02166433
435.99	0.02161362
436.201	0.02157144
436.412	0.02144212
436.624	0.02120241
436.835	0.02102885
437.046	0.0209717
437.257	0.02079161
437.468	0.02061104
437.679	0.02023104
437.89	0.02016527
438.101	0.02011845
438.312	0.01993989
438.523	0.01979347
438.734	0.01964666
438.945	0.01944555
439.156	0.01948711
439.367	0.01927657
439.578	0.01912375
439.789	0.0192418
440	0.01912611
440.211	0.01898698
440.422	0.01898618
440.633	0.01888759
440.844	0.01883192
441.055	0.01866455
441.266	0.01858871
441.477	0.01852289
441.687	0.01837859
441.898	0.01836227
442.109	0.01818763
442.32	0.01808761
442.531	0.01794578
442.741	0.01747897
442.952	0.01739182
443.163	0.01727891
443.374	0.01707819
443.584	0.01693354
443.795	0.01679588
444.006	0.01668497
444.216	0.0167336
444.427	0.01662929
444.638	0.01644719
444.848	0.01631231
445.059	0.01622861
445.27	0.01610932
445.48	0.01601514
445.691	0.01589793
445.901	0.01567448
446.112	0.01563483
446.323	0.01558264
446.533	0.01540251
446.744	0.01524497
446.954	0.01528631
447.165	0.01532179
447.375	0.0153158
447.586	0.01525939
447.796	0.0151545
448.006	0.01511153
448.217	0.01502218
448.427	0.01474682
448.638	0.01448269
448.848	0.01417239
449.058	0.01398901
449.269	0.01379655
449.479	0.01371223
449.689	0.01369422
449.9	0.01386652
450.11	0.01377311
450.32	0.01374461
450.531	0.01367529
450.741	0.01349768
450.951	0.013337
451.161	0.01310967
451.372	0.01269882
451.582	0.01277314
451.792	0.01285624
452.002	0.01280307
452.212	0.01276227
452.422	0.01277252
452.633	0.01284979
452.843	0.01298653
453.053	0.01272807
453.263	0.01260763
453.473	0.01247572
453.683	0.01248463
453.893	0.01222628
454.103	0.01205176
454.313	0.01188549
454.523	0.01187207
454.733	0.0116718
454.943	0.01160941
455.153	0.01153235
455.363	0.01142596
455.573	0.01121691
455.783	0.01120078
455.993	0.0110936
456.203	0.01102914
456.413	0.01095764
456.623	0.01075499
456.833	0.01086252
457.042	0.01091445
457.252	0.01078014
457.462	0.01073355
457.672	0.01063461
457.882	0.01062363
458.091	0.0106687
458.301	0.01049556
458.511	0.01036868
458.721	0.01020755
458.931	0.01019248
459.14	0.0101271
459.35	0.00988369
459.56	0.00978321
459.769	0.00972869
459.979	0.00976709
460.189	0.00981332
460.398	0.00957448
460.608	0.00947361
460.817	0.00951152
461.027	0.00923952
461.237	0.0091082
461.446	0.00897221
461.656	0.00881153
461.865	0.00877599
462.075	0.00878506
462.284	0.00871358
462.494	0.00881776
462.703	0.00878653
462.913	0.00854733
463.122	0.00851564
463.332	0.00839884
463.541	0.0083006
463.751	0.00827856
463.96	0.00829518
464.169	0.00830706
464.379	0.00850723
464.588	0.00840972
464.797	0.00850585
465.007	0.00846768
465.216	0.00844926
465.425	0.00829445
465.635	0.00822696
465.844	0.00799768
466.053	0.00785622
466.263	0.00777689
466.472	0.00777216
466.681	0.00766824
466.89	0.00763679
467.099	0.00749986
467.309	0.00757157
467.518	0.00755506
467.727	0.00743568
467.936	0.00729936
468.145	0.00718809
468.354	0.00723295
468.563	0.00720007
468.772	0.00714762
468.982	0.00723442
469.191	0.00719746
469.4	0.00718982
469.609	0.00727322
469.818	0.00713864
470.027	0.00713987
470.236	0.00702439
470.445	0.00696766
470.654	0.00692554
470.863	0.00684506
471.072	0.006775
471.28	0.00669223
471.489	0.00665635
471.698	0.00662674
471.907	0.00644597
472.116	0.00648026
472.325	0.00639527
472.534	0.00628325
472.743	0.00628025
472.951	0.00630613
473.16	0.00629458
473.369	0.00644476
473.578	0.00629013
473.786	0.00640416
473.995	0.006394
474.204	0.00640342
474.413	0.00633786
474.621	0.00631534
474.83	0.00623616
475.039	0.00627272
475.247	0.00617537
475.456	0.00612111
475.665	0.00608565
475.873	0.006068
476.082	0.00605137
476.291	0.00608765
476.499	0.00612353
476.708	0.00618554
476.916	0.00620705
477.125	0.00618427
477.333	0.00621858
477.542	0.00622801
477.75	0.00605911
477.959	0.00594003
478.167	0.00581313
478.376	0.00574069
478.584	0.00576836
478.793	0.00574321
479.001	0.00567281
479.209	0.00575264
479.418	0.0057942
479.626	0.00582704
479.834	0.00586534
480.043	0.00576087
480.251	0.00574282
480.459	0.00574661
480.668	0.00566871
480.876	0.00563572
481.084	0.00549695
481.293	0.00552917
481.501	0.00556915
481.709	0.00543939
481.917	0.00544196
482.125	0.00549656
482.334	0.00553019
482.542	0.00567282
482.75	0.00557382
482.958	0.00556911
483.166	0.00560622
483.374	0.00560027
483.583	0.00562284
483.791	0.00554077
483.999	0.00553698
484.207	0.00560062
484.415	0.00561567
484.623	0.0055938
484.831	0.00557951
485.039	0.00549927
485.247	0.0055423
485.455	0.00552858
485.663	0.00547677
485.871	0.0054387
486.079	0.00555052
486.287	0.00556102
486.495	0.00563393
486.702	0.0056577
486.91	0.00571653
487.118	0.00579711
487.326	0.00585101
487.534	0.0058457
487.742	0.00587866
487.95	0.00578089
488.157	0.00577154
488.365	0.00576516
488.573	0.00578045
488.781	0.00580822
488.988	0.00575846
489.196	0.00587575
489.404	0.00597736
489.612	0.00603896
489.819	0.00603634
490.027	0.00602628
490.235	0.00602207
490.442	0.00608473
490.65	0.00602476
490.857	0.00600605
491.065	0.00596172
491.273	0.00594719
491.48	0.00591291
491.688	0.005922
491.895	0.0059476
492.103	0.00589553
492.31	0.00598001
492.518	0.00606736
492.725	0.00610853
492.933	0.00617174
493.14	0.00615574
493.348	0.00612908
493.555	0.00622371
493.763	0.00616411
493.97	0.00616928
494.177	0.00618292
494.385	0.00623927
494.592	0.00624512
494.8	0.00625882
495.007	0.00622144
495.214	0.00623642
495.422	0.00624651
495.629	0.00624904
495.836	0.00623765
496.043	0.00632762
496.251	0.00642136
496.458	0.00646766
496.665	0.00654781
496.872	0.00656549
497.08	0.00659377
497.287	0.00664842
497.494	0.00667981
497.701	0.00670515
497.908	0.00676251
498.115	0.0068299
498.322	0.00687263
498.53	0.00695069
498.737	0.00699337
498.944	0.00699674
499.151	0.00700529
499.358	0.00703405
499.565	0.00703256
499.772	0.00710892
499.979	0.00712732
500.186	0.00711725
500.393	0.00717116
500.6	0.00719124
500.807	0.00723951
501.014	0.00727875
501.221	0.00725747
501.427	0.0072426
501.634	0.00733265
501.841	0.00738009
502.048	0.00742752
502.255	0.0074705
502.462	0.00753131
502.669	0.00756228
502.875	0.00770244
503.082	0.00768933
503.289	0.00772436
503.496	0.00774187
503.702	0.00777801
503.909	0.00781961
504.116	0.00788828
504.323	0.00787242
504.529	0.00792697
504.736	0.00794118
504.943	0.00803281
505.149	0.00806421
505.356	0.00806315
505.563	0.00814053
505.769	0.00820158
505.976	0.00829093
506.182	0.00842573
506.389	0.00844577
506.595	0.00849193
506.802	0.00857802
507.008	0.00856222
507.215	0.00857922
507.421	0.00857625
507.628	0.0085719
507.834	0.00860513
508.041	0.0086267
508.247	0.00863634
508.454	0.00871534
508.66	0.0087941
508.866	0.00886379
509.073	0.00891585
509.279	0.00896996
509.486	0.00901722
509.692	0.00905301
509.898	0.00908389
510.105	0.00915395
510.311	0.0091862
510.517	0.00926227
510.723	0.00932029
510.93	0.00939813
511.136	0.00954942
511.342	0.0096603
511.548	0.00968424
511.754	0.00973604
511.961	0.00974303
512.167	0.00979808
512.373	0.00989438
512.579	0.00990992
512.785	0.00994641
512.991	0.01001087
513.197	0.01008611
513.404	0.01021351
513.61	0.01032023
513.816	0.0103755
514.022	0.01046246
514.228	0.01051919
514.434	0.01056505
514.64	0.01062686
514.846	0.01063921
515.052	0.01069357
515.258	0.01069689
515.464	0.01073142
515.669	0.01078667
515.875	0.01084613
516.081	0.01093068
516.287	0.01103254
516.493	0.01105859
516.699	0.01116497
516.905	0.01117722
517.111	0.0113129
517.316	0.01138752
517.522	0.01147178
517.728	0.01151469
517.934	0.01158643
518.139	0.01167223
518.345	0.01178615
518.551	0.01182465
518.757	0.0119226
518.962	0.01193587
519.168	0.01206586
519.374	0.01217533
519.579	0.01221748
519.785	0.01235573
519.991	0.0123644
520.196	0.01241093
520.402	0.01255184
520.607	0.01255326
520.813	0.01262347
521.018	0.01273531
521.224	0.01278458
521.429	0.01292072
521.635	0.01299592
521.84	0.01303295
522.046	0.01315616
522.251	0.01323711
522.457	0.01331435
522.662	0.01337816
522.868	0.01343979
523.073	0.01353904
523.279	0.01364684
523.484	0.01368583
523.689	0.01375874
523.895	0.01379878
524.1	0.01384883
524.305	0.01392789
524.511	0.01403884
524.716	0.01411203
524.921	0.01420271
525.126	0.01432066
525.332	0.01445321
525.537	0.01460001
525.742	0.01474672
525.947	0.01482438
526.153	0.01490441
526.358	0.01500008
526.563	0.01507522
526.768	0.01510562
526.973	0.01515984
527.178	0.01521377
527.383	0.01528692
527.588	0.01542825
527.794	0.01555019
527.999	0.01568107
528.204	0.01581972
528.409	0.01593467
528.614	0.01603638
528.819	0.01618159
529.024	0.01622689
529.229	0.01629592
529.434	0.01638622
529.639	0.01651473
529.843	0.01660601
530.048	0.01672943
530.253	0.01677122
530.458	0.01688196
530.663	0.01699662
530.868	0.01706331
531.073	0.01718391
531.278	0.01730876
531.482	0.01738439
531.687	0.01752023
531.892	0.01763747
532.097	0.0177537
532.302	0.0178571
532.506	0.01794005
532.711	0.01803738
532.916	0.01816996
533.12	0.01832153
533.325	0.01842131
533.53	0.01850544
533.734	0.01862303
533.939	0.01871655
534.144	0.01882972
534.348	0.01890979
534.553	0.01899363
534.757	0.01912165
534.962	0.0192703
535.167	0.01940407
535.371	0.01956779
535.576	0.01969228
535.78	0.01983274
535.985	0.01996994
536.189	0.02006944
536.394	0.02018401
536.598	0.02029629
536.803	0.02036842
537.007	0.02049449
537.211	0.02057685
537.416	0.02069447
537.62	0.02084901
537.825	0.02094695
538.029	0.02103825
538.233	0.02119117
538.438	0.02129204
538.642	0.02141171
538.846	0.0214885
539.05	0.02161278
539.255	0.02172069
539.459	0.02186429
539.663	0.02199675
539.867	0.0221336
540.072	0.02232884
540.276	0.02246472
540.48	0.02259135
540.684	0.0227504
540.888	0.02286451
541.092	0.02295755
541.297	0.0230289
541.501	0.02313004
541.705	0.0233183
541.909	0.02345642
542.113	0.02356597
542.317	0.02375354
542.521	0.02389896
542.725	0.02409915
542.929	0.02425871
543.133	0.02438829
543.337	0.02454044
543.541	0.02471852
543.745	0.024828
543.949	0.02496513
544.153	0.02510804
544.357	0.02520725
544.56	0.02535718
544.764	0.0254859
544.968	0.02562805
545.172	0.02577707
545.376	0.0259298
545.58	0.02608258
545.783	0.02623287
545.987	0.02637272
546.191	0.02653041
546.395	0.02672411
546.598	0.02690748
546.802	0.02707783
547.006	0.02725294
547.21	0.02740902
547.413	0.02757533
547.617	0.0277016
547.821	0.02781578
548.024	0.02794985
548.228	0.02810836
548.431	0.02824571
548.635	0.02843911
548.839	0.02858265
549.042	0.02877167
549.246	0.02894028
549.449	0.02911893
549.653	0.02927214
549.856	0.02940807
550.06	0.02952314
550.263	0.02967815
550.467	0.02984967
550.67	0.02998321
550.874	0.03013842
551.077	0.03029132
551.28	0.03049467
551.484	0.03066184
551.687	0.03085098
551.891	0.03101891
552.094	0.03120994
552.297	0.03135773
552.501	0.03154916
552.704	0.03167688
552.907	0.0318494
553.11	0.03198486
553.314	0.03212949
553.517	0.03233207
553.72	0.03252233
553.923	0.03269858
554.127	0.03291547
554.33	0.03310461
554.533	0.03332672
554.736	0.03346865
554.939	0.03363589
555.142	0.03381433
555.345	0.03398588
555.549	0.03408691
555.752	0.03429508
555.955	0.03441737
556.158	0.03466654
556.361	0.03481785
556.564	0.03499452
556.767	0.03517732
556.97	0.03541227
557.173	0.03557807
557.376	0.03576539
557.579	0.03591552
557.782	0.03612249
557.984	0.03632604
558.187	0.03649905
558.39	0.03667196
558.593	0.03685526
558.796	0.03707834
558.999	0.03731408
559.202	0.03748683
559.404	0.03765631
559.607	0.03785227
559.81	0.0380494
560.013	0.03825471
560.216	0.03842808
560.418	0.03859886
560.621	0.03879587
560.824	0.03899325
561.026	0.0391901
561.229	0.03945079
561.432	0.0396787
561.634	0.03990851
561.837	0.04009357
562.04	0.04029864
562.242	0.04050204
562.445	0.04068579
562.647	0.04083973
562.85	0.04099173
563.053	0.04115673
563.255	0.04137558
563.458	0.04158417
563.66	0.04177935
563.863	0.04199863
564.065	0.042145
564.268	0.04235829
564.47	0.04256737
564.672	0.0427643
564.875	0.04297828
565.077	0.04323644
565.28	0.04345401
565.482	0.04374655
565.684	0.04391697
565.887	0.04413623
566.089	0.04435858
566.291	0.04457614
566.494	0.04476597
566.696	0.04500133
566.898	0.04521849
567.1	0.04546666
567.303	0.0456773
567.505	0.04589556
567.707	0.046062
567.909	0.04629076
568.111	0.04651611
568.314	0.04671609
568.516	0.04693763
568.718	0.04716667
568.92	0.04736184
569.122	0.04760988
569.324	0.04782412
569.526	0.04799476
569.728	0.04822196
569.93	0.04842835
570.132	0.04864284
570.334	0.0488514
570.536	0.04908528
570.738	0.04926546
570.94	0.04943539
571.142	0.04963317
571.344	0.04983711
571.546	0.05002675
571.748	0.05028135
571.95	0.05045089
572.152	0.05067947
572.354	0.05096768
572.555	0.05121211
572.757	0.05144181
572.959	0.05167336
573.161	0.05187543
573.363	0.05208692
573.564	0.05237303
573.766	0.05259106
573.968	0.05281658
574.17	0.0530861
574.371	0.05329129
574.573	0.05346877
574.775	0.05374186
574.976	0.05390453
575.178	0.05411851
575.38	0.05437033
575.581	0.05459078
575.783	0.05487207
575.985	0.05516438
576.186	0.05541913
576.388	0.05570563
576.589	0.05591152
576.791	0.05616203
576.992	0.05640313
577.194	0.05663321
577.395	0.05688576
577.597	0.05707211
577.798	0.05726794
578	0.05752057
578.201	0.0577117
578.402	0.05796548
578.604	0.05818271
578.805	0.05838823
579.007	0.05866146
579.208	0.05890719
579.409	0.05917299
579.611	0.05939397
579.812	0.05958677
580.013	0.05984374
580.215	0.06005482
580.416	0.06029754
580.617	0.06048101
580.818	0.0606815
581.019	0.06091071
581.221	0.06113174
581.422	0.06135574
581.623	0.06161436
581.824	0.0617974
582.025	0.06206321
582.226	0.06234452
582.428	0.06264042
582.629	0.06290855
582.83	0.06316318
583.031	0.06341291
583.232	0.06365175
583.433	0.06390926
583.634	0.06412144
583.835	0.0643311
584.036	0.06455866
584.237	0.06476474
584.438	0.06500713
584.639	0.06525622
584.84	0.06551816
585.041	0.06576123
585.242	0.06598715
585.442	0.06624664
585.643	0.06653131
585.844	0.06676693
586.045	0.06702907
586.246	0.06719572
586.447	0.067395
586.647	0.06757151
586.848	0.06778656
587.049	0.0679829
587.25	0.0681898
587.45	0.0684164
587.651	0.06867384
587.852	0.06892824
588.053	0.06924775
588.253	0.06951906
588.454	0.06979748
588.655	0.07006278
588.855	0.07027136
589.056	0.07050761
589.256	0.07078609
589.457	0.07104402
589.658	0.07128568
589.858	0.07149879
590.059	0.07176615
590.259	0.0720309
590.46	0.07227968
590.66	0.07247868
590.861	0.07267168
591.061	0.07286362
591.262	0.07313768
591.462	0.07332446
591.662	0.07357568
591.863	0.07380467
592.063	0.07404487
592.264	0.0742904
592.464	0.07449804
592.664	0.07466162
592.865	0.07492827
593.065	0.07513335
593.265	0.07539872
593.465	0.07560171
593.666	0.07585166
593.866	0.07612619
594.066	0.07642873
594.266	0.07661919
594.467	0.07687986
594.667	0.07709936
594.867	0.0773994
595.067	0.07758541
595.267	0.07780919
595.467	0.07799062
595.668	0.07824499
595.868	0.07847599
596.068	0.07873168
596.268	0.07893696
596.468	0.07919621
596.668	0.07943529
596.868	0.07970094
597.068	0.0799476
597.268	0.08020771
597.468	0.08039121
597.668	0.08066322
597.868	0.08088936
598.068	0.08115567
598.268	0.08136387
598.467	0.08161097
598.667	0.08177318
598.867	0.08201599
599.067	0.08219324
599.267	0.08241955
599.467	0.08261654
599.667	0.08285563
599.866	0.0830603
600.066	0.08328874
600.266	0.08348849
600.466	0.0837261
600.665	0.08393607
600.865	0.08416079
601.065	0.08433686
601.264	0.08453947
601.464	0.08474306
601.664	0.08497259
601.863	0.08517867
602.063	0.08540431
602.263	0.08555817
602.462	0.08578661
602.662	0.08598707
602.861	0.08624894
603.061	0.08643391
603.26	0.08662444
603.46	0.08679864
603.659	0.08702275
603.859	0.08718617
604.058	0.08739582
604.258	0.08762228
604.457	0.08786435
604.657	0.08806321
604.856	0.0882792
605.056	0.08853661
605.255	0.08877668
605.454	0.08899441
605.654	0.08914665
605.853	0.08936274
606.052	0.08960708
606.252	0.08983264
606.451	0.09003643
606.65	0.0902294
606.849	0.09038713
607.049	0.09060259
607.248	0.09077271
607.447	0.09091156
607.646	0.09109062
607.845	0.09126962
608.045	0.09146139
608.244	0.09169399
608.443	0.09186114
608.642	0.09208528
608.841	0.09227505
609.04	0.09242842
609.239	0.09259583
609.438	0.09275387
609.637	0.09293906
609.836	0.09312592
610.035	0.09330932
610.234	0.09356461
610.433	0.09374909
610.632	0.09395956
610.831	0.09425962
611.03	0.09445458
611.229	0.09473156
611.428	0.09490794
611.627	0.0951016
611.826	0.09542142
612.025	0.09569567
612.224	0.09587514
612.422	0.09611059
612.621	0.0962602
612.82	0.09648901
613.019	0.09666319
613.218	0.09683373
613.416	0.0969246
613.615	0.097155
613.814	0.0973423
614.012	0.09752295
614.211	0.09767505
614.41	0.09789305
614.608	0.09800914
614.807	0.09820053
615.006	0.09835117
615.204	0.09847219
615.403	0.09866047
615.602	0.09886783
615.8	0.09910495
615.999	0.09928904
616.197	0.09948673
616.396	0.09969215
616.594	0.09988656
616.793	0.10008838
616.991	0.10027096
617.19	0.10032009
617.388	0.10059256
617.586	0.10082533
617.785	0.10096023
617.983	0.10112537
618.182	0.10127733
618.38	0.10141362
618.578	0.10164031
618.777	0.10177257
618.975	0.10189236
619.173	0.10209691
619.372	0.1023301
619.57	0.10250258
619.768	0.10269892
619.966	0.10287034
620.165	0.10300329
620.363	0.10321655
620.561	0.10329137
620.759	0.10345206
620.957	0.10365458
621.155	0.10384024
621.354	0.10397322
621.552	0.10419883
621.75	0.10431933
621.948	0.10457307
622.146	0.10469931
622.344	0.1048556
622.542	0.10505076
622.74	0.10523586
622.938	0.10528611
623.136	0.10546956
623.334	0.10563433
623.532	0.10573521
623.73	0.10587166
623.928	0.10600939
624.126	0.10614986
624.324	0.10640422
624.522	0.10650947
624.719	0.10662755
624.917	0.10687656
625.115	0.10697402
625.313	0.10711295
625.511	0.10732201
625.708	0.1074009
625.906	0.10759274
626.104	0.10775093
626.302	0.10793521
626.499	0.10815104
626.697	0.10833732
626.895	0.10843249
627.093	0.10863766
627.29	0.10881116
627.488	0.10895869
627.686	0.1091125
627.883	0.10921781
628.081	0.10928747
628.278	0.10954619
628.476	0.10964503
628.673	0.10978254
628.871	0.1099151
629.068	0.11001224
629.266	0.11021284
629.463	0.11034539
629.661	0.11039571
629.858	0.11051767
630.056	0.110641
630.253	0.11077044
630.451	0.11093669
630.648	0.11102549
630.845	0.11120006
631.043	0.11135826
631.24	0.11155802
631.438	0.11169274
631.635	0.11184297
631.832	0.11194026
632.029	0.11215792
632.227	0.11232349
632.424	0.11247095
632.621	0.11259414
632.818	0.11273074
633.016	0.11291098
633.213	0.11302323
633.41	0.11313885
633.607	0.11322838
633.804	0.1133521
634.001	0.11341403
634.199	0.11355906
634.396	0.11366925
634.593	0.11379704
634.79	0.11390687
634.987	0.11408072
635.184	0.11422433
635.381	0.11448192
635.578	0.11466784
635.775	0.11477865
635.972	0.11496132
636.169	0.1151085
636.366	0.11517753
636.563	0.11529826
636.76	0.11535145
636.957	0.11541586
637.153	0.115523
637.35	0.11562227
637.547	0.11574781
637.744	0.11589384
637.941	0.11601314
638.138	0.11617353
638.334	0.11628473
638.531	0.1164551
638.728	0.11660213
638.925	0.11675772
639.121	0.11686338
639.318	0.11699149
639.515	0.11706515
639.711	0.11728572
639.908	0.11738064
640.105	0.11750049
640.301	0.11760058
640.498	0.11774042
640.695	0.11787621
640.891	0.11799837
641.088	0.11806491
641.284	0.1181587
641.481	0.11823155
641.677	0.11832001
641.874	0.11840252
642.07	0.11851389
642.267	0.11867943
642.463	0.11876245
642.66	0.11893367
642.856	0.11902486
643.053	0.11907622
643.249	0.11924084
643.445	0.11935435
643.642	0.11941976
643.838	0.11955043
644.034	0.11967931
644.231	0.11984912
644.427	0.12001768
644.623	0.12014336
644.82	0.12026575
645.016	0.12039138
645.212	0.12045025
645.408	0.12051613
645.604	0.12063647
645.801	0.12070788
645.997	0.12080397
646.193	0.12084074
646.389	0.12101507
646.585	0.12116612
646.781	0.12131302
646.977	0.12140346
647.173	0.12151826
647.37	0.12155201
647.566	0.12170386
647.762	0.12174159
647.958	0.12187347
648.154	0.12193277
648.35	0.12204062
648.546	0.12218684
648.742	0.12241159
648.937	0.12243651
649.133	0.12258013
649.329	0.12272123
649.525	0.1228517
649.721	0.12299062
649.917	0.12316451
650.113	0.12321661
650.309	0.12342345
650.504	0.12345029
650.7	0.12350597
650.896	0.12360442
651.092	0.12371186
651.287	0.12378251
651.483	0.12395032
651.679	0.12408439
651.875	0.12431706
652.07	0.12438428
652.266	0.12452752
652.462	0.12464411
652.657	0.12472427
652.853	0.12478809
653.048	0.12486421
653.244	0.12488621
653.44	0.12501737
653.635	0.12503148
653.831	0.12512232
654.026	0.12523472
654.222	0.12533943
654.417	0.12549354
654.613	0.12561062
654.808	0.12570324
655.004	0.1258576
655.199	0.12595919
655.394	0.12603659
655.59	0.12615288
655.785	0.12620942
655.98	0.12634651
656.176	0.12644494
656.371	0.12663987
656.566	0.12676771
656.762	0.12687802
656.957	0.12699253
657.152	0.12709162
657.348	0.12718359
657.543	0.12731188
657.738	0.12737223
657.933	0.12743091
658.128	0.12754658
658.324	0.12760747
658.519	0.12772651
658.714	0.12784529
658.909	0.12794216
659.104	0.12806956
659.299	0.1281526
659.494	0.12825231
659.689	0.12837063
659.884	0.12847602
660.079	0.12853558
660.274	0.12868194
660.469	0.12877216
660.664	0.12893651
660.859	0.12904755
661.054	0.1291559
661.249	0.12927685
661.444	0.12940301
661.639	0.12948307
661.834	0.12953231
662.029	0.12963223
662.224	0.12979101
662.418	0.12994788
662.613	0.13002601
662.808	0.13012865
663.003	0.13023684
663.198	0.13036314
663.392	0.13043791
663.587	0.13056785
663.782	0.13060959
663.977	0.13077361
664.171	0.13092119
664.366	0.13103351
664.561	0.13118923
664.755	0.13136062
664.95	0.1313633
665.144	0.13151931
665.339	0.13160739
665.534	0.13166773
665.728	0.13181845
665.923	0.13190046
666.117	0.13197234
666.312	0.13214179
666.506	0.1323046
666.701	0.13238266
666.895	0.13247687
667.09	0.13253439
667.284	0.13267331
667.479	0.13279441
667.673	0.13291007
667.867	0.13300648
668.062	0.13312906
668.256	0.13327272
668.45	0.13342727
668.645	0.13354409
668.839	0.13371168
669.033	0.13379756
669.228	0.13387502
669.422	0.13399532
669.616	0.13412656
669.81	0.13428732
670.004	0.13436445
670.199	0.1344683
670.393	0.1345933
670.587	0.13471681
670.781	0.1348266
670.975	0.13498021
671.169	0.13501061
671.363	0.1351224
671.558	0.13521082
671.752	0.13534483
671.946	0.13544666
672.14	0.13562311
672.334	0.13571778
672.528	0.13590556
672.722	0.13600228
672.916	0.13609571
673.11	0.13618447
673.304	0.1363737
673.497	0.13645182
673.691	0.13660328
673.885	0.1366808
674.079	0.13687734
674.273	0.1370051
674.467	0.13718184
674.661	0.137306
674.854	0.13744051
675.048	0.13761166
675.242	0.13776639
675.436	0.13786463
675.629	0.13802328
675.823	0.13810699
676.017	0.13825315
676.211	0.13835346
676.404	0.13843691
676.598	0.13853557
676.792	0.1386598
676.985	0.13881804
677.179	0.13897639
677.372	0.13902644
677.566	0.13922387
677.76	0.13937168
677.953	0.13955365
678.147	0.13974624
678.34	0.13991481
678.534	0.14004535
678.727	0.14025495
678.921	0.14042195
679.114	0.14054883
679.307	0.14068426
679.501	0.14079421
679.694	0.14087268
679.888	0.14102778
680.081	0.14115406
680.274	0.14119834
680.468	0.1413123
680.661	0.14140061
680.854	0.14160844
681.048	0.1417818
681.241	0.14189787
681.434	0.14199302
681.627	0.14220476
681.821	0.14236518
682.014	0.14257372
682.207	0.1426373
682.4	0.14273806
682.593	0.14291757
682.786	0.14306456
682.98	0.14318121
683.173	0.14335613
683.366	0.14347825
683.559	0.14357804
683.752	0.1437646
683.945	0.14391793
684.138	0.1440965
684.331	0.1442426
684.524	0.14438933
684.717	0.14452364
684.91	0.14478039
685.103	0.1449168
685.296	0.14507001
685.489	0.14521576
685.682	0.14532642
685.874	0.14546983
686.067	0.14560549
686.26	0.14573878
686.453	0.14585909
686.646	0.14597853
686.839	0.14612641
687.031	0.14633044
687.224	0.14641344
687.417	0.14663163
687.61	0.14674007
687.802	0.14687524
687.995	0.14703921
688.188	0.14719429
688.38	0.14731029
688.573	0.147518
688.766	0.14762087
688.958	0.14773144
689.151	0.14788172
689.343	0.1480533
689.536	0.14822513
689.729	0.14838967
689.921	0.1485539
690.114	0.14863938
690.306	0.14884515
690.499	0.14902939
690.691	0.14920748
690.884	0.1493145
691.076	0.14946369
691.268	0.14960561
691.461	0.14978577
691.653	0.14991862
691.846	0.15009413
692.038	0.15024262
692.23	0.15038156
692.423	0.15053871
692.615	0.15065465
692.807	0.15081866
692.999	0.15100828
693.192	0.15112302
693.384	0.15125372
693.576	0.1514049
693.768	0.15158172
693.961	0.15173476
694.153	0.15192375
694.345	0.15205378
694.537	0.15226136
694.729	0.15241515
694.921	0.15257791
695.113	0.15274544
695.305	0.15290731
695.498	0.15302911
695.69	0.15322718
695.882	0.1533438
696.074	0.15352457
696.266	0.15369964
696.458	0.1538286
696.65	0.1539981
696.842	0.15420896
697.033	0.15435349
697.225	0.15452635
697.417	0.15468444
697.609	0.15488634
697.801	0.15504789
697.993	0.15525751
698.185	0.15540551
698.376	0.15561819
698.568	0.15580418
698.76	0.15599025
698.952	0.1561497
699.144	0.15633106
699.335	0.15648417
699.527	0.15661278
699.719	0.15671948
699.91	0.15689901
700.102	0.15701599
700.294	0.15718895
700.485	0.15732399
700.677	0.1574686
700.869	0.15767324
701.06	0.15786495
701.252	0.15801646
701.443	0.15823221
701.635	0.158386
701.826	0.15861363
702.018	0.15875873
702.209	0.15894762
702.401	0.15907282
702.592	0.15924438
702.784	0.15937888
702.975	0.15957774
703.166	0.15971857
703.358	0.15993795
703.549	0.16015087
703.741	0.16037493
703.932	0.16056184
704.123	0.16075872
704.315	0.1609148
704.506	0.16113166
704.697	0.1613057
704.888	0.16148364
705.08	0.16161725
705.271	0.16175838
705.462	0.16186439
705.653	0.1620455
705.844	0.1621695
706.035	0.16233845
706.227	0.1623788
706.418	0.16258556
706.609	0.16278628
706.8	0.16302774
706.991	0.16312381
707.182	0.1633492
707.373	0.16347049
707.564	0.16373481
707.755	0.1638523
707.946	0.16403597
708.137	0.16416715
708.328	0.16441235
708.519	0.16457081
708.71	0.16475625
708.901	0.16496331
709.092	0.1652352
709.283	0.16534751
709.473	0.16556036
709.664	0.16578399
709.855	0.16590384
710.046	0.16613112
710.237	0.1662706
710.427	0.1664076
710.618	0.16665308
710.809	0.16680122
711	0.16691557
711.19	0.16705672
711.381	0.16727384
711.572	0.16743822
711.762	0.1676103
711.953	0.16775961
712.144	0.16795607
712.334	0.16810738
712.525	0.1683623
712.715	0.16848917
712.906	0.16862335
713.097	0.1687447
713.287	0.16889638
713.478	0.16903307
713.668	0.16922484
713.859	0.16933591
714.049	0.16948788
714.239	0.16967864
714.43	0.16985451
714.62	0.17004424
714.811	0.17017551
715.001	0.1703242
715.191	0.17051863
715.382	0.17064655
715.572	0.17083677
715.762	0.17100621
715.953	0.17120632
716.143	0.17143081
716.333	0.17161409
716.523	0.17177923
716.714	0.17206011
716.904	0.17224473
717.094	0.17249843
717.284	0.17262417
717.474	0.17281786
717.664	0.17300007
717.855	0.1732427
718.045	0.17332513
718.235	0.17353993
718.425	0.17369377
718.615	0.17392292
718.805	0.17411931
718.995	0.17436822
719.185	0.17457322
719.375	0.17480883
719.565	0.17500609
719.755	0.17521824
719.945	0.17537577
720.135	0.17555939
720.325	0.17571725
720.515	0.17588655
720.704	0.17606292
720.894	0.17621435
721.084	0.17635973
721.274	0.17655804
721.464	0.17678952
721.654	0.17694083
721.843	0.17709569
722.033	0.17730361
722.223	0.17749008
722.413	0.17766313
722.602	0.17783319
722.792	0.17796075
722.982	0.17818408
723.171	0.1783687
723.361	0.17851201
723.55	0.17870781
723.74	0.17888452
723.93	0.17903588
724.119	0.1791981
724.309	0.17934073
724.498	0.17943806
724.688	0.17964342
724.877	0.17976637
725.067	0.17992333
725.256	0.18007528
725.446	0.18022293
725.635	0.1803462
725.825	0.18055091
726.014	0.18070314
726.203	0.18087145
726.393	0.18095946
726.582	0.1810907
726.771	0.18127829
726.961	0.18140309
727.15	0.18149737
727.339	0.18162857
727.529	0.18176186
727.718	0.18194715
727.907	0.18206456
728.096	0.18220116
728.286	0.18239648
728.475	0.18258814
728.664	0.1826736
728.853	0.18281396
729.042	0.18296514
729.231	0.18314611
729.42	0.18322596
729.609	0.18329119
729.799	0.18338338
729.988	0.18356536
730.177	0.1836429
730.366	0.18370749
730.555	0.18379368
730.744	0.18390984
730.933	0.18403468
731.122	0.18414037
731.31	0.18425431
731.499	0.18443017
731.688	0.18461907
731.877	0.18473686
732.066	0.18489917
732.255	0.18501707
732.444	0.18518665
732.632	0.18528082
732.821	0.18534785
733.01	0.18549249
733.199	0.18560503
733.388	0.18568267
733.576	0.18583178
733.765	0.18592679
733.954	0.18603908
734.142	0.18618237
734.331	0.18630847
734.52	0.18643666
734.708	0.18655583
734.897	0.18664229
735.086	0.18674991
735.274	0.18688445
735.463	0.18697028
735.651	0.18702893
735.84	0.18719827
736.028	0.18734025
736.217	0.1874609
736.405	0.18756516
736.594	0.18768497
736.782	0.18783584
736.971	0.18792246
737.159	0.18801232
737.347	0.18815047
737.536	0.18825894
737.724	0.18834358
737.912	0.18842641
738.101	0.18848898
738.289	0.18858287
738.477	0.18864929
738.666	0.1887178
738.854	0.18874934
739.042	0.18894253
739.23	0.18901383
739.418	0.18915748
739.607	0.18927196
739.795	0.18939317
739.983	0.18953219
740.171	0.18970827
740.359	0.18981515
740.547	0.18987528
740.735	0.18995089
740.923	0.1900796
741.112	0.19015994
741.3	0.19016836
741.488	0.19026473
741.676	0.19036722
741.864	0.19055082
742.052	0.19071344
742.239	0.19076331
742.427	0.19085589
742.615	0.19097916
742.803	0.19110002
742.991	0.19111247
743.179	0.19120645
743.367	0.19121893
743.555	0.19140064
743.742	0.19153402
743.93	0.19161133
744.118	0.19165294
744.306	0.1917499
744.494	0.19177983
744.681	0.19187005
744.869	0.19189249
745.057	0.19191887
745.244	0.19197645
745.432	0.1920639
745.62	0.19215277
745.807	0.19230912
745.995	0.19240959
746.182	0.19247889
746.37	0.19255313
746.558	0.19269839
746.745	0.19273671
746.933	0.1928217
747.12	0.192863
747.308	0.19299421
747.495	0.19304206
747.683	0.19314097
747.87	0.19317806
748.057	0.19332537
748.245	0.1934058
748.432	0.19342656
748.62	0.19341242
748.807	0.19352119
748.994	0.19359551
749.182	0.19367463
749.369	0.19371315
749.556	0.19375953
749.743	0.1938613
749.931	0.19393492
750.118	0.19405918
750.305	0.19409501
750.492	0.19412959
750.68	0.19425084
750.867	0.19430487
751.054	0.19441328
751.241	0.19449565
751.428	0.19452529
751.615	0.19462001
751.802	0.19471084
751.989	0.19469566
752.176	0.19481903
752.363	0.19484206
752.55	0.19480812
752.737	0.19483617
752.924	0.19490604
753.111	0.19497604
753.298	0.19505297
753.485	0.19500346
753.672	0.19500946
753.859	0.19517467
754.046	0.19521139
754.233	0.19519233
754.42	0.19520835
754.606	0.19530222
754.793	0.1953818
754.98	0.19548575
755.167	0.19542518
755.353	0.19550595
755.54	0.19560196
755.727	0.19564919
755.914	0.19561152
756.1	0.19559951
756.287	0.19555201
756.474	0.19556785
756.66	0.19554753
756.847	0.19556586
757.033	0.19552676
757.22	0.19548512
757.407	0.19558149
757.593	0.19564257
757.78	0.1957401
757.966	0.19578055
758.153	0.19578124
758.339	0.19585085
758.526	0.19593962
758.712	0.19593774
758.898	0.19595255
759.085	0.19587788
759.271	0.19587504
759.458	0.19587222
759.644	0.19590849
759.83	0.19594154
760.017	0.1959456
760.203	0.19593236
760.389	0.19598138
760.576	0.1959667
760.762	0.19600904
760.948	0.19595484
761.134	0.19593198
761.32	0.19592842
761.507	0.19590902
761.693	0.19592318
761.879	0.1959547
762.065	0.19600411
762.251	0.19605142
762.437	0.19609636
762.623	0.19608223
762.809	0.19610603
762.995	0.19611269
763.181	0.19608335
763.367	0.19601381
763.553	0.19605941
763.739	0.19609533
763.925	0.19615722
764.111	0.1962103
764.297	0.19625166
764.483	0.19623538
764.669	0.19620547
764.855	0.1960784
765.041	0.19601076
765.227	0.19598201
765.412	0.1959708
765.598	0.19591412
765.784	0.19592815
765.97	0.19594959
766.156	0.19602116
766.341	0.19606308
766.527	0.19602707
766.713	0.19592107
766.898	0.19591458
767.084	0.19590103
767.27	0.19582599
767.455	0.19577288
767.641	0.19569619
767.827	0.1956448
768.012	0.19571316
768.198	0.19568067
768.383	0.19564892
768.569	0.19572602
768.754	0.19567471
768.94	0.19556312
769.125	0.19551815
769.311	0.19536156
769.496	0.19531369
769.682	0.19527872
769.867	0.19517394
770.052	0.19520685
770.238	0.19524703
770.423	0.19521331
770.608	0.19524257
770.794	0.19517823
770.979	0.19506633
771.164	0.19503361
771.35	0.19494515
771.535	0.19485248
771.72	0.19483674
771.905	0.19481096
772.09	0.19476135
772.276	0.19473387
772.461	0.19465326
772.646	0.19457271
772.831	0.19454305
773.016	0.19447791
773.201	0.19437081
773.386	0.19430179
773.571	0.19428469
773.756	0.19418032
773.941	0.19411016
774.126	0.19408614
774.311	0.19401143
774.496	0.19402095
774.681	0.19401105
774.866	0.19391227
775.051	0.1939037
775.236	0.19383184
775.421	0.19372744
775.606	0.19362558
775.791	0.19348312
775.976	0.19336836
776.16	0.19331027
776.345	0.19319211
776.53	0.19317192
776.715	0.19308419
776.899	0.19302989
777.084	0.19302641
777.269	0.19299108
777.454	0.19291954
777.638	0.19284295
777.823	0.19276715
778.008	0.19268545
778.192	0.19265409
778.377	0.19251343
778.561	0.19240648
778.746	0.19230525
778.931	0.19223536
779.115	0.1921944
779.3	0.19205401
779.484	0.19188793
779.669	0.19181875
779.853	0.19167111
780.037	0.19159033
780.222	0.19157018
780.406	0.19135461
780.591	0.19133354
780.775	0.19126071
780.959	0.19113669
781.144	0.19108425
781.328	0.19090238
781.512	0.1906957
781.697	0.19065007
781.881	0.19052613
782.065	0.19038676
782.249	0.19031183
782.434	0.19025527
782.618	0.19029369
782.802	0.19029472
782.986	0.19017979
783.17	0.19011373
783.354	0.18998393
783.539	0.18984042
783.723	0.18967316
783.907	0.18940992
784.091	0.18920134
784.275	0.18911264
784.459	0.18892373
784.643	0.18886933
784.827	0.18876464
785.011	0.18865916
785.195	0.18865231
785.379	0.18860934
785.563	0.18843113
785.747	0.1882893
785.93	0.18822049
786.114	0.18804397
786.298	0.18787376
786.482	0.18768482
786.666	0.18750061
786.85	0.18736769
787.033	0.18727282
787.217	0.1870461
787.401	0.18694391
787.585	0.18679463
787.768	0.18666881
787.952	0.1865143
788.136	0.18640788
788.319	0.1862773
788.503	0.18611287
788.687	0.18595195
788.87	0.18583003
789.054	0.18570852
789.237	0.18554687
789.421	0.18533071
789.605	0.1851444
789.788	0.18501697
789.972	0.1849259
790.155	0.18473525
790.338	0.18455212
790.522	0.18445357
790.705	0.18432809
790.889	0.18418041
791.072	0.184019
791.256	0.18382434
791.439	0.18373918
791.622	0.18364224
791.806	0.18349713
791.989	0.18333732
792.172	0.18320402
792.355	0.18307363
792.539	0.18291647
792.722	0.18269353
792.905	0.18245134
793.088	0.18225273
793.271	0.18212911
793.455	0.18196802
793.638	0.18180922
793.821	0.18159887
794.004	0.18150422
794.187	0.18145237
794.37	0.18130324
794.553	0.18117536
794.736	0.18104107
794.919	0.18086803
795.102	0.18077773
795.285	0.18058421
795.468	0.180344
795.651	0.18019185
795.834	0.17999543
796.017	0.17983664
796.2	0.17969764
796.383	0.17954488
796.566	0.17939937
796.749	0.17920901
796.931	0.17905588
797.114	0.17882217
797.297	0.17862621
797.48	0.17839946
797.663	0.17818334
797.845	0.17806071
798.028	0.17790739
798.211	0.17771302
798.393	0.17751338
798.576	0.17730784
798.759	0.17714015
798.941	0.17692412
799.124	0.17667501
799.307	0.17652978
799.489	0.17634873
799.672	0.1762054
799.854	0.17592243
800.037	0.17571788
800.219	0.17559029
800.402	0.17548467
800.584	0.17520049
800.767	0.17500558
800.949	0.17480474
801.132	0.1746874
801.314	0.17447502
801.496	0.17427602
801.679	0.17397316
801.861	0.17386534
802.043	0.17361273
802.226	0.17346306
802.408	0.17327809
802.59	0.1731371
802.772	0.17288194
802.955	0.17269735
803.137	0.17248046
803.319	0.17228577
803.501	0.17198834
803.684	0.17175334
803.866	0.17147584
804.048	0.17127482
804.23	0.17102601
804.412	0.17079925
804.594	0.17053227
804.776	0.17046264
804.958	0.17029906
805.14	0.17013293
805.322	0.16994305
805.504	0.16982254
805.686	0.16960649
805.868	0.16946896
806.05	0.16921368
806.232	0.16904567
806.414	0.16884215
806.596	0.168621
806.778	0.16834236
806.96	0.1681749
807.141	0.16793531
807.323	0.16770484
807.505	0.16739838
807.687	0.16721725
807.869	0.16703758
808.05	0.1668328
808.232	0.16657312
808.414	0.16641549
808.595	0.16623693
808.777	0.16602395
808.959	0.16581681
809.14	0.1656227
809.322	0.16547272
809.504	0.16524672
809.685	0.16502225
809.867	0.1647446
810.048	0.1645436
810.23	0.16433071
810.411	0.16403331
810.593	0.16374009
810.774	0.16351943
810.956	0.16326921
811.137	0.16302533
811.319	0.16280988
811.5	0.1625403
811.681	0.16235112
811.863	0.16219717
812.044	0.16198636
812.225	0.16176917
812.407	0.16163038
812.588	0.16138699
812.769	0.16113271
812.951	0.1608755
813.132	0.16057498
813.313	0.16032663
813.494	0.16004992
813.675	0.15973954
813.857	0.15951588
814.038	0.15934652
814.219	0.15909543
814.4	0.15889885
814.581	0.15875306
814.762	0.15848067
814.943	0.15831461
815.124	0.15803592
815.305	0.15773175
815.486	0.15754992
815.667	0.15730341
815.848	0.15696835
816.029	0.15674785
816.21	0.15646717
816.391	0.1563527
816.572	0.15611678
816.753	0.15587583
816.934	0.15560779
817.115	0.15538953
817.295	0.1552906
817.476	0.15501821
817.657	0.15468201
817.838	0.15444467
818.019	0.15410762
818.199	0.15381888
818.38	0.15359084
818.561	0.15322951
818.741	0.15311186
818.922	0.15288264
819.103	0.15265627
819.283	0.15255217
819.464	0.15236687
819.645	0.15213277
819.825	0.1519119
820.006	0.15148844
820.186	0.15122653
820.367	0.15096163
820.547	0.15059975
820.728	0.1503443
820.908	0.15006391
821.089	0.14986422
821.269	0.14970845
821.45	0.14946495
821.63	0.14933906
821.81	0.14915032
821.991	0.148829
822.171	0.14854732
822.351	0.14821988
822.532	0.14792431
822.712	0.14761563
822.892	0.14718837
823.072	0.14685476
823.253	0.14666361
823.433	0.14647448
823.613	0.14624421
823.793	0.14603241
823.973	0.14591099
824.154	0.14575495
824.334	0.1456595
824.514	0.14541394
824.694	0.14509848
824.874	0.14478205
825.054	0.14448434
825.234	0.14417601
825.414	0.14392101
825.594	0.14354131
825.774	0.14329309
825.954	0.14317295
826.134	0.14296248
826.314	0.14273795
826.494	0.14251132
826.674	0.14221178
826.854	0.14195819
827.033	0.14162852
827.213	0.14124885
827.393	0.14093859
827.573	0.14069579
827.753	0.14041131
827.932	0.14012331
828.112	0.13983742
828.292	0.13967534
828.472	0.13938404
828.651	0.13924112
828.831	0.13891136
829.011	0.13863664
829.19	0.13835857
829.37	0.13810687
829.549	0.13771363
829.729	0.13747822
829.909	0.13710101
830.088	0.13684452
830.268	0.13653171
830.447	0.13628043
830.627	0.13603841
830.806	0.13593865
830.986	0.13568357
831.165	0.13549128
831.344	0.13528855
831.524	0.13500515
831.703	0.13473491
831.883	0.13433996
832.062	0.13393792
832.241	0.13357692
832.421	0.13327542
832.6	0.13289895
832.779	0.13262781
832.958	0.13234784
833.138	0.13219542
833.317	0.13202891
833.496	0.13181684
833.675	0.13151659
833.854	0.13130252
834.034	0.13107266
834.213	0.13089415
834.392	0.13062426
834.571	0.13024004
834.75	0.13001978
834.929	0.1297786
835.108	0.12953385
835.287	0.12929374
835.466	0.12896586
835.645	0.12871156
835.824	0.12845226
836.003	0.12813395
836.182	0.12789379
836.361	0.12756899
836.54	0.12726767
836.719	0.12700845
836.897	0.12672702
837.076	0.12651219
837.255	0.12628714
837.434	0.12598787
837.613	0.12565038
837.791	0.12535438
837.97	0.12507543
838.149	0.12474053
838.328	0.12446921
838.506	0.12418653
838.685	0.12386662
838.864	0.12371517
839.042	0.12349054
839.221	0.123194
839.4	0.12301731
839.578	0.12270278
839.757	0.12238117
839.935	0.12215807
840.114	0.12183346
840.292	0.12155064
840.471	0.12138373
840.649	0.12108898
840.828	0.12078849
841.006	0.12056517
841.185	0.12031707
841.363	0.12007225
841.541	0.11977551
841.72	0.11946653
841.898	0.11919982
842.076	0.11892341
842.255	0.11862431
842.433	0.11829018
842.611	0.11802827
842.789	0.11781098
842.968	0.11750993
843.146	0.11724061
843.324	0.11700316
843.502	0.11683902
843.68	0.11670005
843.859	0.11644751
844.037	0.11610408
844.215	0.11580572
844.393	0.11554842
844.571	0.11527258
844.749	0.11492263
844.927	0.11456785
845.105	0.11426296
845.283	0.11409554
845.461	0.11382163
845.639	0.1134889
845.817	0.11329463
845.995	0.11303614
846.173	0.11285928
846.351	0.1126436
846.529	0.1123346
846.706	0.11204151
846.884	0.11186166
847.062	0.11153122
847.24	0.11119433
847.418	0.11076362
847.595	0.11041018
847.773	0.11008611
847.951	0.10990328
848.129	0.10957835
848.306	0.10940971
848.484	0.10927962
848.662	0.10912924
848.839	0.10898208
849.017	0.10875961
849.194	0.10849461
849.372	0.10818924
849.549	0.10783074
849.727	0.10750782
849.905	0.10712754
850.082	0.10678724
850.26	0.10654412
850.437	0.10624288
850.614	0.10609126
850.792	0.10594621
850.969	0.10563857
851.147	0.10548577
851.324	0.1052865
851.501	0.10499368
851.679	0.10471148
851.856	0.10438013
852.033	0.10398911
852.211	0.1037023
852.388	0.10329527
852.565	0.10298465
852.742	0.10272279
852.92	0.10248839
853.097	0.10221361
853.274	0.10202547
853.451	0.10179232
853.628	0.10168664
853.805	0.10138317
853.982	0.10107762
854.159	0.10081073
854.336	0.1006163
854.514	0.10028639
854.691	0.0998905
854.868	0.09954497
855.045	0.09928215
855.221	0.09905792
855.398	0.09880315
855.575	0.09850543
855.752	0.0982667
855.929	0.09815834
856.106	0.09791824
856.283	0.09773199
856.46	0.09753367
856.637	0.09739696
856.813	0.09713756
856.99	0.09697227
857.167	0.09674097
857.344	0.09660855
857.52	0.09627577
857.697	0.09596039
857.874	0.09557907
858.05	0.09535743
858.227	0.09498809
858.404	0.09470332
858.58	0.09448448
858.757	0.09426917
858.933	0.09414061
859.11	0.09400811
859.287	0.0937663
859.463	0.09357232
859.64	0.09339291
859.816	0.09303117
859.993	0.09275019
860.169	0.09241831
860.345	0.09208865
860.522	0.09180716
860.698	0.0915663
860.875	0.09125864
861.051	0.09099577
861.227	0.09085215
861.404	0.09061698
861.58	0.09036565
861.756	0.09019674
861.932	0.08997148
862.109	0.08974359
862.285	0.08951523
862.461	0.08924935
862.637	0.08896413
862.813	0.08869607
862.99	0.08827821
863.166	0.0879009
863.342	0.08771491
863.518	0.08746775
863.694	0.08727779
863.87	0.08707133
864.046	0.08677126
864.222	0.08662332
864.398	0.08651193
864.574	0.08616638
864.75	0.08590218
864.926	0.08552006
865.102	0.08526296
865.278	0.08504319
865.454	0.08476041
865.63	0.08451524
865.805	0.08437672
865.981	0.08415248
866.157	0.08396322
866.333	0.083836
866.509	0.08365407
866.684	0.08352778
866.86	0.08339018
867.036	0.08315128
867.212	0.08287519
867.387	0.08265354
867.563	0.08229546
867.739	0.08199895
867.914	0.08165747
868.09	0.08124095
868.265	0.08092447
868.441	0.08067724
868.617	0.08040278
868.792	0.08017406
868.968	0.07993141
869.143	0.07975312
869.319	0.07962047
869.494	0.07943808
869.67	0.07920756
869.845	0.07900177
870.02	0.07877305
870.196	0.07858029
870.371	0.07824979
870.546	0.07793337
870.722	0.0776566
870.897	0.07740845
871.072	0.07712956
871.248	0.07680477
871.423	0.0765548
871.598	0.07631325
871.773	0.07601776
871.949	0.07578705
872.124	0.07558815
872.299	0.07536886
872.474	0.07518119
872.649	0.07489138
872.824	0.07473837
872.999	0.07459078
873.174	0.07430652
873.349	0.07406045
873.524	0.07386821
873.699	0.07364825
873.874	0.0735122
874.049	0.07332491
874.224	0.07310816
874.399	0.07297046
874.574	0.07284794
874.749	0.07258269
874.924	0.07228256
875.099	0.072082
875.274	0.0718091
875.449	0.0715927
875.623	0.07126755
875.798	0.07087226
875.973	0.07070123
876.148	0.07054786
876.322	0.07026593
876.497	0.07001706
876.672	0.06975399
876.846	0.06962674
877.021	0.06946567
877.196	0.06923505
877.37	0.06903463
877.545	0.06887474
877.72	0.06867795
877.894	0.06848454
878.069	0.06820806
878.243	0.06796043
878.418	0.06766556
878.592	0.06742049
878.767	0.06710036
878.941	0.06685681
879.116	0.06657152
879.29	0.066385
879.464	0.0662177
879.639	0.0659835
879.813	0.06580975
879.987	0.0657205
880.162	0.0656052
880.336	0.06546903
880.51	0.06535637
880.685	0.06514624
880.859	0.06515186
881.033	0.06495157
881.207	0.06462884
881.381	0.06438812
881.556	0.06411486
881.73	0.06371103
881.904	0.06353072
882.078	0.06323954
882.252	0.0630191
882.426	0.06288567
882.6	0.06270413
882.774	0.06262211
882.948	0.06256217
883.122	0.06238939
883.296	0.0621234
883.47	0.06190894
883.644	0.06169658
883.818	0.06155409
883.992	0.06137434
884.166	0.06114977
884.34	0.06097458
884.514	0.06082846
884.687	0.06076931
884.861	0.06057934
885.035	0.06024505
885.209	0.06007681
885.382	0.06001263
885.556	0.05984089
885.73	0.05959508
885.904	0.05929928
886.077	0.05908943
886.251	0.05898707
886.425	0.05872956
886.598	0.0584301
886.772	0.0580725
886.945	0.05790338
887.119	0.05770184
887.292	0.05755276
887.466	0.05735758
887.64	0.05720628
887.813	0.05701028
887.986	0.05686723
888.16	0.0566653
888.333	0.05640373
888.507	0.05612326
888.68	0.05585544
888.854	0.05559884
889.027	0.05535219
889.2	0.05520151
889.374	0.05504351
889.547	0.05501914
889.72	0.05487035
889.893	0.05480744
890.067	0.0546281
890.24	0.05448189
890.413	0.05426897
890.586	0.05399952
890.759	0.05369386
890.933	0.05349215
891.106	0.05329578
891.279	0.05329446
891.452	0.05317548
891.625	0.05309575
891.798	0.05299231
891.971	0.05286243
892.144	0.05276241
892.317	0.05246724
892.49	0.05199165
892.663	0.05167684
892.836	0.05153416
893.009	0.0514
893.182	0.05124098
893.355	0.05110938
893.527	0.05108064
893.7	0.05112958
893.873	0.05112095
894.046	0.05089539
894.219	0.05066756
894.391	0.05049964
894.564	0.05018184
894.737	0.04990175
894.91	0.04960568
895.082	0.04922708
895.255	0.04893412
895.428	0.0487613
895.6	0.04848645
895.773	0.04839745
895.945	0.04818937
896.118	0.04797936
896.291	0.04787086
896.463	0.04787172
896.636	0.04770399
896.808	0.04768523
896.981	0.04757627
897.153	0.04751503
897.326	0.04742897
897.498	0.04735152
897.67	0.04710689
897.843	0.0469334
898.015	0.04667431
898.187	0.04639665
898.36	0.04611324
898.532	0.04590258
898.704	0.04570684
898.877	0.04552155
899.049	0.0454198
899.221	0.04525903
899.393	0.04508458
899.566	0.04499169
899.738	0.04496783
899.91	0.0448199
900.082	0.04465668
900.254	0.04448072
900.426	0.04432434
900.598	0.04423719
900.77	0.04403464
900.942	0.04378637
901.114	0.04357472
901.286	0.0433712
901.458	0.04323688
901.63	0.04311808
901.802	0.04294141
901.974	0.04276536
902.146	0.04260885
902.318	0.04257065
902.49	0.04249989
902.662	0.04234178
902.834	0.04215115
903.005	0.0420768
903.177	0.04204188
903.349	0.04182489
903.521	0.04160094
903.693	0.04143783
903.864	0.04114854
904.036	0.04097541
904.208	0.04072793
904.379	0.04054494
904.551	0.04050764
904.723	0.04036826
904.894	0.04028867
905.066	0.04037925
905.237	0.04048806
905.409	0.04037172
905.58	0.04016941
905.752	0.04003444
905.923	0.03997825
906.095	0.03970477
906.266	0.03938322
906.438	0.0390428
906.609	0.03886029
906.78	0.03870998
906.952	0.03844594
907.123	0.03812953
907.295	0.03799298
907.466	0.03800089
907.637	0.03778939
907.808	0.03777344
907.98	0.03765616
908.151	0.03770401
908.322	0.037729
908.493	0.03773902
908.665	0.03762276
908.836	0.03762159
909.007	0.03744402
909.178	0.03742218
909.349	0.03728851
909.52	0.03707968
909.691	0.03688471
909.862	0.03662113
910.033	0.03640035
910.204	0.03630403
910.375	0.03622965
910.546	0.03601899
910.717	0.03596115
910.888	0.03577732
911.059	0.03574636
911.23	0.03577113
911.401	0.03568311
911.572	0.03550662
911.742	0.03528116
911.913	0.03506102
912.084	0.03493441
912.255	0.03481664
912.426	0.03454198
912.596	0.03418744
912.767	0.03381589
912.938	0.03365094
913.108	0.03347317
913.279	0.03327112
913.45	0.03302507
913.62	0.03288618
913.791	0.03295746
913.962	0.03299503
914.132	0.03293114
914.303	0.032843
914.473	0.03287378
914.644	0.0327294
914.814	0.03253104
914.985	0.03229933
915.155	0.03217724
915.326	0.03202862
915.496	0.03202606
915.666	0.03181329
915.837	0.03163301
916.007	0.03146506
916.177	0.03136952
916.348	0.03120497
916.518	0.03108699
916.688	0.03083467
916.858	0.03074925
917.029	0.03071672
917.199	0.03070181
917.369	0.03058164
917.539	0.03049209
917.709	0.03035745
917.88	0.0302726
918.05	0.03007011
918.22	0.02987542
918.39	0.02977113
918.56	0.02962308
918.73	0.02946182
918.9	0.02936685
919.07	0.02932067
919.24	0.02920003
919.41	0.02925225
919.58	0.02917989
919.75	0.02924957
919.92	0.02927975
920.09	0.02919379
920.26	0.02903409
920.429	0.0291185
920.599	0.02882573
920.769	0.02869808
920.939	0.02834859
921.109	0.02814938
921.278	0.02798421
921.448	0.02772645
921.618	0.02747611
921.787	0.02742641
921.957	0.02728423
922.127	0.02723001
922.296	0.02711206
922.466	0.0272099
922.636	0.02721709
922.805	0.02720486
922.975	0.02713677
923.144	0.02712578
923.314	0.02717898
923.483	0.02708173
923.653	0.02679614
923.822	0.02674819
923.992	0.02653675
924.161	0.02640261
924.331	0.02612566
924.5	0.02592137
924.669	0.02575661
924.839	0.02557263
925.008	0.02553092
925.177	0.02553914
925.347	0.02550179
925.516	0.02553778
925.685	0.02549425
925.854	0.02555453
926.023	0.02564437
926.193	0.02557276
926.362	0.02544469
926.531	0.02531971
926.7	0.02526715
926.869	0.02516503
927.038	0.02494286
927.207	0.02475428
927.376	0.02451432
927.545	0.02435518
927.715	0.02437389
927.884	0.02433306
928.052	0.02431137
928.221	0.02430746
928.39	0.02433948
928.559	0.02436985
928.728	0.02444529
928.897	0.02439532
929.066	0.02438426
929.235	0.02417162
929.404	0.0241686
929.572	0.02402838
929.741	0.02392012
929.91	0.02361629
930.079	0.02358792
930.247	0.02351748
930.416	0.02342498
930.585	0.02329019
930.753	0.02323767
930.922	0.02318079
931.091	0.02330033
931.259	0.02299895
931.428	0.02273312
931.596	0.02270444
931.765	0.02263048
931.934	0.02244703
932.102	0.02228431
932.27	0.02220872
932.439	0.02225922
932.607	0.02203646
932.776	0.02188074
932.944	0.02152716
933.113	0.0214946
933.281	0.02128944
933.449	0.02108255
933.618	0.02094193
933.786	0.02110283
933.954	0.02101468
934.123	0.021217
934.291	0.02103116
934.459	0.02108798
934.627	0.02099973
934.795	0.02105013
934.964	0.02095588
935.132	0.02098373
935.3	0.02080933
935.468	0.02096089
935.636	0.02101298
935.804	0.02119385
935.972	0.02103027
936.14	0.02101271
936.308	0.02110257
936.476	0.02132267
936.644	0.02130918
936.812	0.02122462
936.98	0.02091804
937.148	0.02096763
937.316	0.0206774
937.484	0.0206276
937.652	0.02051129
937.82	0.02066383
937.987	0.02057707
938.155	0.020747
938.323	0.02068066
938.491	0.02130842
938.658	0.02133167
938.826	0.02123005
938.994	0.0212976
939.162	0.0214926
939.329	0.02154928
939.497	0.02145638
939.665	0.02147684
939.832	0.0216718
940	0.02192504
940.167	0.02215992
940.335	0.02260201
940.502	0.02308202
940.67	0.02339052
940.837	0.02332294
941.005	0.0230448
941.172	0.0232498
941.34	0.02263532
941.507	0.02227922
941.674	0.02179407
941.842	0.02185108
942.009	0.02192472
942.177	0.02152477
942.344	0.02133769
942.511	0.02200303
942.678	0.02221522
942.846	0.02338948
943.013	0.02356653
943.18	0.02327963
943.347	0.02409917
943.514	0.02397278
943.682	0.02379285
943.849	0.02386328
944.016	0.02312412
944.183	0.02448654
944.35	0.02418661
944.517	0.02499294
944.684	0.02609402
944.851	0.02567201
945.018	0.02580193
945.185	0.02615392
945.352	0.02479824
945.519	0.02495115
945.686	0.02423743
945.853	0.02394464
946.02	0.0234592
946.187	0.02354274
946.353	0.02229129
946.52	0.02186904
946.687	0.02184385
946.854	0.02187533
947.021	0.02078854
947.187	0.02117592
947.354	0.02044403
947.521	0.02068521
947.687	0.02092483
947.854	0.02129067
948.021	0.02072312
948.187	0.02034284
948.354	0.01998538
948.52	0.02056064
948.687	0.02092382
948.854	0.0212977
949.02	0.02017364
949.187	0.02014122
949.353	0.02034231
949.52	0.02027639
949.686	0.01944126
949.852	0.01912515
950.019	0.01793448
950.185	0.01822514
950.352	0.01820309
950.518	0.01854953
950.684	0.01880732
950.851	0.01807228
951.017	0.01778274
951.183	0.01817657
951.349	0.01858224
951.516	0.01756356
951.682	0.01662579
951.848	0.01632639
952.014	0.01632741
952.18	0.01622086
952.346	0.01685398
952.512	0.01584944
952.679	0.01667629
952.845	0.01631381
953.011	0.01639852
953.177	0.01693316
953.343	0.01693587
953.509	0.01615076
953.675	0.01643276
953.841	0.01644527
954.007	0.01738124
954.172	0.01724078
954.338	0.01674179
954.504	0.01621697
954.67	0.01593497
954.836	0.01607302
955.002	0.01521408
955.167	0.01499901
955.333	0.0146591
955.499	0.01497862
955.665	0.01537348
955.83	0.01536534
955.996	0.01481397
956.162	0.01487821
956.327	0.01460651
956.493	0.01458535
956.659	0.01453113
956.824	0.01407709
956.99	0.0141744
957.155	0.01462072
957.321	0.01464024
957.486	0.01460536
957.652	0.01433083
957.817	0.01390805
957.983	0.01403011
958.148	0.01385184
958.314	0.01314823
958.479	0.01298254
958.644	0.01300046
958.81	0.01343984
958.975	0.0134487
959.14	0.01341457
959.306	0.01330947
959.471	0.01345362
959.636	0.01328932
959.801	0.01320873
959.967	0.01267841
960.132	0.01275212
960.297	0.01265046
960.462	0.01257063
960.627	0.01239141
960.792	0.01243419
960.957	0.01197948
961.123	0.01182044
961.288	0.01175078
961.453	0.01142843
961.618	0.01127776
961.783	0.0115435
961.948	0.01141753
962.113	0.0116569
962.277	0.01163721
962.442	0.01174003
962.607	0.01186754
962.772	0.01198798
962.937	0.01169743
963.102	0.01154376
963.267	0.01166321
963.431	0.01170174
963.596	0.01168979
963.761	0.01171822
963.926	0.01132307
964.09	0.01137915
964.255	0.01154774
964.42	0.01118999
964.584	0.01085571
964.749	0.01011314
964.914	0.01014447
965.078	0.01052532
965.243	0.0104359
965.407	0.01024217
965.572	0.01026869
965.736	0.01067322
965.901	0.01136491
966.065	0.01127251
966.23	0.0110967
966.394	0.01079909
966.559	0.01082917
966.723	0.01073655
966.887	0.01029112
967.052	0.0100574
967.216	0.00977192
967.38	0.00981295
967.545	0.01010432
967.709	0.01028369
967.873	0.01049983
968.037	0.01074583
968.202	0.01062156
968.366	0.01065495
968.53	0.01040308
968.694	0.01043722
968.858	0.01051882
969.022	0.0102196
969.187	0.01017115
969.351	0.01005544
969.515	0.01032594
969.679	0.01042308
969.843	0.01016439
970.007	0.00973414
970.171	0.00951956
970.335	0.00965855
970.499	0.00992216
970.662	0.00963741
970.826	0.00954407
970.99	0.00984811
971.154	0.00979893
971.318	0.01041635
971.482	0.01017517
971.645	0.00981566
971.809	0.0098147
971.973	0.00947641
972.137	0.00897861
972.3	0.00908552
972.464	0.00843083
972.628	0.00844638
972.791	0.00859538
972.955	0.00788745
973.119	0.00804874
973.282	0.00831711
973.446	0.00844281
973.609	0.00830722
973.773	0.00854889
973.936	0.00843532
974.1	0.00935312
974.263	0.00927708
974.427	0.00890356
974.59	0.00871519
974.754	0.00922526
974.917	0.00897856
975.08	0.00886124
975.244	0.0088449
975.407	0.00895435
975.57	0.00911903
975.734	0.00942302
975.897	0.00904849
976.06	0.00948256
976.223	0.00953621
976.387	0.00927868
976.55	0.00980034
976.713	0.00953445
976.876	0.00927005
977.039	0.00963339
977.202	0.00939646
977.365	0.00929962
977.528	0.00941197
977.692	0.00925224
977.855	0.00938763
978.018	0.00933057
978.181	0.00911009
978.344	0.00888961
978.506	0.00891999
978.669	0.0090904
978.832	0.00873841
978.995	0.00868875
979.158	0.00877492
979.321	0.00847777
979.484	0.00876949
979.646	0.00877776
979.809	0.00862743
979.972	0.00896453
980.135	0.00919568
980.297	0.00901546
980.46	0.00933388
980.623	0.00914502
980.786	0.0095847
980.948	0.00970483
981.111	0.00968255
981.273	0.00947844
981.436	0.00935078
981.599	0.00935795
981.761	0.00882387
981.924	0.00823808
982.086	0.00789495
982.249	0.00696933
982.411	0.00700705
982.573	0.00706716
982.736	0.00697411
982.898	0.00670787
983.061	0.00651556
983.223	0.00577392
983.385	0.00659231
983.548	0.00717718
983.71	0.0075516
983.872	0.00741198
984.034	0.00839196
984.197	0.00927377
984.359	0.01002118
984.521	0.00956329
984.683	0.00885742
984.845	0.0087466
985.008	0.00905897
985.17	0.0088317
985.332	0.00838327
985.494	0.00821335
985.656	0.00831186
985.818	0.00842319
985.98	0.00823521
986.142	0.00770851
986.304	0.00740604
986.466	0.00704435
986.628	0.00691312
986.79	0.00725645
986.952	0.00697628
987.113	0.00689254
987.275	0.00681896
987.437	0.00724294
987.599	0.00765991
987.761	0.00839111
987.922	0.00794108
988.084	0.00821167
988.246	0.00831865
988.408	0.00840458
988.569	0.0082968
988.731	0.00759833
988.893	0.00686992
989.054	0.00735247
989.216	0.00784801
989.377	0.00783954
989.539	0.00767338
989.701	0.00685383
989.862	0.00741878
990.024	0.00750097
990.185	0.0069056
990.347	0.00700622
990.508	0.00691499
990.669	0.00781356
990.831	0.0088459
990.992	0.00840337
991.154	0.00813817
991.315	0.00883183
991.476	0.00799555
991.638	0.0075851
991.799	0.00727521
991.96	0.00712177
992.121	0.00732334
992.283	0.0076908
992.444	0.00777302
992.605	0.00847778
992.766	0.00953195
992.927	0.00902254
993.088	0.00839446
993.249	0.0086548
993.41	0.00824512
993.572	0.00796597
993.733	0.00741839
993.894	0.00701334
994.055	0.00728251
994.216	0.00787871
994.376	0.00741164
994.537	0.00775334
994.698	0.00753476
994.859	0.0081632
995.02	0.00768892
995.181	0.00739997
995.342	0.00690153
995.503	0.00761126
995.663	0.00779573
995.824	0.00764794
995.985	0.00758526
996.146	0.0076684
996.306	0.00805172
996.467	0.0085337
996.628	0.00786886
996.788	0.00819799
996.949	0.00835419
997.11	0.00785259
997.27	0.00850757
997.431	0.00896305
997.591	0.00849159
997.752	0.00829238
997.912	0.00779148
998.073	0.00805561
998.233	0.00862793
998.394	0.00813378
998.554	0.00787258
998.714	0.00845555
998.875	0.00901488
999.035	0.0092398
999.196	0.00884255
999.356	0.00882636
999.516	0.00860236
999.676	0.00819184
999.837	0.00750414
999.997	0.00731554
1000.157	0.00659029
1000.317	0.00703111
1000.477	0.00670489
1000.638	0.00809842
1000.798	0.00815041
1000.958	0.00823037
1001.118	0.00895855
1001.278	0.00937078
1001.438	0.00916172
1001.598	0.00849691
1001.758	0.00753919
1001.918	0.0076026
1002.078	0.00765812
1002.238	0.00730315
1002.398	0.00778688
1002.558	0.00797924
1002.718	0.00798869
1002.878	0.00827485
1003.037	0.00860397
1003.197	0.00897779
1003.357	0.00878605
1003.517	0.00916864
1003.677	0.00812686
1003.836	0.008665
1003.996	0.00856152
1004.156	0.00833666
1004.315	0.0082491
1004.475	0.00949584
1004.635	0.00920622
1004.794	0.00980605
1004.954	0.00948282
1005.114	0.009836
1005.273	0.01032864
1005.433	0.01055577
1005.592	0.01009409
1005.752	0.01014544
1005.911	0.01048901
1006.071	0.01172655
1006.23	0.01049094
1006.389	0.01087131
1006.549	0.0098652
1006.708	0.00920439
1006.868	0.00898526
1007.027	0.00892496
1007.186	0.00836165
1007.345	0.00957063
1007.505	0.00949599
1007.664	0.00982506
1007.823	0.0096097
1007.982	0.01047415
1008.142	0.01110481
1008.301	0.01038832
1008.46	0.00965769
1008.619	0.00915884
1008.778	0.00942606
1008.937	0.00897479
1009.096	0.00808394
1009.255	0.00763302
1009.414	0.0084114
1009.573	0.00717303
1009.732	0.00741673
1009.891	0.00840583
1010.05	0.00891644
1010.209	0.00833085
1010.368	0.00816094
1010.527	0.00710907
1010.686	0.00934814
1010.845	0.00827962
1011.003	0.0091218
1011.162	0.01085923
1011.321	0.01157378
1011.48	0.01134061
1011.638	0.01227394
1011.797	0.01212534
1011.956	0.01401151
1012.115	0.01191188
1012.273	0.01047795
1012.432	0.01016346
1012.59	0.01047132
1012.749	0.01096093
1012.908	0.01055399
1013.066	0.00942326
1013.225	0.00889944
1013.383	0.00860111
1013.542	0.00891943
1013.7	0.00975258
1013.859	0.00949067
1014.017	0.00884731
1014.175	0.00736118
1014.334	0.00856234
1014.492	0.00858703
1014.65	0.0097146
1014.809	0.00908141
1014.967	0.00916255
1015.125	0.00883217
1015.284	0.01125001
1015.442	0.01335216
1015.6	0.01431242
1015.758	0.01303846
1015.916	0.01397468
1016.075	0.01526865
1016.233	0.01561125
1016.391	0.0147692
1016.549	0.01406795
1016.707	0.01427184
1016.865	0.01597825
1017.023	0.01544924
1017.181	0.01403359
1017.339	0.01563552
1017.497	0.01651111
1017.655	0.01511153
1017.813	0.01612501
1017.971	0.01393644
1018.129	0.01307108
1018.286	0.01351232
1018.444	0.01324634
1018.602	0.01334875
1018.76	0.01352915
1018.918	0.0117824
1019.075	0.0120008
1019.233	0.0124776
1019.391	0.01318186
1019.549	0.01453222
1019.706	0.01414538
1019.864	0.0179735
1020.022	0.02038394
1020.179	0.02255845
1020.337	0.02084929
1020.494	0.02187876
1020.652	0.02234286
1020.809	0.02319718
1020.967	0.02073316
1021.124	0.01876191
1021.282	0.0179846
1021.439	0.02276361
1021.597	0.0232608
1021.754	0.02210183
1021.911	0.02316449
1022.069	0.01858659
1022.226	0.02083041
1022.384	0.02367591
1022.541	0.02407442
1022.698	0.02333156
1022.855	0.02265767
1023.013	0.02020059
1023.17	0.0243945
1023.327	0.02264422
1023.484	0.02298154
1023.641	0.02197877
1023.798	0.02201746
1023.956	0.02565115
1024.113	0.02579302
1024.27	0.02746631
1024.427	0.02512311
1024.584	0.02464074
1024.741	0.02284018
1024.898	0.02557622
1025.055	0.02543611
1025.212	0.02725997
1025.369	0.0262614
1025.525	0.02799383
1025.682	0.02404783
1025.839	0.02770698
1025.996	0.02443481
1026.153	0.02154209
1026.31	0.02241376
1026.466	0.02238407
1026.623	0.02467384
1026.78	0.02484117
1026.937	0.02196815
1027.093	0.02665951
1027.25	0.02892309
1027.407	0.0267136
1027.563	0.02761298
1027.72	0.02844267
1027.876	0.03434369
1028.033	0.03635583
1028.19	0.03218714
1028.346	0.02718002
1028.503	0.02579892
1028.659	0.02523462
1028.816	0.02360619
1028.972	0.02096505
1029.128	0.01584628
1029.285	0.01585798
1029.441	0.01894967
1029.598	0.02588104
1029.754	0.02865039
1029.91	0.03057582
1030.067	0.02991158
1030.223	0.03400993
1030.379	0.03767583
1030.535	0.04111772
1030.691	0.03868819
1030.848	0.03701097
1031.004	0.0374131
1031.16	0.03829561
1031.316	0.03720093
1031.472	0.03732859
1031.628	0.03636121
1031.784	0.03441866
1031.94	0.04083486
1032.096	0.04164633
1032.252	0.04352402
1032.408	0.04709172
1032.564	0.04689715
1032.72	0.05166273
1032.876	0.04965987
1033.032	0.04405284
1033.188	0.04108767
1033.344	0.03767169
1033.5	0.03477747
1033.655	0.03036426
1033.811	0.02345486
1033.967	0.02738027
