Data from 0_1_mm_pl_100pc_Absorbance__0__18-38-21-857.txt Node

Date: Wed Mar 01 18:38:21 CET 2023
User: Ange
Spectrometer: FLMT08341
Trigger mode: 0
Integration Time (sec): 1.000000E-2
Scans to average: 400
Electric dark correction enabled: true
Nonlinearity correction enabled: false
Boxcar width: 3
XAxis mode: Wavelengths
Number of Pixels in Spectrum: 3648
>>>>>Begin Spectral Data<<<<<
345.271	-0.00219876
345.487	-0.00912584
345.704	-0.005313
345.921	-0.02024923
346.137	-0.02443557
346.354	-0.02417329
346.571	0.01845458
346.787	0.037773
347.004	-0.14756186
347.22	-0.1274489
347.437	-0.41080009
347.653	-0.64178753
347.87	0.26641992
348.086	-0.65741901
348.303	0.16940021
348.519	0.01980299
348.736	0.02014198
348.952	0.0247312
349.169	0.02912584
349.385	0.03281282
349.601	0.03450374
349.818	0.03452575
350.034	0.03398077
350.251	0.03659534
350.467	0.03761852
350.683	0.03645205
350.9	0.03520421
351.116	0.03521042
351.332	0.03386885
351.549	0.03380306
351.765	0.03256057
351.981	0.03204359
352.197	0.03066289
352.414	0.0303871
352.63	0.02964567
352.846	0.02972943
353.062	0.0280169
353.278	0.02689583
353.495	0.02697164
353.711	0.02907071
353.927	0.02757796
354.143	0.02719682
354.359	0.02604436
354.575	0.02810024
354.792	0.02761675
355.008	0.02764709
355.224	0.0263793
355.44	0.02753185
355.656	0.02666239
355.872	0.02705326
356.088	0.02470989
356.304	0.02588641
356.52	0.02401609
356.736	0.02428192
356.952	0.0240424
357.168	0.02426073
357.384	0.02375991
357.6	0.02527621
357.816	0.02550339
358.032	0.02660651
358.248	0.02803073
358.464	0.02865206
358.679	0.02806359
358.895	0.02854649
359.111	0.02746993
359.327	0.02546443
359.543	0.02457956
359.759	0.02435068
359.974	0.02288931
360.19	0.02194444
360.406	0.02114237
360.622	0.02122105
360.838	0.02041355
361.053	0.02017819
361.269	0.01997071
361.485	0.01983056
361.701	0.0202832
361.916	0.01999463
362.132	0.01964278
362.348	0.0208153
362.563	0.02110059
362.779	0.01904351
362.995	0.01831826
363.21	0.01829342
363.426	0.01836992
363.641	0.01760679
363.857	0.01623151
364.073	0.01531121
364.288	0.0158091
364.504	0.01674024
364.719	0.01628517
364.935	0.0154376
365.15	0.01547121
365.366	0.01538518
365.581	0.01592643
365.797	0.01492057
366.012	0.01426696
366.228	0.01443802
366.443	0.01529029
366.658	0.01513586
366.874	0.01588438
367.089	0.01505674
367.305	0.01529333
367.52	0.01511908
367.735	0.01415358
367.951	0.01324565
368.166	0.01408514
368.381	0.01390747
368.597	0.01448401
368.812	0.01461691
369.027	0.01485227
369.243	0.01619012
369.458	0.01693411
369.673	0.01695463
369.888	0.0167329
370.104	0.01625884
370.319	0.01609907
370.534	0.01620264
370.749	0.01536074
370.964	0.01409662
371.179	0.01309164
371.395	0.01316363
371.61	0.01336722
371.825	0.01257211
372.04	0.01238714
372.255	0.01194777
372.47	0.01297751
372.685	0.01340003
372.9	0.0120643
373.115	0.01225893
373.33	0.01294162
373.545	0.01302877
373.76	0.01350276
373.975	0.01258755
374.19	0.01169898
374.405	0.01160778
374.62	0.01070839
374.835	0.01132646
375.05	0.01022006
375.265	0.01036088
375.48	0.01047955
375.695	0.01125562
375.91	0.01195091
376.125	0.01144835
376.339	0.01000864
376.554	0.0097993
376.769	0.01011882
376.984	0.01057112
377.199	0.01025924
377.414	0.01023776
377.628	0.01067516
377.843	0.01085195
378.058	0.01151067
378.273	0.01053832
378.487	0.00929585
378.702	0.00932394
378.917	0.00885566
379.131	0.00855963
379.346	0.0090027
379.561	0.00829537
379.775	0.00824971
379.99	0.00858865
380.205	0.00855732
380.419	0.00870939
380.634	0.00811789
380.848	0.00778909
381.063	0.00829847
381.278	0.00785363
381.492	0.00788448
381.707	0.00745215
381.921	0.00758133
382.136	0.00872287
382.35	0.00831155
382.565	0.0082232
382.779	0.00806501
382.994	0.00816519
383.208	0.00854402
383.422	0.00822564
383.637	0.00822479
383.851	0.00815719
384.066	0.00763718
384.28	0.00759794
384.494	0.00753865
384.709	0.00706375
384.923	0.00704208
385.137	0.0062794
385.352	0.00624739
385.566	0.00652129
385.78	0.00648777
385.995	0.00622192
386.209	0.00609481
386.423	0.00606902
386.637	0.00606869
386.852	0.00593583
387.066	0.00567877
387.28	0.00582008
387.494	0.00619361
387.708	0.00606813
387.923	0.00606979
388.137	0.00627802
388.351	0.00639282
388.565	0.00655362
388.779	0.00676561
388.993	0.00619637
389.207	0.006488
389.421	0.00626105
389.635	0.00607537
389.85	0.00608569
390.064	0.00557381
390.278	0.00538958
390.492	0.00513625
390.706	0.00467664
390.92	0.00505613
391.134	0.00460397
391.348	0.00499192
391.561	0.00539377
391.775	0.00531229
391.989	0.00576122
392.203	0.00578627
392.417	0.00528032
392.631	0.00517294
392.845	0.00501878
393.059	0.00511413
393.273	0.00508928
393.486	0.00476185
393.7	0.0044937
393.914	0.00456162
394.128	0.00465565
394.342	0.00434546
394.555	0.00424811
394.769	0.00401221
394.983	0.00405903
395.197	0.00430223
395.41	0.00423124
395.624	0.00421665
395.838	0.00395332
396.051	0.00361575
396.265	0.00365926
396.479	0.00369148
396.692	0.00384901
396.906	0.00392138
397.12	0.00367104
397.333	0.00364269
397.547	0.00360841
397.76	0.00373813
397.974	0.00366316
398.187	0.00320413
398.401	0.00301704
398.614	0.00356501
398.828	0.00377941
399.041	0.0038942
399.255	0.0040388
399.468	0.00435442
399.682	0.0047196
399.895	0.0049379
400.109	0.0047591
400.322	0.00462515
400.536	0.00437825
400.749	0.00408558
400.962	0.0039451
401.176	0.00380706
401.389	0.00342253
401.602	0.00322324
401.816	0.00327033
402.029	0.0032927
402.242	0.00313333
402.456	0.00280667
402.669	0.00262311
402.882	0.00270972
403.095	0.00261949
403.309	0.00251986
403.522	0.00253594
403.735	0.00261258
403.948	0.00295364
404.161	0.00298291
404.375	0.00295974
404.588	0.00304345
404.801	0.00306896
405.014	0.00338746
405.227	0.00364766
405.44	0.00358345
405.653	0.00360445
405.866	0.00352189
406.079	0.00332172
406.293	0.00335438
406.506	0.00289301
406.719	0.00275693
406.932	0.00262358
407.145	0.0024011
407.358	0.00247793
407.571	0.00257248
407.784	0.00254965
407.996	0.00257817
408.209	0.00251887
408.422	0.00268983
408.635	0.00278725
408.848	0.0025355
409.061	0.00240003
409.274	0.00209542
409.487	0.00218467
409.7	0.00202283
409.912	0.00160843
410.125	0.00139951
410.338	0.00147314
410.551	0.00150539
410.764	0.00167866
410.976	0.00165326
411.189	0.0016426
411.402	0.00165254
411.615	0.0019651
411.827	0.00217393
412.04	0.00217912
412.253	0.00201943
412.465	0.00194847
412.678	0.00191808
412.891	0.00198167
413.103	0.00159467
413.316	0.00141651
413.529	0.00162705
413.741	0.00159124
413.954	0.00142341
414.166	0.00142416
414.379	0.00135705
414.591	0.0014577
414.804	0.00138351
415.016	0.00123056
415.229	0.00138873
415.441	0.00161736
415.654	0.00146272
415.866	0.00165998
416.079	0.00169787
416.291	0.00174581
416.504	0.0018577
416.716	0.00165203
416.928	0.00144684
417.141	0.00148318
417.353	0.00137696
417.566	0.00148083
417.778	0.00156391
417.99	0.00127288
418.203	0.00143757
418.415	0.00138518
418.627	0.00119194
418.839	0.00112146
419.052	0.00114063
419.264	0.00107476
419.476	0.00130441
419.688	0.00145088
419.901	0.00159945
420.113	0.00170068
420.325	0.00171844
420.537	0.00176606
420.749	0.00178118
420.961	0.00172333
421.174	0.00167527
421.386	0.00172181
421.598	0.00191102
421.81	0.00164416
422.022	0.00169971
422.234	0.00147681
422.446	0.0015174
422.658	0.00135539
422.87	0.0013662
423.082	0.00145643
423.294	0.00180259
423.506	0.00158523
423.718	0.00162724
423.93	0.00154922
424.142	0.00134776
424.354	0.00126096
424.566	0.00116934
424.778	0.00109811
424.99	0.00096062
425.202	0.00103598
425.414	0.00093531
425.625	0.00113077
425.837	0.00120736
426.049	0.00104832
426.261	0.00100345
426.473	0.00103402
426.684	0.00098279
426.896	0.00109324
427.108	0.00104225
427.32	0.00091382
427.531	0.00094207
427.743	0.00080175
427.955	0.00074615
428.167	0.00083017
428.378	0.00073945
428.59	0.00074115
428.802	0.00075779
429.013	0.00064561
429.225	0.00057029
429.436	0.00075951
429.648	0.00069237
429.86	0.00071516
430.071	0.00068184
430.283	0.00077792
430.494	0.00091511
430.706	0.00104791
430.917	0.00101509
431.129	0.00087294
431.34	0.00087408
431.552	0.00092457
431.763	0.00089545
431.975	0.00092006
432.186	0.00101004
432.398	0.00078611
432.609	0.00100018
432.821	0.00090706
433.032	0.00084164
433.243	0.00079258
433.455	0.00076986
433.666	0.00065697
433.877	0.00082706
434.089	0.00086858
434.3	0.00098313
434.511	0.00094062
434.723	0.00079344
434.934	0.00082954
435.145	0.0009678
435.356	0.00100157
435.568	0.00101197
435.779	0.00110973
435.99	0.0011135
436.201	0.00130443
436.412	0.00122433
436.624	0.00108822
436.835	0.00112967
437.046	0.00103957
437.257	0.00086551
437.468	0.00094973
437.679	0.00079629
437.89	0.00081839
438.101	0.00077374
438.312	0.00058579
438.523	0.00061835
438.734	0.00065684
438.945	0.00062317
439.156	0.00068829
439.367	0.00063259
439.578	0.00075143
439.789	0.00088787
440	0.00082126
440.211	0.00069931
440.422	0.00080095
440.633	0.00070575
440.844	0.00078379
441.055	0.00063298
441.266	0.00057132
441.477	0.00046927
441.687	0.00062327
441.898	0.00058405
442.109	0.00062316
442.32	0.00047676
442.531	0.00050534
442.741	0.00048082
442.952	0.00044441
443.163	0.00031956
443.374	0.00025307
443.584	0.0003653
443.795	0.00034772
444.006	0.00023977
444.216	0.00027628
444.427	0.00032976
444.638	0.00036043
444.848	0.00044345
445.059	0.00045596
445.27	0.00047439
445.48	0.0005811
445.691	0.00066199
445.901	0.00065074
446.112	0.00065897
446.323	0.00055914
446.533	0.00042123
446.744	0.00035571
446.954	0.00034523
447.165	0.00028005
447.375	0.00029847
447.586	0.00014689
447.796	0.00013088
448.006	0.00027825
448.217	0.00039609
448.427	0.00031134
448.638	0.00027625
448.848	0.0003277
449.058	0.00040239
449.269	0.00044749
449.479	0.00030289
449.689	0.00032306
449.9	0.00041064
450.11	0.00034191
450.32	0.000385
450.531	0.00045635
450.741	0.00051199
450.951	0.00061333
451.161	0.00069479
451.372	0.00071111
451.582	0.00077949
451.792	0.00079608
452.002	0.00081131
452.212	0.00071557
452.422	0.00064875
452.633	0.00060882
452.843	0.00063827
453.053	0.00057005
453.263	0.00039681
453.473	0.00032238
453.683	0.0003114
453.893	0.00027568
454.103	0.00010881
454.313	0.00010418
454.523	0.00013827
454.733	0.00024644
454.943	0.00035004
455.153	0.00038347
455.363	0.00042136
455.573	0.00054614
455.783	0.00066646
455.993	0.0006258
456.203	0.00061732
456.413	0.00060662
456.623	0.00058982
456.833	0.00064724
457.042	0.00054401
457.252	0.00044134
457.462	0.00055836
457.672	0.00058755
457.882	0.00057216
458.091	0.00057656
458.301	0.00053372
458.511	0.00060383
458.721	0.00055176
458.931	0.00058724
459.14	0.00044668
459.35	0.00036559
459.56	0.0003446
459.769	0.00032085
459.979	0.00039392
460.189	0.00046164
460.398	0.00030402
460.608	0.00042376
460.817	0.00057121
461.027	0.00069431
461.237	0.00074544
461.446	0.00073003
461.656	0.00064666
461.865	0.00071809
462.075	0.00064903
462.284	0.00053023
462.494	0.00052224
462.703	0.00046299
462.913	0.00043354
463.122	0.00040493
463.332	0.00040804
463.541	0.00050803
463.751	0.00051142
463.96	0.00034237
464.169	0.00040849
464.379	0.00042149
464.588	0.00049623
464.797	0.00050594
465.007	0.00051071
465.216	0.0005581
465.425	0.00067251
465.635	0.00058511
465.844	0.00054006
466.053	0.00052772
466.263	0.00042681
466.472	0.00043383
466.681	0.00050183
466.89	0.00058063
467.099	0.00065427
467.309	0.00070675
467.518	0.00069082
467.727	0.00085205
467.936	0.00090268
468.145	0.00085995
468.354	0.00073323
468.563	0.00075207
468.772	0.0008237
468.982	0.00093607
469.191	0.00091353
469.4	0.00077969
469.609	0.00073797
469.818	0.00079173
470.027	0.00077678
470.236	0.00066952
470.445	0.00059574
470.654	0.00059006
470.863	0.00068106
471.072	0.00072188
471.28	0.00069309
471.489	0.00062629
471.698	0.00066728
471.907	0.00075106
472.116	0.00070045
472.325	0.0006647
472.534	0.00069944
472.743	0.00065324
472.951	0.00075833
473.16	0.00080394
473.369	0.00071041
473.578	0.00079995
473.786	0.00082902
473.995	0.00080233
474.204	0.0008665
474.413	0.00090133
474.621	0.00090758
474.83	0.00102897
475.039	0.00106541
475.247	0.00106401
475.456	0.00112063
475.665	0.00115295
475.873	0.00110816
476.082	0.00107927
476.291	0.00102455
476.499	0.00104821
476.708	0.00099756
476.916	0.00105397
477.125	0.00107528
477.333	0.00108909
477.542	0.0011456
477.75	0.00116241
477.959	0.00111185
478.167	0.0011917
478.376	0.00106193
478.584	0.0011462
478.793	0.00113051
479.001	0.0010489
479.209	0.00108813
479.418	0.00108861
479.626	0.00115781
479.834	0.00122186
480.043	0.00115602
480.251	0.00115021
480.459	0.00127557
480.668	0.00121783
480.876	0.00121899
481.084	0.0012187
481.293	0.00126353
481.501	0.00132393
481.709	0.00138802
481.917	0.00134249
482.125	0.00137878
482.334	0.00143747
482.542	0.00142486
482.75	0.00144667
482.958	0.00146581
483.166	0.00150876
483.374	0.00150005
483.583	0.00158738
483.791	0.00157886
483.999	0.0015706
484.207	0.00155699
484.415	0.00157743
484.623	0.0015537
484.831	0.00158938
485.039	0.00153628
485.247	0.00155481
485.455	0.00159504
485.663	0.00165721
485.871	0.0016287
486.079	0.00166863
486.287	0.00166604
486.495	0.00176676
486.702	0.00183817
486.91	0.00185219
487.118	0.00178636
487.326	0.00182469
487.534	0.00179574
487.742	0.00189199
487.95	0.00181871
488.157	0.00177664
488.365	0.00176568
488.573	0.00185465
488.781	0.00183064
488.988	0.00190025
489.196	0.0018616
489.404	0.00198722
489.612	0.00202812
489.819	0.00205686
490.027	0.00204615
490.235	0.00210887
490.442	0.00214901
490.65	0.00224934
490.857	0.00218654
491.065	0.00220769
491.273	0.00223926
491.48	0.00226301
491.688	0.00224246
491.895	0.00229995
492.103	0.0022682
492.31	0.00228589
492.518	0.00232772
492.725	0.00238045
492.933	0.00247769
493.14	0.00256764
493.348	0.00252892
493.555	0.00262144
493.763	0.00268282
493.97	0.00271483
494.177	0.00274088
494.385	0.0027067
494.592	0.002726
494.8	0.00277943
495.007	0.00280166
495.214	0.00281337
495.422	0.00287355
495.629	0.00289218
495.836	0.00292077
496.043	0.00295792
496.251	0.00298335
496.458	0.00300106
496.665	0.0030529
496.872	0.0029906
497.08	0.00305657
497.287	0.00310724
497.494	0.00316737
497.701	0.00321103
497.908	0.0032164
498.115	0.00319762
498.322	0.00326246
498.53	0.00324113
498.737	0.00327099
498.944	0.00326169
499.151	0.00329999
499.358	0.00334392
499.565	0.00342783
499.772	0.00345913
499.979	0.0035616
500.186	0.00360321
500.393	0.00361826
500.6	0.00360182
500.807	0.00361049
501.014	0.00362911
501.221	0.00366698
501.427	0.00369399
501.634	0.00372431
501.841	0.00378006
502.048	0.0038552
502.255	0.00388273
502.462	0.00389789
502.669	0.00395507
502.875	0.00401325
503.082	0.0039925
503.289	0.00400891
503.496	0.0040243
503.702	0.00403422
503.909	0.00406669
504.116	0.00403715
504.323	0.00401248
504.529	0.00412277
504.736	0.00416937
504.943	0.00422094
505.149	0.00432389
505.356	0.00438339
505.563	0.00446303
505.769	0.00453388
505.976	0.00452045
506.182	0.0045604
506.389	0.00459371
506.595	0.00458313
506.802	0.00465619
507.008	0.00473578
507.215	0.00475865
507.421	0.00482078
507.628	0.00487745
507.834	0.00491318
508.041	0.00504376
508.247	0.00505672
508.454	0.00509391
508.66	0.00512206
508.866	0.0052013
509.073	0.00521989
509.279	0.00525086
509.486	0.00524221
509.692	0.00528834
509.898	0.00536682
510.105	0.00543755
510.311	0.00547154
510.517	0.00550862
510.723	0.00553301
510.93	0.00556658
511.136	0.00556875
511.342	0.00554668
511.548	0.00555853
511.754	0.00563078
511.961	0.00569583
512.167	0.00577168
512.373	0.00583359
512.579	0.00593276
512.785	0.00598325
512.991	0.00601715
513.197	0.00602281
513.404	0.00604205
513.61	0.00610369
513.816	0.00614974
514.022	0.00617596
514.228	0.00628256
514.434	0.00636746
514.64	0.00641021
514.846	0.00648658
515.052	0.00655535
515.258	0.0065911
515.464	0.00665946
515.669	0.00668135
515.875	0.00672337
516.081	0.00679174
516.287	0.00685271
516.493	0.0069209
516.699	0.00695371
516.905	0.00704612
517.111	0.00709932
517.316	0.00716242
517.522	0.00727129
517.728	0.00736561
517.934	0.00737672
518.139	0.00743371
518.345	0.00743965
518.551	0.00748819
518.757	0.00757138
518.962	0.00756549
519.168	0.00760107
519.374	0.00769512
519.579	0.00777934
519.785	0.00786396
519.991	0.00793181
520.196	0.00799219
520.402	0.00812222
520.607	0.00818913
520.813	0.00824198
521.018	0.00834956
521.224	0.00841692
521.429	0.00847598
521.635	0.00851669
521.84	0.00853431
522.046	0.00858024
522.251	0.0085933
522.457	0.00862745
522.662	0.00875125
522.868	0.00887911
523.073	0.00895282
523.279	0.00903617
523.484	0.00914411
523.689	0.00928917
523.895	0.00937298
524.1	0.00936282
524.305	0.0093403
524.511	0.00942577
524.716	0.00947525
524.921	0.00952274
525.126	0.00954817
525.332	0.00959819
525.537	0.00967738
525.742	0.00975285
525.947	0.00980209
526.153	0.00984856
526.358	0.00999474
526.563	0.01014126
526.768	0.01021979
526.973	0.01032804
527.178	0.01045979
527.383	0.01055788
527.588	0.01068575
527.794	0.01073183
527.999	0.01075791
528.204	0.01086828
528.409	0.01088743
528.614	0.01096749
528.819	0.01105777
529.024	0.01111739
529.229	0.01116409
529.434	0.01128
529.639	0.01133412
529.843	0.01145797
530.048	0.01156472
530.253	0.01162851
530.458	0.0117223
530.663	0.0118045
530.868	0.01186893
531.073	0.01196231
531.278	0.0120623
531.482	0.01217866
531.687	0.01233294
531.892	0.01241113
532.097	0.01255484
532.302	0.01265705
532.506	0.0127915
532.711	0.01288427
532.916	0.01293899
533.12	0.01301105
533.325	0.01311258
533.53	0.013181
533.734	0.0133049
533.939	0.01342083
534.144	0.01356477
534.348	0.01369855
534.553	0.0137931
534.757	0.01389562
534.962	0.01398158
535.167	0.01404944
535.371	0.01407233
535.576	0.01414534
535.78	0.01420125
535.985	0.0142642
536.189	0.01440351
536.394	0.014557
536.598	0.01468062
536.803	0.01484564
537.007	0.01494332
537.211	0.01504635
537.416	0.01516883
537.62	0.01525378
537.825	0.01536839
538.029	0.01554796
538.233	0.01567399
538.438	0.01580884
538.642	0.0159414
538.846	0.01608441
539.05	0.01620531
539.255	0.01629008
539.459	0.01630358
539.663	0.01636258
539.867	0.01646168
540.072	0.01659788
540.276	0.01673371
540.48	0.01682667
540.684	0.0169415
540.888	0.01712366
541.092	0.01726263
541.297	0.01743113
541.501	0.01754302
541.705	0.01766121
541.909	0.01784417
542.113	0.01794419
542.317	0.01810129
542.521	0.01825681
542.725	0.01839188
542.929	0.01857952
543.133	0.01870747
543.337	0.01884233
543.541	0.01901562
543.745	0.01913488
543.949	0.01930195
544.153	0.01942242
544.357	0.01948939
544.56	0.01965674
544.764	0.01979915
544.968	0.01992911
545.172	0.02005192
545.376	0.02017004
545.58	0.02031136
545.783	0.02048583
545.987	0.0206035
546.191	0.02071372
546.395	0.02084507
546.598	0.02097342
546.802	0.02110173
547.006	0.02122912
547.21	0.02135543
547.413	0.02147406
547.617	0.02164132
547.821	0.02181744
548.024	0.02193899
548.228	0.02206552
548.431	0.02223735
548.635	0.02237505
548.839	0.02254371
549.042	0.02265457
549.246	0.02275787
549.449	0.02295684
549.653	0.02315259
549.856	0.02329423
550.06	0.02349139
550.263	0.02364646
550.467	0.02381865
550.67	0.02399397
550.874	0.02415353
551.077	0.02429864
551.28	0.02446548
551.484	0.02456353
551.687	0.02468569
551.891	0.02482134
552.094	0.02498481
552.297	0.0251368
552.501	0.0252857
552.704	0.0254099
552.907	0.02559138
553.11	0.02581443
553.314	0.02604709
553.517	0.02623458
553.72	0.02640814
553.923	0.02662694
554.127	0.02677861
554.33	0.02694462
554.533	0.02711545
554.736	0.02725983
554.939	0.02736633
555.142	0.02750323
555.345	0.0276381
555.549	0.02783167
555.752	0.02802353
555.955	0.02815127
556.158	0.02831143
556.361	0.02854495
556.564	0.02873959
556.767	0.02891177
556.97	0.02912362
557.173	0.02924619
557.376	0.0294372
557.579	0.02964163
557.782	0.0298287
557.984	0.0300404
558.187	0.03027039
558.39	0.03043512
558.593	0.03069491
558.796	0.03091513
558.999	0.03112389
559.202	0.0313219
559.404	0.03145128
559.607	0.03159302
559.81	0.03177401
560.013	0.03196866
560.216	0.03216557
560.418	0.03235214
560.621	0.03252913
560.824	0.03274732
561.026	0.0329474
561.229	0.03312914
561.432	0.03328889
561.634	0.03345034
561.837	0.03363017
562.04	0.03382056
562.242	0.03400253
562.445	0.03418555
562.647	0.03445265
562.85	0.03467737
563.053	0.03493437
563.255	0.03515796
563.458	0.03542602
563.66	0.03565103
563.863	0.03591236
564.065	0.03609679
564.268	0.03632181
564.47	0.036497
564.672	0.03669668
564.875	0.03683189
565.077	0.03709692
565.28	0.03729709
565.482	0.03753624
565.684	0.03773029
565.887	0.03790158
566.089	0.03813095
566.291	0.03841775
566.494	0.03859297
566.696	0.0387803
566.898	0.03898634
567.1	0.03922891
567.303	0.03949438
567.505	0.03967197
567.707	0.03985643
567.909	0.04007175
568.111	0.04032053
568.314	0.04052638
568.516	0.04073642
568.718	0.04098521
568.92	0.04130153
569.122	0.04151268
569.324	0.04178049
569.526	0.04196478
569.728	0.04222426
569.93	0.04244898
570.132	0.0426655
570.334	0.04283597
570.536	0.04304568
570.738	0.04324636
570.94	0.04345605
571.142	0.0436805
571.344	0.04388987
571.546	0.04410077
571.748	0.04432521
571.95	0.04458914
572.152	0.04483461
572.354	0.04514763
572.555	0.04538893
572.757	0.04565634
572.959	0.04593036
573.161	0.04617995
573.363	0.04639661
573.564	0.04663129
573.766	0.04684356
573.968	0.04708264
574.17	0.0473286
574.371	0.04758421
574.573	0.04781524
574.775	0.04803805
574.976	0.04824858
575.178	0.0485173
575.38	0.04872147
575.581	0.04893608
575.783	0.04916016
575.985	0.04943906
576.186	0.04975326
576.388	0.05001845
576.589	0.05023103
576.791	0.05053843
576.992	0.05081768
577.194	0.05107653
577.395	0.05134493
577.597	0.0515904
577.798	0.0518614
578	0.0521177
578.201	0.05235243
578.402	0.05259856
578.604	0.05284023
578.805	0.05305523
579.007	0.05329457
579.208	0.05356164
579.409	0.05382667
579.611	0.05407132
579.812	0.05432244
580.013	0.05459171
580.215	0.05483485
580.416	0.05507878
580.617	0.05531853
580.818	0.05556221
581.019	0.05579223
581.221	0.05606151
581.422	0.05632695
581.623	0.05658829
581.824	0.05684712
582.025	0.05711983
582.226	0.05740219
582.428	0.05772198
582.629	0.05801705
582.83	0.05829157
583.031	0.05857263
583.232	0.05890691
583.433	0.05920403
583.634	0.05945215
583.835	0.05969901
584.036	0.05989169
584.237	0.06012969
584.438	0.06040642
584.639	0.06063848
584.84	0.06092055
585.041	0.0611923
585.242	0.06148276
585.442	0.06178345
585.643	0.06204009
585.844	0.06228796
586.045	0.06254141
586.246	0.06273774
586.447	0.06303566
586.647	0.0632601
586.848	0.06353034
587.049	0.06382428
587.25	0.06407279
587.45	0.06433593
587.651	0.06460894
587.852	0.0648451
588.053	0.06511136
588.253	0.06540072
588.454	0.0656185
588.655	0.06588996
588.855	0.06613074
589.056	0.0664169
589.256	0.06668902
589.457	0.06693428
589.658	0.06724512
589.858	0.06751544
590.059	0.06780119
590.259	0.06810945
590.46	0.06840703
590.66	0.0686665
590.861	0.0689872
591.061	0.06918659
591.262	0.06952015
591.462	0.06980701
591.662	0.07006619
591.863	0.07029685
592.063	0.07056073
592.264	0.07082934
592.464	0.07111198
592.664	0.07132682
592.865	0.07159678
593.065	0.07184703
593.265	0.07209991
593.465	0.07240387
593.666	0.07267514
593.866	0.07293561
594.066	0.07328631
594.266	0.0735426
594.467	0.07382628
594.667	0.07409624
594.867	0.07438072
595.067	0.07463895
595.267	0.07488485
595.467	0.07510231
595.668	0.07536237
595.868	0.07566767
596.068	0.07598504
596.268	0.07623573
596.468	0.07649964
596.668	0.07682995
596.868	0.07712851
597.068	0.07736875
597.268	0.07764654
597.468	0.07789532
597.668	0.07816632
597.868	0.07843817
598.068	0.07869677
598.268	0.07891102
598.467	0.07921888
598.667	0.07942534
598.867	0.07972097
599.067	0.07997327
599.267	0.08020818
599.467	0.08039564
599.667	0.08066611
599.866	0.08095977
600.066	0.08125166
600.266	0.08152185
600.466	0.08182087
600.665	0.08207643
600.865	0.08240585
601.065	0.08270286
601.264	0.08292619
601.464	0.08318084
601.664	0.08341838
601.863	0.08368132
602.063	0.08397828
602.263	0.0841963
602.462	0.08446122
602.662	0.08473819
602.861	0.08501348
603.061	0.08522953
603.26	0.08546429
603.46	0.08566643
603.659	0.08595965
603.859	0.08615282
604.058	0.08637961
604.258	0.08666236
604.457	0.08701252
604.657	0.08725193
604.856	0.08748595
605.056	0.08775031
605.255	0.08805312
605.454	0.08834167
605.654	0.08853024
605.853	0.0887293
606.052	0.08899059
606.252	0.08929472
606.451	0.08955969
606.65	0.08979955
606.849	0.08995481
607.049	0.09024583
607.248	0.09048022
607.447	0.09072971
607.646	0.09099809
607.845	0.09127608
608.045	0.09150186
608.244	0.09182223
608.443	0.09206382
608.642	0.09237667
608.841	0.09260526
609.04	0.09282398
609.239	0.09303749
609.438	0.09325456
609.637	0.09354147
609.836	0.09378453
610.035	0.09396465
610.234	0.0942451
610.433	0.0944842
610.632	0.09471748
610.831	0.09507373
611.03	0.09528052
611.229	0.09555868
611.428	0.09581053
611.627	0.0960571
611.826	0.09637758
612.025	0.09669929
612.224	0.09691238
612.422	0.0971724
612.621	0.09742098
612.82	0.09765048
613.019	0.09786849
613.218	0.09809176
613.416	0.09822635
613.615	0.09845839
613.814	0.098701
614.012	0.09891156
614.211	0.09915516
614.41	0.09941262
614.608	0.09962562
614.807	0.09987287
615.006	0.10012623
615.204	0.10035601
615.403	0.10061165
615.602	0.1008745
615.8	0.10115302
615.999	0.10135076
616.197	0.10157531
616.396	0.1018338
616.594	0.10205543
616.793	0.10230878
616.991	0.10252219
617.19	0.10266177
617.388	0.10297827
617.586	0.10325884
617.785	0.1034384
617.983	0.10366002
618.182	0.10385321
618.38	0.10408032
618.578	0.10437803
618.777	0.10457331
618.975	0.10481728
619.173	0.10510082
619.372	0.10535687
619.57	0.10557211
619.768	0.1058193
619.966	0.10604084
620.165	0.10623756
620.363	0.10645135
620.561	0.10658565
620.759	0.10683945
620.957	0.10710798
621.155	0.10738378
621.354	0.10759963
621.552	0.10789289
621.75	0.10806248
621.948	0.10834656
622.146	0.10853076
622.344	0.10872731
622.542	0.10893147
622.74	0.10917542
622.938	0.10933812
623.136	0.10964261
623.334	0.10987492
623.532	0.11001731
623.73	0.11020737
623.928	0.11041263
624.126	0.11061535
624.324	0.11091743
624.522	0.11106242
624.719	0.11120797
624.917	0.11149631
625.115	0.11170653
625.313	0.1119218
625.511	0.11216688
625.708	0.11225784
625.906	0.11245512
626.104	0.11269369
626.302	0.11291458
626.499	0.11311373
626.697	0.11333389
626.895	0.11346531
627.093	0.1137319
627.29	0.11398685
627.488	0.11423188
627.686	0.11445856
627.883	0.11463435
628.081	0.11474567
628.278	0.11506469
628.476	0.11524838
628.673	0.11548088
628.871	0.11567249
629.068	0.11587417
629.266	0.11618379
629.463	0.11643204
629.661	0.11661788
629.858	0.11678326
630.056	0.11697116
630.253	0.11713173
630.451	0.11735182
630.648	0.11753552
630.845	0.11772511
631.043	0.11792268
631.24	0.11818126
631.438	0.11838509
631.635	0.11864731
631.832	0.11874339
632.029	0.11892517
632.227	0.11912741
632.424	0.11930619
632.621	0.11946684
632.818	0.11961479
633.016	0.11980237
633.213	0.12001026
633.41	0.12023311
633.607	0.12043838
633.804	0.12060953
634.001	0.12077833
634.199	0.12103648
634.396	0.12121591
634.593	0.12142467
634.79	0.12162231
634.987	0.12186997
635.184	0.12205592
635.381	0.12232437
635.578	0.12251127
635.775	0.12271196
635.972	0.12290401
636.169	0.12306556
636.366	0.12315946
636.563	0.12332483
636.76	0.12342217
636.957	0.12360735
637.153	0.12374207
637.35	0.12398241
637.547	0.12417518
637.744	0.12441846
637.941	0.12465386
638.138	0.12492351
638.334	0.12505874
638.531	0.12528711
638.728	0.12542623
638.925	0.12562198
639.121	0.12579584
639.318	0.12593593
639.515	0.12609695
639.711	0.12630774
639.908	0.1264108
640.105	0.12662746
640.301	0.12680565
640.498	0.12694328
640.695	0.12720071
640.891	0.12735408
641.088	0.1275475
641.284	0.12783851
641.481	0.12802389
641.677	0.12820901
641.874	0.12841267
642.07	0.1286061
642.267	0.12887033
642.463	0.12903573
642.66	0.12919317
642.856	0.1293528
643.053	0.12945545
643.249	0.12965201
643.445	0.12979012
643.642	0.12990298
643.838	0.13010263
644.034	0.13029045
644.231	0.13046599
644.427	0.13071518
644.623	0.13088558
644.82	0.13105988
645.016	0.13122137
645.212	0.13133206
645.408	0.13151663
645.604	0.13176599
645.801	0.13196479
645.997	0.13214247
646.193	0.13228229
646.389	0.13257396
646.585	0.13282858
646.781	0.13301719
646.977	0.13319028
647.173	0.1333249
647.37	0.13343364
647.566	0.1336734
647.762	0.13380751
647.958	0.13399083
648.154	0.1341367
648.35	0.13425758
648.546	0.13441557
648.742	0.13470785
648.937	0.13478585
649.133	0.13492943
649.329	0.13512766
649.525	0.13532833
649.721	0.13550306
649.917	0.13576603
650.113	0.13588558
650.309	0.13610278
650.504	0.1362308
650.7	0.13634788
650.896	0.13651042
651.092	0.1367004
651.287	0.13682958
651.483	0.13705052
651.679	0.13721666
651.875	0.13748177
652.07	0.13764862
652.266	0.13785326
652.462	0.13802009
652.657	0.13816582
652.853	0.13829964
653.048	0.13848936
653.244	0.13854095
653.44	0.13869516
653.635	0.13879287
653.831	0.13896094
654.026	0.13916291
654.222	0.13936246
654.417	0.13959752
654.613	0.13985024
654.808	0.13999765
655.004	0.14019762
655.199	0.14034147
655.394	0.1404938
655.59	0.14066837
655.785	0.14073616
655.98	0.1409457
656.176	0.1411606
656.371	0.14140823
656.566	0.14164663
656.762	0.14183024
656.957	0.14202146
657.152	0.14225911
657.348	0.14245234
657.543	0.1426823
657.738	0.14283268
657.933	0.142952
658.128	0.14312416
658.324	0.14323824
658.519	0.14340816
658.714	0.14352206
658.909	0.14363387
659.104	0.1437437
659.299	0.14391897
659.494	0.14404854
659.689	0.1442521
659.884	0.14439454
660.079	0.1445459
660.274	0.14473961
660.469	0.1449457
660.664	0.14518248
660.859	0.14538835
661.054	0.14559172
661.249	0.14576054
661.444	0.14597547
661.639	0.14610953
661.834	0.14623164
662.029	0.14637567
662.224	0.14654176
662.418	0.14670695
662.613	0.14693481
662.808	0.14706405
663.003	0.14726304
663.198	0.14749149
663.392	0.14765263
663.587	0.14792384
663.782	0.14810147
663.977	0.1482888
664.171	0.14851395
664.366	0.14872127
664.561	0.14894985
664.755	0.14921283
664.95	0.14933989
665.144	0.14951026
665.339	0.1497209
665.534	0.14990122
665.728	0.15016833
665.923	0.1503511
666.117	0.15048061
666.312	0.15062704
666.506	0.1508609
666.701	0.15099715
666.895	0.15118621
667.09	0.15130672
667.284	0.15148628
667.479	0.1517011
667.673	0.15188965
667.867	0.15210396
668.062	0.15233607
668.256	0.15252957
668.45	0.15274411
668.645	0.15289416
668.839	0.15305781
669.033	0.15329797
669.228	0.15345153
669.422	0.15363223
669.616	0.15382201
669.81	0.15399627
670.004	0.15416475
670.199	0.15439351
670.393	0.15458852
670.587	0.15481973
670.781	0.15499198
670.975	0.15519636
671.169	0.15531961
671.363	0.15549553
671.558	0.1556283
671.752	0.15583651
671.946	0.15600875
672.14	0.15614888
672.334	0.15628528
672.528	0.15659628
672.722	0.15676772
672.916	0.15700263
673.11	0.15715767
673.304	0.15738873
673.497	0.15762339
673.691	0.15795595
673.885	0.15812191
674.079	0.15847292
674.273	0.15867419
674.467	0.15887062
674.661	0.15904002
674.854	0.15931239
675.048	0.15943338
675.242	0.15963308
675.436	0.15974181
675.629	0.15995227
675.823	0.1601795
676.017	0.16040111
676.211	0.1605511
676.404	0.16078698
676.598	0.16097958
676.792	0.16120061
676.985	0.16141817
677.179	0.16161852
677.372	0.16180013
677.566	0.16207653
677.76	0.16226447
677.953	0.16246163
678.147	0.1626872
678.34	0.16289725
678.534	0.16307708
678.727	0.16329071
678.921	0.16347728
679.114	0.16366682
679.307	0.16390617
679.501	0.16416906
679.694	0.16439275
679.888	0.16464041
680.081	0.16487289
680.274	0.16505066
680.468	0.1652757
680.661	0.16543069
680.854	0.16565227
681.048	0.16585616
681.241	0.16608224
681.434	0.16622862
681.627	0.16643636
681.821	0.16667747
682.014	0.16696727
682.207	0.16708155
682.4	0.16725477
682.593	0.16744321
682.786	0.1676763
682.98	0.16786945
683.173	0.16811685
683.366	0.16832813
683.559	0.16857775
683.752	0.16881594
683.945	0.16906309
684.138	0.16930668
684.331	0.16954289
684.524	0.16982186
684.717	0.17001214
684.91	0.1703083
685.103	0.17053929
685.296	0.17074593
685.489	0.17096607
685.682	0.17118227
685.874	0.17136089
686.067	0.17161653
686.26	0.17180325
686.453	0.17198914
686.646	0.17222288
686.839	0.17249304
687.031	0.1727415
687.224	0.17288204
687.417	0.17312108
687.61	0.173341
687.802	0.17359669
687.995	0.17386876
688.188	0.17406749
688.38	0.17426865
688.573	0.17452537
688.766	0.174712
688.958	0.1749291
689.151	0.17514935
689.343	0.17538916
689.536	0.17559715
689.729	0.17583953
689.921	0.17609258
690.114	0.17631557
690.306	0.17656808
690.499	0.17682217
690.691	0.17703355
690.884	0.17728223
691.076	0.17759775
691.268	0.17779832
691.461	0.17799897
691.653	0.17819142
691.846	0.17847463
692.038	0.1786732
692.23	0.17888157
692.423	0.17907661
692.615	0.17936549
692.807	0.17963174
692.999	0.17994347
693.192	0.18011525
693.384	0.18038077
693.576	0.18064584
693.768	0.18091405
693.961	0.1810671
694.153	0.18132876
694.345	0.18148118
694.537	0.18172329
694.729	0.18193237
694.921	0.18208513
695.113	0.18229235
695.305	0.18254879
695.498	0.1827033
695.69	0.18298131
695.882	0.18314423
696.074	0.18341497
696.266	0.18371032
696.458	0.18389124
696.65	0.18409927
696.842	0.18440114
697.033	0.18463175
697.225	0.18490725
697.417	0.18517692
697.609	0.1854048
697.801	0.18565468
697.993	0.18596778
698.185	0.18620519
698.376	0.18642785
698.568	0.18667923
698.76	0.18687514
698.952	0.18713668
699.144	0.18740432
699.335	0.1876008
699.527	0.18787478
699.719	0.18817379
699.91	0.18845434
700.102	0.18866971
700.294	0.18894104
700.485	0.18921787
700.677	0.18954328
700.869	0.1898463
701.06	0.19011658
701.252	0.19036702
701.443	0.19064619
701.635	0.19080377
701.826	0.19103922
702.018	0.19121357
702.209	0.19135114
702.401	0.19148215
702.592	0.19171439
702.784	0.19193158
702.975	0.19222018
703.166	0.19241227
703.358	0.19263729
703.549	0.19294689
703.741	0.19324189
703.932	0.19345547
704.123	0.19374767
704.315	0.19402339
704.506	0.19437098
704.697	0.19463656
704.888	0.19487325
705.08	0.19509865
705.271	0.1953608
705.462	0.19554179
705.653	0.19578677
705.844	0.19595786
706.035	0.19625919
706.227	0.19650097
706.418	0.19674872
706.609	0.19699283
706.8	0.19735229
706.991	0.19762006
707.182	0.19783559
707.373	0.1980416
707.564	0.19830399
707.755	0.19850573
707.946	0.19880418
708.137	0.19897955
708.328	0.19916815
708.519	0.19945953
708.71	0.19971146
708.901	0.19988645
709.092	0.20019171
709.283	0.20033683
709.473	0.20058954
709.664	0.20082753
709.855	0.20103092
710.046	0.20128983
710.237	0.20159396
710.427	0.20185844
710.618	0.20216335
710.809	0.20241292
711	0.202724
711.19	0.20289402
711.381	0.20316403
711.572	0.20336466
711.762	0.20361492
711.953	0.20379271
712.144	0.20401836
712.334	0.20420778
712.525	0.2045948
712.715	0.2047994
712.906	0.20500369
713.097	0.2051648
713.287	0.20544615
713.478	0.20562566
713.668	0.20594101
713.859	0.20617939
714.049	0.20640861
714.239	0.20675265
714.43	0.2070744
714.62	0.20732577
714.811	0.2076112
715.001	0.20784965
715.191	0.20801596
715.382	0.20822396
715.572	0.20843816
715.762	0.20862544
715.953	0.20892088
716.143	0.20922488
716.333	0.20940204
716.523	0.20967681
716.714	0.21000681
716.904	0.21022232
717.094	0.21050169
717.284	0.21068658
717.474	0.21089285
717.664	0.21114651
717.855	0.21136429
718.045	0.21151961
718.235	0.21177268
718.425	0.21206964
718.615	0.21237993
718.805	0.21261958
718.995	0.21286844
719.185	0.21314772
719.375	0.21347347
719.565	0.213761
719.755	0.21394631
719.945	0.21413888
720.135	0.21440649
720.325	0.21466028
720.515	0.2149539
720.704	0.21520035
720.894	0.21545511
721.084	0.21575577
721.274	0.21607139
721.464	0.21632849
721.654	0.2166157
721.843	0.21679195
722.033	0.21701845
722.223	0.21720419
722.413	0.21750073
722.602	0.21770804
722.792	0.21797454
722.982	0.21821666
723.171	0.21850688
723.361	0.2187489
723.55	0.2191222
723.74	0.21932569
723.93	0.21954555
724.119	0.21975771
724.309	0.21991248
724.498	0.22012497
724.688	0.22041627
724.877	0.2205512
725.067	0.22065871
725.256	0.22085885
725.446	0.22107022
725.635	0.22130417
725.825	0.2215438
726.014	0.2216974
726.203	0.22193764
726.393	0.22221828
726.582	0.22243849
726.771	0.22262403
726.961	0.22279729
727.15	0.22293978
727.339	0.22309051
727.529	0.2232369
727.718	0.22333471
727.907	0.22352796
728.096	0.22372095
728.286	0.22399068
728.475	0.22421609
728.664	0.22445927
728.853	0.22465675
729.042	0.22491619
729.231	0.22512449
729.42	0.22524944
729.609	0.22537283
729.799	0.22550545
729.988	0.22572077
730.177	0.22588435
730.366	0.22607079
730.555	0.22617642
730.744	0.22638959
730.933	0.22659672
731.122	0.22678614
731.31	0.22685247
731.499	0.22700898
731.688	0.22711694
731.877	0.22725824
732.066	0.22740796
732.255	0.22756543
732.444	0.22775513
732.632	0.22799731
732.821	0.22815654
733.01	0.2283923
733.199	0.22854607
733.388	0.22876492
733.576	0.22891115
733.765	0.2290078
733.954	0.22912687
734.142	0.22926374
734.331	0.2294339
734.52	0.22972275
734.708	0.22986796
734.897	0.23003212
735.086	0.23024603
735.274	0.23044014
735.463	0.23056527
735.651	0.2307285
735.84	0.23085373
736.028	0.23099991
736.217	0.23123133
736.405	0.23140052
736.594	0.23148089
736.782	0.23166523
736.971	0.23184332
737.159	0.23198465
737.347	0.23214602
737.536	0.23220331
737.724	0.23236648
737.912	0.23253997
738.101	0.23269155
738.289	0.23279677
738.477	0.23289395
738.666	0.23300222
738.854	0.23314951
739.042	0.23332531
739.23	0.2334568
739.418	0.23362318
739.607	0.23372875
739.795	0.23389308
739.983	0.23408699
740.171	0.23423328
740.359	0.23432199
740.547	0.23440349
740.735	0.23451966
740.923	0.23469218
741.112	0.23483177
741.3	0.23495895
741.488	0.23509553
741.676	0.23523967
741.864	0.23542371
742.052	0.23560107
742.239	0.23568534
742.427	0.23579214
742.615	0.23585538
742.803	0.23595019
742.991	0.23600785
743.179	0.23620076
743.367	0.23637007
743.555	0.23653114
743.742	0.23668207
743.93	0.23689917
744.118	0.23708355
744.306	0.23726314
744.494	0.23738478
744.681	0.23744579
744.869	0.23755867
745.057	0.23768077
745.244	0.23779703
745.432	0.23791834
745.62	0.23802526
745.807	0.23812743
745.995	0.23821722
746.182	0.23829084
746.37	0.23843264
746.558	0.23850552
746.745	0.2385084
746.933	0.23859527
747.12	0.23868814
747.308	0.2388507
747.495	0.23894248
747.683	0.23900923
747.87	0.23911983
748.057	0.23933359
748.245	0.2394901
748.432	0.23959066
748.62	0.23962411
748.807	0.23974195
748.994	0.23985314
749.182	0.23991388
749.369	0.2399087
749.556	0.23994228
749.743	0.23998354
749.931	0.24009435
750.118	0.24016665
750.305	0.24024456
750.492	0.24032768
750.68	0.24052342
750.867	0.24069273
751.054	0.24083408
751.241	0.2408462
751.428	0.24097501
751.615	0.24103921
751.802	0.2411404
751.989	0.24114107
752.176	0.24115953
752.363	0.24121286
752.55	0.24131127
752.737	0.24138789
752.924	0.24142806
753.111	0.24153823
753.298	0.24167241
753.485	0.24174899
753.672	0.241767
753.859	0.24185753
754.046	0.24193074
754.233	0.24206335
754.42	0.2421494
754.606	0.24216223
754.793	0.24218004
754.98	0.24225511
755.167	0.24226872
755.353	0.24231427
755.54	0.24235064
755.727	0.2423188
755.914	0.24238132
756.1	0.24246112
756.287	0.24249433
756.474	0.2425584
756.66	0.24253432
756.847	0.24254975
757.033	0.24256573
757.22	0.24254499
757.407	0.24258996
757.593	0.24261515
757.78	0.24267133
757.966	0.24277843
758.153	0.24286193
758.339	0.24283744
758.526	0.24285824
758.712	0.24284578
758.898	0.24295346
759.085	0.24293415
759.271	0.24294807
759.458	0.24290666
759.644	0.2430165
759.83	0.2431557
760.017	0.24321661
760.203	0.24327177
760.389	0.243363
760.576	0.24336069
760.762	0.24339946
760.948	0.24341314
761.134	0.2433544
761.32	0.24331651
761.507	0.24332559
761.693	0.2434112
761.879	0.24344441
762.065	0.24347416
762.251	0.24348916
762.437	0.24355351
762.623	0.24358301
762.809	0.24356525
762.995	0.24349824
763.181	0.24343592
763.367	0.24344698
763.553	0.24348462
763.739	0.24353634
763.925	0.24359524
764.111	0.24363181
764.297	0.24363679
764.483	0.24363233
764.669	0.24352927
764.855	0.24348535
765.041	0.24341237
765.227	0.24338987
765.412	0.24334205
765.598	0.24334613
765.784	0.24337199
765.97	0.24351786
766.156	0.24352714
766.341	0.24355392
766.527	0.24347565
766.713	0.24337301
766.898	0.24332345
767.084	0.24330703
767.27	0.2431812
767.455	0.24311227
767.641	0.24302964
767.827	0.24302816
768.012	0.243084
768.198	0.24309457
768.383	0.24310102
768.569	0.24319581
768.754	0.24319667
768.94	0.2431543
769.125	0.24311542
769.311	0.24304304
769.496	0.24294603
769.682	0.24293476
769.867	0.24284002
770.052	0.2428166
770.238	0.2427967
770.423	0.24277374
770.608	0.24275534
770.794	0.24274203
770.979	0.24257496
771.164	0.24249674
771.35	0.24244341
771.535	0.24238221
771.72	0.24228869
771.905	0.24225096
772.09	0.24219466
772.276	0.2422169
772.461	0.24211503
772.646	0.24198548
772.831	0.24186404
773.016	0.24183711
773.201	0.24165643
773.386	0.24157784
773.571	0.2414434
773.756	0.24136959
773.941	0.24130675
774.126	0.24128277
774.311	0.24112813
774.496	0.24114045
774.681	0.24108153
774.866	0.24104833
775.051	0.24093664
775.236	0.24088774
775.421	0.24074978
775.606	0.24069106
775.791	0.24055915
775.976	0.24041545
776.16	0.2403356
776.345	0.24026683
776.53	0.24020151
776.715	0.24018364
776.899	0.2401114
777.084	0.24003671
777.269	0.23994621
777.454	0.23983772
777.638	0.23979376
777.823	0.23964204
778.008	0.23948495
778.192	0.23941507
778.377	0.23921975
778.561	0.23917513
778.746	0.23906617
778.931	0.23896946
779.115	0.23890616
779.3	0.23886149
779.484	0.23871531
779.669	0.23861425
779.853	0.23843897
780.037	0.23832162
780.222	0.23809769
780.406	0.23789286
780.591	0.23770531
780.775	0.23764457
780.959	0.23761861
781.144	0.23749953
781.328	0.23741822
781.512	0.23732378
781.697	0.23719472
781.881	0.23704511
782.065	0.23690563
782.249	0.2367562
782.434	0.23664168
782.618	0.23646973
782.802	0.23631798
782.986	0.23623227
783.17	0.23615604
783.354	0.23597451
783.539	0.23581819
783.723	0.23558385
783.907	0.23543057
784.091	0.23535252
784.275	0.23520205
784.459	0.23502156
784.643	0.23488569
784.827	0.23480938
785.011	0.23481316
785.195	0.23477694
785.379	0.2346347
785.563	0.23452484
785.747	0.23437184
785.93	0.23431066
786.114	0.23409885
786.298	0.2339586
786.482	0.23366492
786.666	0.23353669
786.85	0.23335132
787.033	0.2332709
787.217	0.23312364
787.401	0.232927
787.585	0.23269003
787.768	0.23257754
787.952	0.23235765
788.136	0.2321348
788.319	0.23192019
788.503	0.2315872
788.687	0.23143835
788.87	0.23122807
789.054	0.23106667
789.237	0.23090462
789.421	0.23080994
789.605	0.23063607
789.788	0.23049085
789.972	0.23025834
790.155	0.23001432
790.338	0.22966081
790.522	0.22938638
790.705	0.22908596
790.889	0.22881389
791.072	0.22862189
791.256	0.22849829
791.439	0.22840784
791.622	0.22834131
791.806	0.22819563
791.989	0.22807815
792.172	0.22793234
792.355	0.22776873
792.539	0.22758206
792.722	0.22733505
792.905	0.22711272
793.088	0.22689449
793.271	0.22670117
793.455	0.22649176
793.638	0.22627149
793.821	0.22603575
794.004	0.22591447
794.187	0.22577489
794.37	0.22558641
794.553	0.22539124
794.736	0.22518054
794.919	0.22495403
795.102	0.22478183
795.285	0.2245097
795.468	0.22424814
795.651	0.22411164
795.834	0.22391275
796.017	0.22381378
796.2	0.22363138
796.383	0.22337915
796.566	0.22318735
796.749	0.22296761
796.931	0.22270277
797.114	0.22240131
797.297	0.22205837
797.48	0.22184232
797.663	0.22162139
797.845	0.22147027
798.028	0.22124635
798.211	0.22103677
798.393	0.22086995
798.576	0.22063615
798.759	0.22030962
798.941	0.22007556
799.124	0.21974952
799.307	0.21957433
799.489	0.21931974
799.672	0.2190358
799.854	0.21882326
800.037	0.21864767
800.219	0.21840237
800.402	0.21828046
800.584	0.21799678
800.767	0.21779198
800.949	0.21758265
801.132	0.21740054
801.314	0.21721049
801.496	0.21695552
801.679	0.21655069
801.861	0.2163015
802.043	0.2159267
802.226	0.21567541
802.408	0.21538998
802.59	0.21514814
802.772	0.2149919
802.955	0.21481965
803.137	0.21454562
803.319	0.2144504
803.501	0.21415581
803.684	0.2138835
803.866	0.2135598
804.048	0.21329508
804.23	0.21301312
804.412	0.21283401
804.594	0.21253793
804.776	0.21237696
804.958	0.21209716
805.14	0.21180708
805.322	0.21146533
805.504	0.21125511
805.686	0.21092884
805.868	0.21062692
806.05	0.21034049
806.232	0.2101784
806.414	0.21003184
806.596	0.20982453
806.778	0.20961025
806.96	0.20936762
807.141	0.20910903
807.323	0.20881278
807.505	0.20846082
807.687	0.20813664
807.869	0.20782257
808.05	0.20752076
808.232	0.20720301
808.414	0.20691163
808.595	0.20664672
808.777	0.2063587
808.959	0.20604672
809.14	0.2058624
809.322	0.20556203
809.504	0.20534966
809.685	0.2051032
809.867	0.20483075
810.048	0.20457055
810.23	0.2043786
810.411	0.20407084
810.593	0.20384019
810.774	0.20351515
810.956	0.20320794
811.137	0.20293247
811.319	0.2027031
811.5	0.20244116
811.681	0.20215608
811.863	0.20182025
812.044	0.2015128
812.225	0.20137063
812.407	0.20105747
812.588	0.20076403
812.769	0.20038643
812.951	0.20010399
813.132	0.19980431
813.313	0.19952799
813.494	0.19901819
813.675	0.19873975
813.857	0.19837425
814.038	0.19811322
814.219	0.19780722
814.4	0.19746295
814.581	0.19727162
814.762	0.1970299
814.943	0.19674746
815.124	0.1965236
815.305	0.19626296
815.486	0.19600416
815.667	0.19570007
815.848	0.19532919
816.029	0.19512772
816.21	0.19483404
816.391	0.19455775
816.572	0.19425473
816.753	0.19398936
816.934	0.19380715
817.115	0.19356024
817.295	0.19330515
817.476	0.19303705
817.657	0.19271831
817.838	0.19239722
818.019	0.192056
818.199	0.19166884
818.38	0.19125917
818.561	0.19088264
818.741	0.19058921
818.922	0.19033794
819.103	0.19002792
819.283	0.18974692
819.464	0.18945462
819.645	0.18920326
819.825	0.18881911
820.006	0.1884221
820.186	0.18804207
820.367	0.18772134
820.547	0.1872734
820.728	0.18697471
820.908	0.18669089
821.089	0.1865056
821.269	0.18623336
821.45	0.18596997
821.63	0.18554863
821.81	0.1852818
821.991	0.1849592
822.171	0.18461534
822.351	0.18427206
822.532	0.1839459
822.712	0.18361959
822.892	0.18344066
823.072	0.18322652
823.253	0.18299861
823.433	0.1827971
823.613	0.18252131
823.793	0.18227152
823.973	0.18195364
824.154	0.18159458
824.334	0.18124357
824.514	0.18086188
824.694	0.18041545
824.874	0.1800148
825.054	0.17967035
825.234	0.17929103
825.414	0.17891212
825.594	0.17852238
825.774	0.17822786
825.954	0.17802201
826.134	0.17766865
826.314	0.177308
826.494	0.17702788
826.674	0.17672414
826.854	0.17636988
827.033	0.17591583
827.213	0.17558686
827.393	0.17530565
827.573	0.17496513
827.753	0.17458383
827.932	0.17433233
828.112	0.17400415
828.292	0.17377063
828.472	0.17333746
828.651	0.17303954
828.831	0.1727429
829.011	0.17248413
829.19	0.17213592
829.37	0.1718467
829.549	0.17147131
829.729	0.17112697
829.909	0.17078223
830.088	0.17047012
830.268	0.17004919
830.447	0.16972113
830.627	0.1694649
830.806	0.16921771
830.986	0.16890481
831.165	0.1685135
831.344	0.16808359
831.524	0.1677393
831.703	0.16736282
831.883	0.1670005
832.062	0.16666053
832.241	0.16636568
832.421	0.16609978
832.6	0.16582801
832.779	0.1655863
832.958	0.16527515
833.138	0.16480709
833.317	0.16446782
833.496	0.16412303
833.675	0.16372576
833.854	0.16350713
834.034	0.16309055
834.213	0.16273075
834.392	0.16244701
834.571	0.16198787
834.75	0.16158735
834.929	0.16117349
835.108	0.16066699
835.287	0.16035849
835.466	0.1600377
835.645	0.15974772
835.824	0.15943916
836.003	0.15912756
836.182	0.15888361
836.361	0.15857152
836.54	0.15812797
836.719	0.15771801
836.897	0.15729261
837.076	0.1569165
837.255	0.15658879
837.434	0.15627109
837.613	0.15601031
837.791	0.15578518
837.97	0.1554881
838.149	0.15510588
838.328	0.15481586
838.506	0.15445022
838.685	0.15409795
838.864	0.15365225
839.042	0.15325655
839.221	0.1529943
839.4	0.15283245
839.578	0.15240679
839.757	0.15204199
839.935	0.15167362
840.114	0.15141555
840.292	0.15118735
840.471	0.15082208
840.649	0.15043491
840.828	0.15018942
841.006	0.14988255
841.185	0.14952521
841.363	0.14925238
841.541	0.14885827
841.72	0.14858066
841.898	0.14828738
842.076	0.14796811
842.255	0.14766533
842.433	0.14739634
842.611	0.14691758
842.789	0.14662401
842.968	0.14621361
843.146	0.14583165
843.324	0.14548625
843.502	0.1451584
843.68	0.14476949
843.859	0.14456327
844.037	0.14418627
844.215	0.1439321
844.393	0.14356637
844.571	0.14325781
844.749	0.14290915
844.927	0.14258214
845.105	0.14216437
845.283	0.14184116
845.461	0.14142788
845.639	0.14111414
845.817	0.14077822
845.995	0.14046678
846.173	0.14015954
846.351	0.1397871
846.529	0.13942853
846.706	0.13916921
846.884	0.13889328
847.062	0.13856461
847.24	0.13824731
847.418	0.13795167
847.595	0.13774777
847.773	0.13744707
847.951	0.13703216
848.129	0.13668851
848.306	0.13645402
848.484	0.13615598
848.662	0.13587318
848.839	0.13556018
849.017	0.13525377
849.194	0.13497311
849.372	0.13457656
849.549	0.13413953
849.727	0.13377155
849.905	0.13332425
850.082	0.13292584
850.26	0.13254311
850.437	0.13211245
850.614	0.13180978
850.792	0.13146744
850.969	0.13120369
851.147	0.13099248
851.324	0.13068262
851.501	0.13039057
851.679	0.13010224
851.856	0.12982706
852.033	0.1294865
852.211	0.12906367
852.388	0.12866717
852.565	0.12835651
852.742	0.12801472
852.92	0.12770063
853.097	0.12730583
853.274	0.12696206
853.451	0.12663779
853.628	0.12631599
853.805	0.1259785
853.982	0.12567358
854.159	0.12542828
854.336	0.12510744
854.514	0.12491882
854.691	0.12454795
854.868	0.12416754
855.045	0.12380837
855.221	0.12350254
855.398	0.12312579
855.575	0.12276763
855.752	0.12233843
855.929	0.12211314
856.106	0.1219149
856.283	0.12164503
856.46	0.12133405
856.637	0.12104766
856.813	0.1207612
856.99	0.12042133
857.167	0.11998812
857.344	0.11952094
857.52	0.11916458
857.697	0.11868243
857.874	0.11838078
858.05	0.11809827
858.227	0.11784806
858.404	0.11765388
858.58	0.11745793
858.757	0.11723396
858.933	0.11710465
859.11	0.11681028
859.287	0.11644754
859.463	0.11607604
859.64	0.11574855
859.816	0.11529315
859.993	0.11488567
860.169	0.11446235
860.345	0.11406688
860.522	0.11373905
860.698	0.11344959
860.875	0.11305122
861.051	0.11288078
861.227	0.11259966
861.404	0.1123825
861.58	0.11213552
861.756	0.11184949
861.932	0.11162408
862.109	0.11132147
862.285	0.11097256
862.461	0.11070028
862.637	0.11030352
862.813	0.10993462
862.99	0.10965377
863.166	0.10919832
863.342	0.10907397
863.518	0.10878093
863.694	0.10856403
863.87	0.10833908
864.046	0.10806859
864.222	0.10784697
864.398	0.10768698
864.574	0.10712634
864.75	0.1066922
864.926	0.10614065
865.102	0.10583331
865.278	0.1054284
865.454	0.10498009
865.63	0.1046473
865.805	0.10443457
865.981	0.10429806
866.157	0.10409109
866.333	0.10383748
866.509	0.10366981
866.684	0.10350792
866.86	0.10323174
867.036	0.10300464
867.212	0.10269937
867.387	0.10250327
867.563	0.10223391
867.739	0.10191371
867.914	0.10158924
868.09	0.10121878
868.265	0.10077227
868.441	0.10049854
868.617	0.10015077
868.792	0.09980435
868.968	0.09943392
869.143	0.09915515
869.319	0.09890948
869.494	0.09880294
869.67	0.09844546
869.845	0.0980924
870.02	0.09773074
870.196	0.09744124
870.371	0.09710042
870.546	0.0968463
870.722	0.09644238
870.897	0.09608375
871.072	0.09580386
871.248	0.09556476
871.423	0.09534419
871.598	0.09507845
871.773	0.09475728
871.949	0.09461045
872.124	0.09441468
872.299	0.09416059
872.474	0.09381717
872.649	0.09341342
872.824	0.09304315
872.999	0.09260983
873.174	0.09219309
873.349	0.0919155
873.524	0.09163207
873.699	0.09142311
873.874	0.09120946
874.049	0.09104104
874.224	0.09089753
874.399	0.09075039
874.574	0.09045486
874.749	0.09027778
874.924	0.09002763
875.099	0.0897894
875.274	0.08946159
875.449	0.0891757
875.623	0.0887241
875.798	0.08848812
875.973	0.08801238
876.148	0.08765954
876.322	0.08733296
876.497	0.08704466
876.672	0.08667758
876.846	0.0865002
877.021	0.0862832
877.196	0.08614474
877.37	0.08591342
877.545	0.08580475
877.72	0.08554317
877.894	0.08541773
878.069	0.08521679
878.243	0.08481797
878.418	0.08465249
878.592	0.0843422
878.767	0.08397169
878.941	0.0837479
879.116	0.08333115
879.29	0.08303026
879.464	0.08276137
879.639	0.0823933
879.813	0.0822572
879.987	0.08195784
880.162	0.08163966
880.336	0.08148188
880.51	0.08116601
880.685	0.081006
880.859	0.08074741
881.033	0.08040022
881.207	0.08027607
881.381	0.08000264
881.556	0.07967359
881.73	0.07947301
881.904	0.07912933
882.078	0.07881963
882.252	0.07853933
882.426	0.07814612
882.6	0.0779663
882.774	0.07789616
882.948	0.07766777
883.122	0.07754387
883.296	0.07732951
883.47	0.07714305
883.644	0.07694798
883.818	0.07665237
883.992	0.07622587
884.166	0.07604126
884.34	0.07573933
884.514	0.0754594
884.687	0.07513872
884.861	0.07492792
885.035	0.07478914
885.209	0.07469124
885.382	0.07444444
885.556	0.07418326
885.73	0.07403931
885.904	0.07393177
886.077	0.07362936
886.251	0.07327355
886.425	0.07303422
886.598	0.07277054
886.772	0.07258829
886.945	0.07222814
887.119	0.07189112
887.292	0.07168247
887.466	0.07145949
887.64	0.07122112
887.813	0.07102562
887.986	0.07075429
888.16	0.07065284
888.333	0.07051425
888.507	0.07025518
888.68	0.07005624
888.854	0.06973997
889.027	0.06934815
889.2	0.0690972
889.374	0.06872644
889.547	0.0684948
889.72	0.0683533
889.893	0.06804137
890.067	0.06777574
890.24	0.06753549
890.413	0.06729693
890.586	0.06717558
890.759	0.06694398
890.933	0.06670049
891.106	0.06662706
891.279	0.066513
891.452	0.06646007
891.625	0.06638512
891.798	0.0661757
891.971	0.06594617
892.144	0.06571806
892.317	0.06532046
892.49	0.06503951
892.663	0.06466715
892.836	0.06441285
893.009	0.06411606
893.182	0.06383928
893.355	0.06369819
893.527	0.06367181
893.7	0.06353529
893.873	0.06334094
894.046	0.0629974
894.219	0.06284021
894.391	0.06244194
894.564	0.06203903
894.737	0.06175402
894.91	0.0615146
895.082	0.06130093
895.255	0.06109763
895.428	0.06087642
895.6	0.06083696
895.773	0.06068088
895.945	0.06042479
896.118	0.06016769
896.291	0.05998604
896.463	0.0598557
896.636	0.05968813
896.808	0.05944056
896.981	0.0592579
897.153	0.05911495
897.326	0.05895559
897.498	0.05881498
897.67	0.05855941
897.843	0.05829719
898.015	0.05819079
898.187	0.05791499
898.36	0.05765985
898.532	0.05738805
898.704	0.05711803
898.877	0.05691386
899.049	0.05670057
899.221	0.0563849
899.393	0.05629147
899.566	0.05607763
899.738	0.05602446
899.91	0.05588822
900.082	0.05565034
900.254	0.05556862
900.426	0.05539566
900.598	0.05515476
900.77	0.05487429
900.942	0.05450516
901.114	0.05411957
901.286	0.05394063
901.458	0.05358169
901.63	0.05338972
901.802	0.05306307
901.974	0.05295098
902.146	0.05284767
902.318	0.05287839
902.49	0.05263558
902.662	0.0524416
902.834	0.05230676
903.005	0.05229567
903.177	0.05215496
903.349	0.05192267
903.521	0.0515622
903.693	0.05152844
903.864	0.05137404
904.036	0.05113921
904.208	0.05093436
904.379	0.05062374
904.551	0.05055345
904.723	0.05052893
904.894	0.05034223
905.066	0.05027343
905.237	0.05014171
905.409	0.05001139
905.58	0.04993566
905.752	0.04966874
905.923	0.04931981
906.095	0.04900741
906.266	0.04876138
906.438	0.0485682
906.609	0.04835406
906.78	0.04820195
906.952	0.04805823
907.123	0.0478869
907.295	0.04774166
907.466	0.04760617
907.637	0.0475025
907.808	0.0473631
907.98	0.04714061
908.151	0.04687059
908.322	0.04680805
908.493	0.04673846
908.665	0.04662648
908.836	0.04639804
909.007	0.04629002
909.178	0.0461374
909.349	0.04592073
909.52	0.04569198
909.691	0.04540241
909.862	0.04504691
910.033	0.04484082
910.204	0.04445828
910.375	0.04429704
910.546	0.04413202
910.717	0.04398685
910.888	0.04398434
911.059	0.04403761
911.23	0.04404652
911.401	0.04410273
911.572	0.04399868
911.742	0.04393301
911.913	0.04388281
912.084	0.04370699
912.255	0.04346519
912.426	0.04321187
912.596	0.04292822
912.767	0.04272304
912.938	0.04253485
913.108	0.04219868
913.279	0.04177519
913.45	0.04153462
913.62	0.04137183
913.791	0.04132076
913.962	0.04115658
914.132	0.04098562
914.303	0.04096158
914.473	0.04103251
914.644	0.04089496
914.814	0.04061598
914.985	0.04030552
915.155	0.04010294
915.326	0.03986633
915.496	0.03969371
915.666	0.03935721
915.837	0.03921493
916.007	0.03891851
916.177	0.03878842
916.348	0.03867056
916.518	0.03874444
916.688	0.03850977
916.858	0.03838357
917.029	0.03810559
917.199	0.03807294
917.369	0.0378143
917.539	0.03755013
917.709	0.03723881
917.88	0.03710513
918.05	0.0369851
918.22	0.03704847
918.39	0.03706213
918.56	0.03702177
918.73	0.036983
918.9	0.03691763
919.07	0.03678255
919.24	0.03673849
919.41	0.03654051
919.58	0.03638858
919.75	0.03645289
919.92	0.03632999
920.09	0.03616452
920.26	0.03616421
920.429	0.0358989
920.599	0.03570953
920.769	0.03542546
920.939	0.03512874
921.109	0.03502102
921.278	0.0348926
921.448	0.03457705
921.618	0.03441861
921.787	0.03431704
921.957	0.0342317
922.127	0.03401311
922.296	0.03386023
922.466	0.03373497
922.636	0.03383519
922.805	0.03391673
922.975	0.03381468
923.144	0.03385327
923.314	0.03390114
923.483	0.03388058
923.653	0.03380686
923.822	0.03343098
923.992	0.03316776
924.161	0.03286094
924.331	0.03255932
924.5	0.03229925
924.669	0.03201836
924.839	0.03175765
925.008	0.03175884
925.177	0.03168052
925.347	0.03158903
925.516	0.03139751
925.685	0.03134076
925.854	0.03114672
926.023	0.03104644
926.193	0.03088629
926.362	0.03076504
926.531	0.03075636
926.7	0.0306159
926.869	0.0305308
927.038	0.03044936
927.207	0.03025603
927.376	0.03017415
927.545	0.03017604
927.715	0.02993505
927.884	0.0299074
928.052	0.02981932
928.221	0.02993078
928.39	0.03006974
928.559	0.03000193
928.728	0.02971437
928.897	0.02979404
929.066	0.02986316
929.235	0.02972402
929.404	0.02951705
929.572	0.02929076
929.741	0.02917222
929.91	0.02913421
930.079	0.0290358
930.247	0.02877695
930.416	0.02877086
930.585	0.02875512
930.753	0.02860191
930.922	0.0285185
931.091	0.02842617
931.259	0.02820993
931.428	0.02815156
931.596	0.0280836
931.765	0.02797357
931.934	0.02797738
932.102	0.02774237
932.27	0.02760217
932.439	0.02746642
932.607	0.02736813
932.776	0.02718522
932.944	0.02692928
933.113	0.02678167
933.281	0.02665003
933.449	0.02645269
933.618	0.02645605
933.786	0.02651466
933.954	0.02617718
934.123	0.0260237
934.291	0.02602383
934.459	0.0260749
934.627	0.02636511
934.795	0.02649799
934.964	0.02616969
935.132	0.0261651
935.3	0.02634188
935.468	0.02628616
935.636	0.02624136
935.804	0.02604714
935.972	0.02577244
936.14	0.02588664
936.308	0.02597117
936.476	0.0259431
936.644	0.02610182
936.812	0.02608106
936.98	0.02594078
937.148	0.02614611
937.316	0.02630226
937.484	0.02639677
937.652	0.02628525
937.82	0.02591141
937.987	0.02592121
938.155	0.02619559
938.323	0.02603092
938.491	0.02624109
938.658	0.02624686
938.826	0.02666379
938.994	0.02709206
939.162	0.02726781
939.329	0.02713229
939.497	0.02760095
939.665	0.02737134
939.832	0.02739531
940	0.02726335
940.167	0.02730173
940.335	0.02764802
940.502	0.02766687
940.67	0.02765186
940.837	0.02805831
941.005	0.02830158
941.172	0.02764775
941.34	0.02755677
941.507	0.02747911
941.674	0.02791394
941.842	0.02752416
942.009	0.02727971
942.177	0.02781825
942.344	0.02819842
942.511	0.02886579
942.678	0.02948288
942.846	0.02951147
943.013	0.02960651
943.18	0.03021049
943.347	0.02916032
943.514	0.02951225
943.682	0.02883209
943.849	0.02789033
944.016	0.02684292
944.183	0.02684357
944.35	0.02552811
944.517	0.02650702
944.684	0.02733074
944.851	0.0269942
945.018	0.02680803
945.185	0.02775401
945.352	0.02772374
945.519	0.02873586
945.686	0.02819846
945.853	0.02709044
946.02	0.02694708
946.187	0.0269439
946.353	0.02699663
946.52	0.02583686
946.687	0.02465596
946.854	0.02457939
947.021	0.02495862
947.187	0.02531798
947.354	0.02464796
947.521	0.02438053
947.687	0.02598246
947.854	0.02684125
948.021	0.02635966
948.187	0.02598865
948.354	0.02613596
948.52	0.02609131
948.687	0.02588172
948.854	0.0251663
949.02	0.02488975
949.187	0.02422963
949.353	0.02369514
949.52	0.02306063
949.686	0.02330209
949.852	0.0230211
950.019	0.02298523
950.185	0.02231212
950.352	0.0226578
950.518	0.02285806
950.684	0.02279826
950.851	0.02201727
951.017	0.02145167
951.183	0.02136889
951.349	0.02086457
951.516	0.02134974
951.682	0.02055916
951.848	0.02009169
952.014	0.02048986
952.18	0.02029062
952.346	0.01986542
952.512	0.02006406
952.679	0.01978153
952.845	0.02026278
953.011	0.01989662
953.177	0.01926096
953.343	0.01959543
953.509	0.01923183
953.675	0.01938474
953.841	0.01862464
954.007	0.01832048
954.172	0.01887094
954.338	0.01920869
954.504	0.01868288
954.67	0.01860178
954.836	0.01803475
955.002	0.01810364
955.167	0.01791051
955.333	0.01743901
955.499	0.01768965
955.665	0.01754862
955.83	0.01730399
955.996	0.01716616
956.162	0.01701861
956.327	0.01664285
956.493	0.01623501
956.659	0.01597075
956.824	0.01622999
956.99	0.01639819
957.155	0.01653164
957.321	0.01628617
957.486	0.01649313
957.652	0.01642287
957.817	0.01556488
957.983	0.01522181
958.148	0.01502569
958.314	0.01472506
958.479	0.01444213
958.644	0.01442751
958.81	0.0142631
958.975	0.01483598
959.14	0.01459106
959.306	0.01436774
959.471	0.01424055
959.636	0.01421301
959.801	0.01422771
959.967	0.01422971
960.132	0.01421165
960.297	0.01399586
960.462	0.01413794
960.627	0.01402417
960.792	0.01435089
960.957	0.01443219
961.123	0.01459648
961.288	0.01444342
961.453	0.01483424
961.618	0.0146607
961.783	0.01457405
961.948	0.01473345
962.113	0.01402519
962.277	0.01399492
962.442	0.01373221
962.607	0.0136243
962.772	0.01334313
962.937	0.0136205
963.102	0.0135715
963.267	0.0138392
963.431	0.01374102
963.596	0.01382007
963.761	0.01320399
963.926	0.01343972
964.09	0.01377694
964.255	0.01321252
964.42	0.01348772
964.584	0.01351233
964.749	0.01353429
964.914	0.01421087
965.078	0.01446898
965.243	0.01372245
965.407	0.01371853
965.572	0.01280322
965.736	0.01258704
965.901	0.01271215
966.065	0.01261205
966.23	0.01202162
966.394	0.0118691
966.559	0.01209788
966.723	0.0125939
966.887	0.01265772
967.052	0.01239736
967.216	0.01211568
967.38	0.01225053
967.545	0.01276245
967.709	0.01271819
967.873	0.01258694
968.037	0.01286776
968.202	0.01259201
968.366	0.01281451
968.53	0.01333127
968.694	0.01274468
968.858	0.01262594
969.022	0.01255643
969.187	0.01221887
969.351	0.01215189
969.515	0.01207944
969.679	0.01154863
969.843	0.01164735
970.007	0.01129266
970.171	0.01141891
970.335	0.01127716
970.499	0.01131558
970.662	0.01103092
970.826	0.01114953
970.99	0.01129657
971.154	0.01130506
971.318	0.01106846
971.482	0.01105064
971.645	0.01086271
971.809	0.0106627
971.973	0.01029646
972.137	0.01038794
972.3	0.0105963
972.464	0.01059609
972.628	0.01037581
972.791	0.01109667
972.955	0.01111745
973.119	0.0112184
973.282	0.01070891
973.446	0.01055081
973.609	0.01006538
973.773	0.01045123
973.936	0.00999713
974.1	0.01045136
974.263	0.01037801
974.427	0.01044701
974.59	0.01047323
974.754	0.01123343
974.917	0.01109298
975.08	0.01093881
975.244	0.01066235
975.407	0.01069866
975.57	0.01072807
975.734	0.01059057
975.897	0.01026354
976.06	0.01035331
976.223	0.01057849
976.387	0.00990146
976.55	0.00995761
976.713	0.01003566
976.876	0.0101603
977.039	0.00991735
977.202	0.00947144
977.365	0.00890767
977.528	0.00933618
977.692	0.00947424
977.855	0.00911145
978.018	0.00934723
978.181	0.0098182
978.344	0.00975621
978.506	0.00994223
978.669	0.0096952
978.832	0.00941738
978.995	0.00987257
979.158	0.00918327
979.321	0.00885352
979.484	0.00841264
979.646	0.00797314
979.809	0.00825947
979.972	0.00798025
980.135	0.00789844
980.297	0.00804667
980.46	0.00802221
980.623	0.00838104
980.786	0.00879969
980.948	0.00871016
981.111	0.00884519
981.273	0.00879093
981.436	0.00873577
981.599	0.00897713
981.761	0.00923729
981.924	0.00903535
982.086	0.00910763
982.249	0.00897548
982.411	0.00843155
982.573	0.00838565
982.736	0.0079539
982.898	0.00807357
983.061	0.00777105
983.223	0.00770154
983.385	0.00807134
983.548	0.00786592
983.71	0.0076624
983.872	0.00785358
984.034	0.00741547
984.197	0.00768799
984.359	0.00781869
984.521	0.00738543
984.683	0.00814914
984.845	0.00827218
985.008	0.00804737
985.17	0.00758898
985.332	0.00781543
985.494	0.00744676
985.656	0.00753116
985.818	0.00711658
985.98	0.00717045
986.142	0.00711431
986.304	0.00805669
986.466	0.00786699
986.628	0.00787284
986.79	0.00791098
986.952	0.00773182
987.113	0.00791827
987.275	0.00840744
987.437	0.00822626
987.599	0.00806814
987.761	0.00900772
987.922	0.00920132
988.084	0.0091911
988.246	0.00884809
988.408	0.00826924
988.569	0.00762904
988.731	0.00756543
988.893	0.00604445
989.054	0.00550259
989.216	0.00578878
989.377	0.00595775
989.539	0.00611976
989.701	0.00680565
989.862	0.0071867
990.024	0.00746253
990.185	0.00783821
990.347	0.00783303
990.508	0.00802724
990.669	0.00809677
990.831	0.00790856
990.992	0.00816814
991.154	0.00863839
991.315	0.00869975
991.476	0.00904064
991.638	0.00919914
991.799	0.00936965
991.96	0.00900754
992.121	0.00835189
992.283	0.00850226
992.444	0.00820066
992.605	0.00848124
992.766	0.00826832
992.927	0.0077087
993.088	0.00852611
993.249	0.00893177
993.41	0.00851715
993.572	0.00908881
993.733	0.00813527
993.894	0.00839292
994.055	0.00915669
994.216	0.00891022
994.376	0.00892137
994.537	0.00893222
994.698	0.00922397
994.859	0.00960388
995.02	0.00981712
995.181	0.00927635
995.342	0.00885774
995.503	0.00852177
995.663	0.00840544
995.824	0.00697614
995.985	0.0076612
996.146	0.00756998
996.306	0.00784703
996.467	0.00795125
996.628	0.00836561
996.788	0.00854327
996.949	0.00901294
997.11	0.00854736
997.27	0.00773525
997.431	0.00751279
997.591	0.00759825
997.752	0.00780531
997.912	0.00765511
998.073	0.00679109
998.233	0.00592244
998.394	0.00554016
998.554	0.00553515
998.714	0.00575233
998.875	0.00612103
999.035	0.00667864
999.196	0.00846884
999.356	0.00875918
999.516	0.00939571
999.676	0.0088331
999.837	0.0086776
999.997	0.00727185
1000.157	0.00648221
1000.317	0.00614498
1000.477	0.00643169
1000.638	0.00656636
1000.798	0.0072584
1000.958	0.00720135
1001.118	0.00795563
1001.278	0.00849267
1001.438	0.00813609
1001.598	0.0082352
1001.758	0.00828386
1001.918	0.00810901
1002.078	0.00839491
1002.238	0.00826802
1002.398	0.008874
1002.558	0.00988652
1002.718	0.01012207
1002.878	0.01036271
1003.037	0.01029464
1003.197	0.00961188
1003.357	0.0098312
1003.517	0.00885832
1003.677	0.00758363
1003.836	0.00812996
1003.996	0.00717459
1004.156	0.0075665
1004.315	0.00825243
1004.475	0.00723927
1004.635	0.00789755
1004.794	0.00772607
1004.954	0.00720593
1005.114	0.00637013
1005.273	0.00462148
1005.433	0.00442833
1005.592	0.00599432
1005.752	0.00559319
1005.911	0.00592059
1006.071	0.00596122
1006.23	0.00858041
1006.389	0.01006551
1006.549	0.01097172
1006.708	0.01015132
1006.868	0.01020254
1007.027	0.01079878
1007.186	0.01044424
1007.345	0.00974519
1007.505	0.00939054
1007.664	0.00889669
1007.823	0.00969684
1007.982	0.01088856
1008.142	0.00963028
1008.301	0.00993738
1008.46	0.00963623
1008.619	0.01000648
1008.778	0.01008002
1008.937	0.00910846
1009.096	0.00900462
1009.255	0.01032013
1009.414	0.01043465
1009.573	0.01001427
1009.732	0.00959629
1009.891	0.00922472
1010.05	0.00921869
1010.209	0.00818087
1010.368	0.00770449
1010.527	0.00696109
1010.686	0.00768651
1010.845	0.00799576
1011.003	0.00753702
1011.162	0.00692706
1011.321	0.00729241
1011.48	0.00766685
1011.638	0.00713206
1011.797	0.00619998
1011.956	0.00673926
1012.115	0.00659764
1012.273	0.00899692
1012.432	0.0083352
1012.59	0.00963568
1012.749	0.01016959
1012.908	0.01071065
1013.066	0.0119405
1013.225	0.01261086
1013.383	0.01121357
1013.542	0.01134092
1013.7	0.00995814
1013.859	0.01016897
1014.017	0.01235351
1014.175	0.01144293
1014.334	0.01342344
1014.492	0.01324717
1014.65	0.01469586
1014.809	0.01526583
1014.967	0.01492637
1015.125	0.0138166
1015.284	0.01319109
1015.442	0.01230947
1015.6	0.01391342
1015.758	0.01293404
1015.916	0.01336574
1016.075	0.01400516
1016.233	0.01366748
1016.391	0.01436327
1016.549	0.01304085
1016.707	0.01301455
1016.865	0.01305217
1017.023	0.01077565
1017.181	0.01156378
1017.339	0.01203719
1017.497	0.01220591
1017.655	0.01148878
1017.813	0.01031328
1017.971	0.01147418
1018.129	0.01376541
1018.286	0.01386198
1018.444	0.01446949
1018.602	0.01454289
1018.76	0.01717718
1018.918	0.01719576
1019.075	0.01680448
1019.233	0.01446521
1019.391	0.01567129
1019.549	0.01609309
1019.706	0.01481303
1019.864	0.01481513
1020.022	0.01387287
1020.179	0.01039745
1020.337	0.01212128
1020.494	0.00954811
1020.652	0.00880102
1020.809	0.0128595
1020.967	0.01290211
1021.124	0.01458849
1021.282	0.01850091
1021.439	0.01739094
1021.597	0.0191347
1021.754	0.01940824
1021.911	0.01564979
1022.069	0.01394259
1022.226	0.01500525
1022.384	0.01755557
1022.541	0.01988353
1022.698	0.01701507
1022.855	0.0173956
1023.013	0.02078371
1023.17	0.02115699
1023.327	0.02029233
1023.484	0.01692112
1023.641	0.01796621
1023.798	0.02301197
1023.956	0.02244267
1024.113	0.01869753
1024.27	0.01930492
1024.427	0.0198442
1024.584	0.02206428
1024.741	0.01967397
1024.898	0.01855315
1025.055	0.01978219
1025.212	0.02034153
1025.369	0.01939036
1025.525	0.0202578
1025.682	0.0191706
1025.839	0.02290711
1025.996	0.0242011
1026.153	0.02612339
1026.31	0.02619584
1026.466	0.02578155
1026.623	0.02584018
1026.78	0.02754913
1026.937	0.02752147
1027.093	0.02618482
1027.25	0.02401867
1027.407	0.02436681
1027.563	0.02896031
1027.72	0.02945978
1027.876	0.03081458
1028.033	0.03083761
1028.19	0.0311157
1028.346	0.02896953
1028.503	0.02748064
1028.659	0.02862283
1028.816	0.03079525
1028.972	0.02464895
1029.128	0.02109481
1029.285	0.0197903
1029.441	0.01895778
1029.598	0.01788266
1029.754	0.0192034
1029.91	0.01838729
1030.067	0.01912248
1030.223	0.01138793
1030.379	0.01450505
1030.535	0.02125874
1030.691	0.02559862
1030.848	0.018731
1031.004	0.01994191
1031.16	0.02615718
1031.316	0.03616131
1031.472	0.03464632
1031.628	0.03016208
1031.784	0.03918065
1031.94	0.04381711
1032.096	0.04639026
1032.252	0.0456442
1032.408	0.04287077
1032.564	0.03783457
1032.72	0.03526218
1032.876	0.02797372
1033.032	0.02443071
1033.188	0.02142901
1033.344	0.02007249
1033.5	0.02424732
1033.655	0.0287885
1033.811	0.0307911
1033.967	0.03078659
