Data from 1_mm_pl_60pc_Absorbance__0__16-14-38-102.txt Node

Date: Wed Mar 08 16:14:38 CET 2023
User: Ange
Spectrometer: FLMT08341
Trigger mode: 0
Integration Time (sec): 1.000000E-2
Scans to average: 400
Electric dark correction enabled: true
Nonlinearity correction enabled: false
Boxcar width: 3
XAxis mode: Wavelengths
Number of Pixels in Spectrum: 3648
>>>>>Begin Spectral Data<<<<<
345.271	0.02735474
345.487	0.02184352
345.704	0.02095622
345.921	0.0224052
346.137	0.0113288
346.354	0.01670008
346.571	-0.00647279
346.787	-0.05468215
347.004	0.14444654
347.22	-0.00869324
347.437	0.05034286
347.653	0.15322098
347.87	-0.16469709
348.086	0.21035842
348.303	-0.51775025
348.519	0.49957333
348.736	0.42239491
348.952	0.42582252
349.169	0.45508156
349.385	0.47391834
349.601	0.46783666
349.818	0.4631531
350.034	0.45771691
350.251	0.45434583
350.467	0.45902143
350.683	0.43834061
350.9	0.43677764
351.116	0.43042699
351.332	0.42515733
351.549	0.43628187
351.765	0.45077297
351.981	0.45929502
352.197	0.47811736
352.414	0.49605847
352.63	0.51045102
352.846	0.52352001
353.062	0.51237807
353.278	0.50132018
353.495	0.510669
353.711	0.51493273
353.927	0.51702924
354.143	0.51682507
354.359	0.50916353
354.575	0.50774426
354.792	0.52085475
355.008	0.51016731
355.224	0.50383482
355.44	0.49639387
355.656	0.49434527
355.872	0.50517725
356.088	0.53618908
356.304	0.54158615
356.52	0.54518198
356.736	0.54859766
356.952	0.55639529
357.168	0.55528488
357.384	0.56211831
357.6	0.54297019
357.816	0.54707448
358.032	0.55902744
358.248	0.5782184
358.464	0.57996082
358.679	0.59451487
358.895	0.59493132
359.111	0.60302232
359.327	0.59350088
359.543	0.59331231
359.759	0.5960006
359.974	0.59597061
360.19	0.59361098
360.406	0.59146096
360.622	0.58813683
360.838	0.58822573
361.053	0.59589553
361.269	0.60059826
361.485	0.60465219
361.701	0.60776283
361.916	0.60339287
362.132	0.60627131
362.348	0.61159238
362.563	0.61379982
362.779	0.60942697
362.995	0.61466677
363.21	0.6224374
363.426	0.62865371
363.641	0.63321838
363.857	0.64133556
364.073	0.6355882
364.288	0.62630417
364.504	0.63617546
364.719	0.63624949
364.935	0.6341358
365.15	0.63620607
365.366	0.6366087
365.581	0.64628001
365.797	0.65453598
366.012	0.64606379
366.228	0.63941778
366.443	0.65465099
366.658	0.65762851
366.874	0.65530642
367.089	0.6643214
367.305	0.67040083
367.52	0.67751336
367.735	0.67957978
367.951	0.66949169
368.166	0.67575749
368.381	0.69047685
368.597	0.68348392
368.812	0.69044876
369.027	0.69357086
369.243	0.70221788
369.458	0.72776308
369.673	0.72988179
369.888	0.72483533
370.104	0.72154812
370.319	0.72169656
370.534	0.71894838
370.749	0.71802706
370.964	0.71357779
371.179	0.71414494
371.395	0.71075677
371.61	0.71775623
371.825	0.71270581
372.04	0.71826204
372.255	0.71688309
372.47	0.70874074
372.685	0.69997339
372.9	0.6996082
373.115	0.69418612
373.33	0.69941338
373.545	0.6986296
373.76	0.70410096
373.975	0.70324809
374.19	0.70552074
374.405	0.71167407
374.62	0.72566887
374.835	0.73704136
375.05	0.7379553
375.265	0.74124943
375.48	0.74734967
375.695	0.76459478
375.91	0.7619284
376.125	0.74951642
376.339	0.73468298
376.554	0.73840731
376.769	0.73791271
376.984	0.73780996
377.199	0.73877552
377.414	0.74013237
377.628	0.75407472
377.843	0.76717312
378.058	0.77209978
378.273	0.78197287
378.487	0.78808116
378.702	0.79143583
378.917	0.79729565
379.131	0.79173003
379.346	0.78111233
379.561	0.77616825
379.775	0.76807599
379.99	0.75947526
380.205	0.75116152
380.419	0.74477166
380.634	0.73781469
380.848	0.74743803
381.063	0.75084278
381.278	0.75971906
381.492	0.75993941
381.707	0.76947971
381.921	0.77169263
382.136	0.78732023
382.35	0.78238559
382.565	0.78002476
382.779	0.78301075
382.994	0.78947634
383.208	0.78230447
383.422	0.79102556
383.637	0.78662641
383.851	0.79526363
384.066	0.80169912
384.28	0.80279337
384.494	0.80481627
384.709	0.81380524
384.923	0.81475574
385.137	0.81177195
385.352	0.81055873
385.566	0.81391851
385.78	0.81147598
385.995	0.81090037
386.209	0.80595542
386.423	0.81063358
386.637	0.81556965
386.852	0.80959529
387.066	0.80753215
387.28	0.80400868
387.494	0.81205733
387.708	0.8157542
387.923	0.81468427
388.137	0.81928028
388.351	0.82588235
388.565	0.83139922
388.779	0.83893623
388.993	0.84581234
389.207	0.84789545
389.421	0.85033253
389.635	0.84881315
389.85	0.84843647
390.064	0.84696356
390.278	0.84746428
390.492	0.84470368
390.706	0.84652728
390.92	0.8463594
391.134	0.852973
391.348	0.86658898
391.561	0.86576798
391.775	0.8643543
391.989	0.85979727
392.203	0.86543233
392.417	0.86991238
392.631	0.87456443
392.845	0.86759177
393.059	0.87640553
393.273	0.87631335
393.486	0.87385712
393.7	0.86551855
393.914	0.8702626
394.128	0.86542167
394.342	0.86302192
394.555	0.85427412
394.769	0.85749221
394.983	0.86214537
395.197	0.86935765
395.41	0.86702939
395.624	0.87081776
395.838	0.87302191
396.051	0.88803374
396.265	0.88540212
396.479	0.88923205
396.692	0.8899694
396.906	0.88654378
397.12	0.88447523
397.333	0.88969214
397.547	0.8827068
397.76	0.88816069
397.974	0.89006693
398.187	0.89146715
398.401	0.89904581
398.614	0.90135788
398.828	0.90103209
399.041	0.90350887
399.255	0.90287039
399.468	0.90109552
399.682	0.9022136
399.895	0.90285058
400.109	0.90232818
400.322	0.902059
400.536	0.89690867
400.749	0.90489848
400.962	0.90796089
401.176	0.90544251
401.389	0.90236322
401.602	0.8971846
401.816	0.89853521
402.029	0.90518883
402.242	0.8996421
402.456	0.89815259
402.669	0.89705975
402.882	0.89235943
403.095	0.90139293
403.309	0.90267513
403.522	0.90321177
403.735	0.90220717
403.948	0.90374697
404.161	0.91361869
404.375	0.91856195
404.588	0.91693568
404.801	0.91737403
405.014	0.91389596
405.227	0.92031697
405.44	0.92329908
405.653	0.92349413
405.866	0.91973405
406.079	0.91766117
406.293	0.91600859
406.506	0.91800565
406.719	0.91443233
406.932	0.91081943
407.145	0.90483428
407.358	0.91400769
407.571	0.91204231
407.784	0.91425433
407.996	0.91431679
408.209	0.91036114
408.422	0.9079418
408.635	0.9090405
408.848	0.90706672
409.061	0.90277567
409.274	0.90009717
409.487	0.89900526
409.7	0.90170735
409.912	0.90507305
410.125	0.90588238
410.338	0.90430995
410.551	0.90730114
410.764	0.90685935
410.976	0.90660317
411.189	0.90591121
411.402	0.90198136
411.615	0.90207379
411.827	0.90156749
412.04	0.90171204
412.253	0.90100161
412.465	0.89864654
412.678	0.8966532
412.891	0.90003962
413.103	0.89246403
413.316	0.88950575
413.529	0.89376388
413.741	0.89625149
413.954	0.8981147
414.166	0.89882662
414.379	0.8951507
414.591	0.90041409
414.804	0.89854146
415.016	0.89391541
415.229	0.89074951
415.441	0.88777279
415.654	0.88905443
415.866	0.88998401
416.079	0.89085839
416.291	0.89006947
416.504	0.89349005
416.716	0.89369509
416.928	0.8938797
417.141	0.88999596
417.353	0.89035343
417.566	0.88363899
417.778	0.88395752
417.99	0.8764964
418.203	0.87227384
418.415	0.87091857
418.627	0.87064987
418.839	0.86813691
419.052	0.87252668
419.264	0.87137162
419.476	0.8724209
419.688	0.87368694
419.901	0.87226298
420.113	0.8712145
420.325	0.86861791
420.537	0.86406947
420.749	0.86424582
420.961	0.86430535
421.174	0.86174424
421.386	0.8592922
421.598	0.85693535
421.81	0.85541201
422.022	0.85386416
422.234	0.85171294
422.446	0.84807848
422.658	0.84579892
422.87	0.84521662
423.082	0.84437187
423.294	0.84242989
423.506	0.8414002
423.718	0.83972764
423.93	0.83755735
424.142	0.83491724
424.354	0.83209034
424.566	0.82932398
424.778	0.82895797
424.99	0.82622492
425.202	0.82290609
425.414	0.82188295
425.625	0.82292145
425.837	0.81933794
426.049	0.819062
426.261	0.81590876
426.473	0.81265357
426.684	0.8112923
426.896	0.81046814
427.108	0.80581008
427.32	0.80635318
427.531	0.80257167
427.743	0.80107209
427.955	0.80253008
428.167	0.79931829
428.378	0.79631837
428.59	0.79505188
428.802	0.79239199
429.013	0.79029723
429.225	0.78686003
429.436	0.78315145
429.648	0.78249133
429.86	0.7815495
430.071	0.78001695
430.283	0.77824644
430.494	0.77576892
430.706	0.7743033
430.917	0.77166753
431.129	0.76898583
431.34	0.76527896
431.552	0.76383567
431.763	0.76084248
431.975	0.75993942
432.186	0.75667661
432.398	0.75437236
432.609	0.75002249
432.821	0.74832217
433.032	0.74545718
433.243	0.74278992
433.455	0.73980748
433.666	0.73879154
433.877	0.73768809
434.089	0.73552418
434.3	0.73216072
434.511	0.72816693
434.723	0.72557691
434.934	0.72197575
435.145	0.71718934
435.356	0.71277717
435.568	0.71080091
435.779	0.70768853
435.99	0.70417345
436.201	0.70128631
436.412	0.6986463
436.624	0.69782751
436.835	0.69661387
437.046	0.69521601
437.257	0.69317928
437.468	0.69312782
437.679	0.69194117
437.89	0.69000823
438.101	0.68813595
438.312	0.68525369
438.523	0.68198055
438.734	0.67966464
438.945	0.67679243
439.156	0.67293199
439.367	0.67086518
439.578	0.66834242
439.789	0.66474199
440	0.66267017
440.211	0.65979195
440.422	0.65721142
440.633	0.65554753
440.844	0.65200538
441.055	0.64884485
441.266	0.64741754
441.477	0.64395008
441.687	0.6418392
441.898	0.63915861
442.109	0.63567018
442.32	0.63340165
442.531	0.62992864
442.741	0.62568701
442.952	0.62324575
443.163	0.62076143
443.374	0.6176089
443.584	0.61501362
443.795	0.6123197
444.006	0.6104026
444.216	0.60827928
444.427	0.60458243
444.638	0.60133715
444.848	0.59857238
445.059	0.59597214
445.27	0.59320145
445.48	0.58972871
445.691	0.58707406
445.901	0.58533395
446.112	0.58256594
446.323	0.57953743
446.533	0.57670119
446.744	0.57350436
446.954	0.57079408
447.165	0.56809852
447.375	0.56587144
447.586	0.56352592
447.796	0.56117653
448.006	0.55840853
448.217	0.55644946
448.427	0.55412977
448.638	0.55100207
448.848	0.54760534
449.058	0.54459517
449.269	0.54207628
449.479	0.53948344
449.689	0.53668178
449.9	0.53410964
450.11	0.53188743
450.32	0.5301159
450.531	0.52736696
450.741	0.52451596
450.951	0.52248032
451.161	0.51970581
451.372	0.51734054
451.582	0.51606125
451.792	0.51313326
452.002	0.51084655
452.212	0.50823105
452.422	0.50541513
452.633	0.50271444
452.843	0.50037127
453.053	0.49649152
453.263	0.49416615
453.473	0.49140586
453.683	0.48963143
453.893	0.48688349
454.103	0.48514268
454.313	0.48247696
454.523	0.48013246
454.733	0.47767889
454.943	0.47596904
455.153	0.47356095
455.363	0.47150122
455.573	0.4692567
455.783	0.46730902
455.993	0.46521947
456.203	0.46355792
456.413	0.46116642
456.623	0.45863311
456.833	0.45698941
457.042	0.45460956
457.252	0.45258744
457.462	0.45036533
457.672	0.44794258
457.882	0.44592126
458.091	0.44400099
458.301	0.44132263
458.511	0.43915778
458.721	0.43688567
458.931	0.43493649
459.14	0.43298158
459.35	0.43128103
459.56	0.42965741
459.769	0.4283518
459.979	0.426458
460.189	0.42467773
460.398	0.42285728
460.608	0.42106808
460.817	0.41918727
461.027	0.41723957
461.237	0.41511329
461.446	0.41321244
461.656	0.41168816
461.865	0.40977537
462.075	0.40804208
462.284	0.40634513
462.494	0.40462242
462.703	0.40268434
462.913	0.40122602
463.122	0.39939512
463.332	0.39797461
463.541	0.39665394
463.751	0.39502921
463.96	0.39360729
464.169	0.39226694
464.379	0.39109594
464.588	0.38968547
464.797	0.38817807
465.007	0.38657676
465.216	0.3853432
465.425	0.38389837
465.635	0.38243127
465.844	0.38089953
466.053	0.379523
466.263	0.37825193
466.472	0.37681797
466.681	0.37544029
466.89	0.37393006
467.099	0.37274243
467.309	0.37140782
467.518	0.37028796
467.727	0.36891918
467.936	0.36773682
468.145	0.36649143
468.354	0.36558743
468.563	0.36442504
468.772	0.36329389
468.982	0.36208263
469.191	0.36121513
469.4	0.36016496
469.609	0.3591882
469.818	0.3582779
470.027	0.35728125
470.236	0.35625453
470.445	0.35542952
470.654	0.35427809
470.863	0.35319368
471.072	0.35233294
471.28	0.35117529
471.489	0.35061489
471.698	0.34966749
471.907	0.34871717
472.116	0.34803628
472.325	0.34732127
472.534	0.34659438
472.743	0.34585335
472.951	0.34521621
473.16	0.34490163
473.369	0.34431823
473.578	0.34386229
473.786	0.34352737
473.995	0.34292941
474.204	0.3425471
474.413	0.34175213
474.621	0.34100952
474.83	0.34064284
475.039	0.34013117
475.247	0.33951141
475.456	0.33906089
475.665	0.33857007
475.873	0.33821752
476.082	0.33774858
476.291	0.33721383
476.499	0.33683544
476.708	0.33629353
476.916	0.33607427
477.125	0.33567172
477.333	0.33538854
477.542	0.33527884
477.75	0.33504753
477.959	0.33493555
478.167	0.33494274
478.376	0.3345208
478.584	0.33447568
478.793	0.33426127
479.001	0.33397834
479.209	0.33386588
479.418	0.33360737
479.626	0.33344723
479.834	0.33347023
480.043	0.33344714
480.251	0.33330695
480.459	0.33332919
480.668	0.33334459
480.876	0.33335645
481.084	0.33338135
481.293	0.33335374
481.501	0.33334503
481.709	0.33359128
481.917	0.33366632
482.125	0.33377131
482.334	0.33383202
482.542	0.33391113
482.75	0.33407431
482.958	0.3342604
483.166	0.33440416
483.374	0.3346071
483.583	0.33485473
483.791	0.33522142
483.999	0.33549666
484.207	0.33590057
484.415	0.33606379
484.623	0.3363157
484.831	0.336621
485.039	0.33692459
485.247	0.33731467
485.455	0.33774802
485.663	0.33809492
485.871	0.33857569
486.079	0.33892135
486.287	0.33932601
486.495	0.33965221
486.702	0.33994318
486.91	0.34044687
487.118	0.34090637
487.326	0.34140864
487.534	0.34192895
487.742	0.34251294
487.95	0.34316339
488.157	0.34379019
488.365	0.34440108
488.573	0.34499785
488.781	0.34565174
488.988	0.34648884
489.196	0.34715347
489.404	0.3477885
489.612	0.34849116
489.819	0.34912474
490.027	0.34977958
490.235	0.35047342
490.442	0.35119177
490.65	0.35194587
490.857	0.35277362
491.065	0.35358883
491.273	0.35437536
491.48	0.3553124
491.688	0.35603768
491.895	0.35674174
492.103	0.3574991
492.31	0.35829612
492.518	0.35908149
492.725	0.36005779
492.933	0.36083257
493.14	0.36182882
493.348	0.36273084
493.555	0.36373357
493.763	0.36469976
493.97	0.36566313
494.177	0.36657025
494.385	0.3675118
494.592	0.36849567
494.8	0.3695585
495.007	0.37064814
495.214	0.37174467
495.422	0.37290307
495.629	0.37392087
495.836	0.37505811
496.043	0.37620841
496.251	0.3774692
496.458	0.37856799
496.665	0.37959683
496.872	0.38065001
497.08	0.38184942
497.287	0.38292702
497.494	0.38413047
497.701	0.38520311
497.908	0.38642089
498.115	0.38760913
498.322	0.38873612
498.53	0.38990155
498.737	0.39106302
498.944	0.39220526
499.151	0.39338757
499.358	0.39461578
499.565	0.39592564
499.772	0.39732435
499.979	0.39861203
500.186	0.40008143
500.393	0.40134556
500.6	0.40273976
500.807	0.4040067
501.014	0.40527526
501.221	0.40659727
501.427	0.40789317
501.634	0.40921022
501.841	0.41057453
502.048	0.41195334
502.255	0.41323155
502.462	0.41474775
502.669	0.41630553
502.875	0.41787663
503.082	0.41946948
503.289	0.42100936
503.496	0.4224328
503.702	0.42394846
503.909	0.42529254
504.116	0.4266674
504.323	0.4281473
504.529	0.42950889
504.736	0.43107802
504.943	0.43252137
505.149	0.43421511
505.356	0.43595111
505.563	0.43754341
505.769	0.43908926
505.976	0.44062381
506.182	0.44224613
506.389	0.44395156
506.595	0.4455603
506.802	0.44715743
507.008	0.4487887
507.215	0.45044007
507.421	0.45212258
507.628	0.45367455
507.834	0.45521302
508.041	0.45688613
508.247	0.45845444
508.454	0.46019103
508.66	0.46169881
508.866	0.46341788
509.073	0.46515436
509.279	0.46697099
509.486	0.46858436
509.692	0.47028422
509.898	0.47195297
510.105	0.4737892
510.311	0.47537265
510.517	0.47708393
510.723	0.47877087
510.93	0.48032779
511.136	0.48210786
511.342	0.483818
511.548	0.48550439
511.754	0.4874552
511.961	0.48927796
512.167	0.49110787
512.373	0.4930331
512.579	0.49485771
512.785	0.49666347
512.991	0.49851608
513.197	0.50021338
513.404	0.50198822
513.61	0.50377138
513.816	0.5054751
514.022	0.50709159
514.228	0.5087774
514.434	0.51048576
514.64	0.51228685
514.846	0.51415017
515.052	0.51600025
515.258	0.51786933
515.464	0.51977029
515.669	0.52167455
515.875	0.52362888
516.081	0.52547994
516.287	0.52733165
516.493	0.52918423
516.699	0.53097494
516.905	0.53280951
517.111	0.53463802
517.316	0.53648032
517.522	0.53845783
517.728	0.54037401
517.934	0.54228462
518.139	0.54417454
518.345	0.54595171
518.551	0.54789065
518.757	0.54979453
518.962	0.55161642
519.168	0.5535104
519.374	0.55528045
519.579	0.55728122
519.785	0.5594781
519.991	0.56142327
520.196	0.56333108
520.402	0.56521015
520.607	0.56715054
520.813	0.56924942
521.018	0.57109856
521.224	0.57267932
521.429	0.57463868
521.635	0.57656898
521.84	0.57830929
522.046	0.58014507
522.251	0.58200681
522.457	0.58390837
522.662	0.58610825
522.868	0.58800699
523.073	0.58981776
523.279	0.59188457
523.484	0.59364221
523.689	0.59547931
523.895	0.59753626
524.1	0.59935077
524.305	0.60123655
524.511	0.60331264
524.716	0.60525213
524.921	0.60728311
525.126	0.60930683
525.332	0.61126526
525.537	0.61324159
525.742	0.61537258
525.947	0.6173237
526.153	0.61922928
526.358	0.62128353
526.563	0.62312347
526.768	0.62499578
526.973	0.62697339
527.178	0.62881936
527.383	0.63074681
527.588	0.63277679
527.794	0.63451593
527.999	0.6364295
528.204	0.63827468
528.409	0.63998778
528.614	0.64181514
528.819	0.64368206
529.024	0.64542331
529.229	0.64724666
529.434	0.6493389
529.639	0.65122341
529.843	0.65331885
530.048	0.65523107
530.253	0.65705422
530.458	0.65905141
530.663	0.66105697
530.868	0.66290111
531.073	0.66474164
531.278	0.66647181
531.482	0.6683111
531.687	0.67015464
531.892	0.67198647
532.097	0.67365099
532.302	0.6755232
532.506	0.67732953
532.711	0.67914288
532.916	0.68088713
533.12	0.68270762
533.325	0.68445253
533.53	0.68661463
533.734	0.68833908
533.939	0.69035113
534.144	0.69223769
534.348	0.6942517
534.553	0.69607988
534.757	0.69786636
534.962	0.69953899
535.167	0.70154069
535.371	0.70330429
535.576	0.70535749
535.78	0.70711456
535.985	0.70909638
536.189	0.71099275
536.394	0.71287664
536.598	0.71445958
536.803	0.71624598
537.007	0.71782394
537.211	0.7198187
537.416	0.7215028
537.62	0.72329249
537.825	0.72505503
538.029	0.72725191
538.233	0.72898392
538.438	0.73078147
538.642	0.73223711
538.846	0.73424479
539.05	0.7360529
539.255	0.73769625
539.459	0.73914335
539.663	0.74086933
539.867	0.74276486
540.072	0.74470011
540.276	0.74610631
540.48	0.74795103
540.684	0.74975808
540.888	0.75169297
541.092	0.75345278
541.297	0.75507271
541.501	0.75663447
541.705	0.75857423
541.909	0.76009297
542.113	0.76165846
542.317	0.76322529
542.521	0.76496204
542.725	0.76675579
542.929	0.76849639
543.133	0.77005648
543.337	0.77180903
543.541	0.77357235
543.745	0.77506034
543.949	0.7766176
544.153	0.77809624
544.357	0.77955308
544.56	0.78121968
544.764	0.78287783
544.968	0.78445243
545.172	0.78594844
545.376	0.78768376
545.58	0.78930043
545.783	0.7911461
545.987	0.79255176
546.191	0.79405965
546.395	0.79563777
546.598	0.7974403
546.802	0.79902799
547.006	0.80058524
547.21	0.80172879
547.413	0.80344459
547.617	0.80501278
547.821	0.8066077
548.024	0.80817251
548.228	0.80956599
548.431	0.8111558
548.635	0.81292979
548.839	0.81442031
549.042	0.81591088
549.246	0.81726043
549.449	0.81869515
549.653	0.82024652
549.856	0.82160544
550.06	0.82297688
550.263	0.82442089
550.467	0.82586298
550.67	0.82753058
550.874	0.82883872
551.077	0.83032054
551.28	0.83194856
551.484	0.83356459
551.687	0.83498572
551.891	0.83654875
552.094	0.83772557
552.297	0.83924173
552.501	0.84079592
552.704	0.84207146
552.907	0.84336065
553.11	0.84454189
553.314	0.8457099
553.517	0.84685603
553.72	0.84811567
553.923	0.84912354
554.127	0.85044832
554.33	0.85144149
554.533	0.85289898
554.736	0.85413655
554.939	0.85565944
555.142	0.85711887
555.345	0.8586873
555.549	0.86017539
555.752	0.86172344
555.955	0.86305908
556.158	0.86457211
556.361	0.86580277
556.564	0.86688729
556.767	0.86789838
556.97	0.86898969
557.173	0.87031449
557.376	0.87174368
557.579	0.87281927
557.782	0.87411813
557.984	0.87560614
558.187	0.87702905
558.39	0.87828237
558.593	0.87951291
558.796	0.88043295
558.999	0.88151513
559.202	0.88257422
559.404	0.8833579
559.607	0.88433097
559.81	0.88523263
560.013	0.88618122
560.216	0.88723158
560.418	0.88846965
560.621	0.88967251
560.824	0.89102282
561.026	0.89219568
561.229	0.89337055
561.432	0.89453557
561.634	0.89574868
561.837	0.89658871
562.04	0.89764015
562.242	0.89863385
562.445	0.89968348
562.647	0.90078191
562.85	0.90151689
563.053	0.90233584
563.255	0.90353734
563.458	0.90466376
563.66	0.90574837
563.863	0.90692845
564.065	0.90807938
564.268	0.9092675
564.47	0.91042315
564.672	0.91132588
564.875	0.9124478
565.077	0.91337131
565.28	0.91422843
565.482	0.91520402
565.684	0.91611471
565.887	0.91708835
566.089	0.91827809
566.291	0.91891402
566.494	0.91987895
566.696	0.92053639
566.898	0.92139698
567.1	0.92248242
567.303	0.92339533
567.505	0.92410059
567.707	0.92479551
567.909	0.92548639
568.111	0.92652089
568.314	0.92732962
568.516	0.92800457
568.718	0.9286253
568.92	0.92938934
569.122	0.93038857
569.324	0.93118922
569.526	0.93169936
569.728	0.93248668
569.93	0.93314914
570.132	0.93379906
570.334	0.93446032
570.536	0.93506762
570.738	0.9355816
570.94	0.93633732
571.142	0.93713082
571.344	0.93773562
571.546	0.93847264
571.748	0.93938168
571.95	0.94008389
572.152	0.94093771
572.354	0.94161988
572.555	0.9422097
572.757	0.94315053
572.959	0.94376439
573.161	0.94392425
573.363	0.94456062
573.564	0.94549939
573.766	0.94621403
573.968	0.94674817
574.17	0.94701605
574.371	0.94786325
574.573	0.94867942
574.775	0.94900851
574.976	0.94919026
575.178	0.94958535
575.38	0.94985478
575.581	0.95033814
575.783	0.95075467
575.985	0.95116513
576.186	0.95187313
576.388	0.95235622
576.589	0.9526422
576.791	0.95321344
576.992	0.95380408
577.194	0.95417841
577.395	0.95450904
577.597	0.95484531
577.798	0.9552845
578	0.95582749
578.201	0.95616453
578.402	0.95643966
578.604	0.95674253
578.805	0.95733589
579.007	0.95774802
579.208	0.95807414
579.409	0.95855781
579.611	0.95873546
579.812	0.95924689
580.013	0.95937537
580.215	0.95925953
580.416	0.95944195
580.617	0.95953252
580.818	0.95973941
581.019	0.96016602
581.221	0.96032551
581.422	0.96056847
581.623	0.96109878
581.824	0.96110394
582.025	0.96143976
582.226	0.96161917
582.428	0.96188697
582.629	0.96220472
582.83	0.96233749
583.031	0.96256983
583.232	0.96328632
583.433	0.96359856
583.634	0.96367763
583.835	0.96378533
584.036	0.96371431
584.237	0.96401326
584.438	0.96409189
584.639	0.96367723
584.84	0.96371463
585.041	0.96367065
585.242	0.96367663
585.442	0.96373716
585.643	0.96395987
585.844	0.96377786
586.045	0.96410016
586.246	0.96381823
586.447	0.96385537
586.647	0.96360355
586.848	0.96352213
587.049	0.96328151
587.25	0.96326398
587.45	0.96299919
587.651	0.96315997
587.852	0.96317535
588.053	0.96352426
588.253	0.96328983
588.454	0.96332418
588.655	0.96310949
588.855	0.96278575
589.056	0.96269456
589.256	0.96249718
589.457	0.96193115
589.658	0.96207708
589.858	0.9615878
590.059	0.96142978
590.259	0.96142529
590.46	0.96093424
590.66	0.96071072
590.861	0.96067753
591.061	0.96026672
591.262	0.96030535
591.462	0.96024047
591.662	0.95996441
591.863	0.95974164
592.063	0.95956764
592.264	0.95931624
592.464	0.95909278
592.664	0.95884279
592.865	0.95847691
593.065	0.95791279
593.265	0.95791477
593.465	0.95739598
593.666	0.95700999
593.866	0.95655601
594.066	0.95610281
594.266	0.95592862
594.467	0.95550938
594.667	0.95495598
594.867	0.95450415
595.067	0.95406977
595.267	0.95364348
595.467	0.95319145
595.668	0.95262721
595.868	0.95256492
596.068	0.95228017
596.268	0.95201653
596.468	0.95165254
596.668	0.95131038
596.868	0.95073859
597.068	0.95034776
597.268	0.94981345
597.468	0.94915049
597.668	0.94858911
597.868	0.94806596
598.068	0.94745306
598.268	0.94711073
598.467	0.94657629
598.667	0.94612519
598.867	0.9455102
599.067	0.94502164
599.267	0.94439836
599.467	0.94386162
599.667	0.94310199
599.866	0.94260799
600.066	0.94199501
600.266	0.94128737
600.466	0.94069033
600.665	0.94012022
600.865	0.93934633
601.065	0.93892499
601.264	0.93813856
601.464	0.93742462
601.664	0.9370173
601.863	0.93644478
602.063	0.93599068
602.263	0.93517754
602.462	0.93456087
602.662	0.93397405
602.861	0.93313987
603.061	0.93230497
603.26	0.93150063
603.46	0.93046101
603.659	0.92998011
603.859	0.92907347
604.058	0.92823314
604.258	0.92759093
604.457	0.92709402
604.657	0.92619215
604.856	0.92542301
605.056	0.92471817
605.255	0.92394411
605.454	0.92314948
605.654	0.9223668
605.853	0.9214645
606.052	0.920531
606.252	0.91980799
606.451	0.91901217
606.65	0.91830984
606.849	0.91724934
607.049	0.91625527
607.248	0.9152209
607.447	0.91451055
607.646	0.91372902
607.845	0.9127421
608.045	0.91166583
608.244	0.91103979
608.443	0.9102092
608.642	0.90946154
608.841	0.90847831
609.04	0.90746496
609.239	0.90652669
609.438	0.90559304
609.637	0.90454372
609.836	0.90372013
610.035	0.90269721
610.234	0.90185297
610.433	0.90091318
610.632	0.90003593
610.831	0.89908134
611.03	0.89814144
611.229	0.89727522
611.428	0.89634577
611.627	0.89530622
611.826	0.89422503
612.025	0.8932069
612.224	0.89208226
612.422	0.89084505
612.621	0.88943751
612.82	0.88824085
613.019	0.88709907
613.218	0.88599817
613.416	0.88467728
613.615	0.88359791
613.814	0.8825192
614.012	0.88155707
614.211	0.88048459
614.41	0.8794595
614.608	0.87851204
614.807	0.8775037
615.006	0.8764788
615.204	0.87543932
615.403	0.87454465
615.602	0.87363974
615.8	0.87253547
615.999	0.87107992
616.197	0.86986691
616.396	0.86860851
616.594	0.86729516
616.793	0.86606042
616.991	0.86457917
617.19	0.86311962
617.388	0.86212506
617.586	0.86090323
617.785	0.85971381
617.983	0.85871293
618.182	0.8573316
618.38	0.85610338
618.578	0.85505511
618.777	0.85400474
618.975	0.85314482
619.173	0.85210165
619.372	0.8509878
619.57	0.84982606
619.768	0.84879371
619.966	0.84750159
620.165	0.84576545
620.363	0.84429998
620.561	0.84275618
620.759	0.84135628
620.957	0.84007183
621.155	0.83868396
621.354	0.83738665
621.552	0.83650522
621.75	0.83520183
621.948	0.83424867
622.146	0.83296814
622.344	0.83165685
622.542	0.83044675
622.74	0.82907242
622.938	0.82775509
623.136	0.82657658
623.334	0.82535266
623.532	0.82398817
623.73	0.82290503
623.928	0.82173919
624.126	0.82066831
624.324	0.81948696
624.522	0.81806969
624.719	0.81650806
624.917	0.8153836
625.115	0.81371404
625.313	0.81231645
625.511	0.81094651
625.708	0.80928345
625.906	0.80776205
626.104	0.80639057
626.302	0.80484411
626.499	0.80349711
626.697	0.80201224
626.895	0.80050956
627.093	0.79924993
627.29	0.79805323
627.488	0.796649
627.686	0.79537275
627.883	0.79405088
628.081	0.79247097
628.278	0.79117005
628.476	0.78968161
628.673	0.78819995
628.871	0.78686467
629.068	0.78530371
629.266	0.78387422
629.463	0.78262505
629.661	0.7811015
629.858	0.77974733
630.056	0.77823588
630.253	0.77686795
630.451	0.77552478
630.648	0.77395512
630.845	0.77239455
631.043	0.7708921
631.24	0.76936139
631.438	0.76777556
631.635	0.7659913
631.832	0.76430182
632.029	0.76290465
632.227	0.76135337
632.424	0.75998522
632.621	0.75851801
632.818	0.75714041
633.016	0.7556915
633.213	0.75419523
633.41	0.75251149
633.607	0.75095636
633.804	0.7492836
634.001	0.74757172
634.199	0.74595077
634.396	0.74452931
634.593	0.74293124
634.79	0.7416396
634.987	0.74018385
635.184	0.73881772
635.381	0.73747302
635.578	0.7360868
635.775	0.73450242
635.972	0.73313576
636.169	0.73164819
636.366	0.73028727
636.563	0.72870537
636.76	0.72706172
636.957	0.72549541
637.153	0.72381596
637.35	0.72227102
637.547	0.72052222
637.744	0.71870989
637.941	0.71719542
638.138	0.71566602
638.334	0.71412873
638.531	0.71274821
638.728	0.71123166
638.925	0.70990396
639.121	0.70859735
639.318	0.70697754
639.515	0.70546861
639.711	0.70410002
639.908	0.70244321
640.105	0.70089675
640.301	0.69932534
640.498	0.6977527
640.695	0.69645465
640.891	0.69499887
641.088	0.69338877
641.284	0.69201328
641.481	0.69061152
641.677	0.68910927
641.874	0.68753048
642.07	0.68590548
642.267	0.68459432
642.463	0.68295139
642.66	0.68147239
642.856	0.67977969
643.053	0.67802899
643.249	0.67637853
643.445	0.67477576
643.642	0.67283507
643.838	0.67129625
644.034	0.66961739
644.231	0.66798116
644.427	0.66653691
644.623	0.66511129
644.82	0.66368395
645.016	0.66219532
645.212	0.66058394
645.408	0.659021
645.604	0.65766874
645.801	0.65618491
645.997	0.65448255
646.193	0.65274401
646.389	0.6512779
646.585	0.64982823
646.781	0.64835637
646.977	0.64683075
647.173	0.64515342
647.37	0.64358528
647.566	0.64200295
647.762	0.64040075
647.958	0.63891393
648.154	0.6372099
648.35	0.63557853
648.546	0.63401992
648.742	0.63262793
648.937	0.63118437
649.133	0.62986184
649.329	0.62839443
649.525	0.62704079
649.721	0.62553276
649.917	0.62415693
650.113	0.62249849
650.309	0.6210891
650.504	0.61947397
650.7	0.61790668
650.896	0.61633379
651.092	0.61480909
651.287	0.61325116
651.483	0.61190838
651.679	0.61029999
651.875	0.60874109
652.07	0.60722267
652.266	0.6056393
652.462	0.60415068
652.657	0.60250956
652.853	0.60086814
653.048	0.59937247
653.244	0.59786498
653.44	0.59626887
653.635	0.59464785
653.831	0.59299642
654.026	0.59160785
654.222	0.5900449
654.417	0.58851252
654.613	0.58692385
654.808	0.58536062
655.004	0.58397951
655.199	0.58259633
655.394	0.58117984
655.59	0.57983501
655.785	0.57822587
655.98	0.57666443
656.176	0.57504782
656.371	0.57369128
656.566	0.57228668
656.762	0.57069096
656.957	0.56916362
657.152	0.56780276
657.348	0.56638117
657.543	0.56516646
657.738	0.56359052
657.933	0.56203425
658.128	0.56045977
658.324	0.55888628
658.519	0.55740559
658.714	0.55594977
658.909	0.55431861
659.104	0.55290136
659.299	0.55137522
659.494	0.54995575
659.689	0.54856484
659.884	0.54699292
660.079	0.54550137
660.274	0.54402703
660.469	0.54251831
660.664	0.54117311
660.859	0.53977486
661.054	0.53835499
661.249	0.53696176
661.444	0.53551964
661.639	0.53400041
661.834	0.53247051
662.029	0.53100689
662.224	0.52947664
662.418	0.52797181
662.613	0.52659308
662.808	0.52517648
663.003	0.52386228
663.198	0.52247107
663.392	0.52087651
663.587	0.51961318
663.782	0.51812584
663.977	0.51656382
664.171	0.51512278
664.366	0.51351877
664.561	0.5120272
664.755	0.51064785
664.95	0.50909284
665.144	0.50767023
665.339	0.50637496
665.534	0.50498622
665.728	0.50377844
665.923	0.50250688
666.117	0.50118162
666.312	0.49982895
666.506	0.49853332
666.701	0.49701066
666.895	0.49558875
667.09	0.49407835
667.284	0.49257742
667.479	0.49098459
667.673	0.48951591
667.867	0.48800986
668.062	0.48668643
668.256	0.48529753
668.45	0.48413902
668.645	0.48281637
668.839	0.48155571
669.033	0.48025621
669.228	0.47897716
669.422	0.47765524
669.616	0.47636601
669.81	0.47500895
670.004	0.47371818
670.199	0.47248172
670.393	0.47113386
670.587	0.46980318
670.781	0.46853367
670.975	0.46717148
671.169	0.46563233
671.363	0.4641766
671.558	0.46270795
671.752	0.46134899
671.946	0.46003647
672.14	0.45861261
672.334	0.45719215
672.528	0.45598464
672.722	0.45460114
672.916	0.45332764
673.11	0.45192954
673.304	0.45065378
673.497	0.44938313
673.691	0.44830352
673.885	0.44698204
674.079	0.44584187
674.273	0.44458401
674.467	0.44346647
674.661	0.44217282
674.854	0.44075953
675.048	0.43940139
675.242	0.4380898
675.436	0.43683685
675.629	0.43554962
675.823	0.43425982
676.017	0.43307219
676.211	0.43181239
676.404	0.43044845
676.598	0.4292239
676.792	0.42787864
676.985	0.4265988
677.179	0.42516877
677.372	0.42380571
677.566	0.42271981
677.76	0.42160126
677.953	0.4203565
678.147	0.41919512
678.34	0.41801117
678.534	0.41685755
678.727	0.41561463
678.921	0.41435608
679.114	0.41296375
679.307	0.4117665
679.501	0.41047091
679.694	0.40929226
679.888	0.40815237
680.081	0.40710759
680.274	0.40576192
680.468	0.40459772
680.661	0.40329728
680.854	0.40228591
681.048	0.40112668
681.241	0.39997773
681.434	0.39873174
681.627	0.39771423
681.821	0.39661466
682.014	0.3956075
682.207	0.39430026
682.4	0.39319251
682.593	0.39209653
682.786	0.39105165
682.98	0.39006115
683.173	0.3891511
683.366	0.38819564
683.559	0.38732959
683.752	0.38634812
683.945	0.38531976
684.138	0.38427441
684.331	0.38311082
684.524	0.38201569
684.717	0.38092938
684.91	0.37985094
685.103	0.37869484
685.296	0.37750664
685.489	0.37638739
685.682	0.37521365
685.874	0.37413964
686.067	0.37290268
686.26	0.37171529
686.453	0.37060576
686.646	0.36953069
686.839	0.36849406
687.031	0.36748426
687.224	0.36623693
687.417	0.36526691
687.61	0.36417685
687.802	0.36317929
687.995	0.36219213
688.188	0.36122958
688.38	0.3602932
688.573	0.3594686
688.766	0.35852308
688.958	0.35757036
689.151	0.35651256
689.343	0.35551837
689.536	0.35444761
689.729	0.35339086
689.921	0.35228282
690.114	0.35109732
690.306	0.35007274
690.499	0.34913526
690.691	0.34822671
690.884	0.34725868
691.076	0.34634063
691.268	0.3453974
691.461	0.34446357
691.653	0.34358003
691.846	0.34261554
692.038	0.34160956
692.23	0.34063664
692.423	0.33971023
692.615	0.33884955
692.807	0.33809997
692.999	0.33722037
693.192	0.33639906
693.384	0.33558014
693.576	0.33469403
693.768	0.33371203
693.961	0.33276287
694.153	0.33186632
694.345	0.33092276
694.537	0.32997783
694.729	0.32905241
694.921	0.32812654
695.113	0.32743194
695.305	0.32656049
695.498	0.32563739
695.69	0.32487682
695.882	0.32400061
696.074	0.3231985
696.266	0.32238793
696.458	0.32140779
696.65	0.32058007
696.842	0.31976132
697.033	0.31884365
697.225	0.31795767
697.417	0.31709434
697.609	0.31618129
697.801	0.31529967
697.993	0.3144293
698.185	0.31354806
698.376	0.312823
698.568	0.31215471
698.76	0.31149564
698.952	0.31092455
699.144	0.31036568
699.335	0.30983705
699.527	0.30919263
699.719	0.30844893
699.91	0.30769892
700.102	0.30688004
700.294	0.30606695
700.485	0.30523535
700.677	0.30435142
700.869	0.3036586
701.06	0.30292989
701.252	0.30218229
701.443	0.30147688
701.635	0.30076512
701.826	0.30005089
702.018	0.29938361
702.209	0.29872934
702.401	0.29804351
702.592	0.29739624
702.784	0.29675912
702.975	0.29607206
703.166	0.2954271
703.358	0.29467363
703.549	0.29391207
703.741	0.2931968
703.932	0.29244059
704.123	0.29160862
704.315	0.29088434
704.506	0.29023675
704.697	0.28954634
704.888	0.28890764
705.08	0.28828127
705.271	0.28775283
705.462	0.28713807
705.653	0.28652387
705.844	0.28585373
706.035	0.28532979
706.227	0.28476473
706.418	0.28413495
706.609	0.28359063
706.8	0.28313966
706.991	0.28260618
707.182	0.28208666
707.373	0.2814591
707.564	0.28088001
707.755	0.28038073
707.946	0.27980309
708.137	0.27922477
708.328	0.27879212
708.519	0.27837312
708.71	0.27798986
708.901	0.27753772
709.092	0.27709222
709.283	0.27661892
709.473	0.27614451
709.664	0.27559321
709.855	0.27499871
710.046	0.27448942
710.237	0.27393979
710.427	0.2732856
710.618	0.27265387
710.809	0.27204821
711	0.27155631
711.19	0.27108766
711.381	0.27062794
711.572	0.27026996
711.762	0.27005117
711.953	0.26972612
712.144	0.26933714
712.334	0.26882043
712.525	0.26846335
712.715	0.26797757
712.906	0.2673773
713.097	0.26672863
713.287	0.26617548
713.478	0.2657138
713.668	0.26534591
713.859	0.26486723
714.049	0.26446991
714.239	0.26422794
714.43	0.26397615
714.62	0.2637156
714.811	0.26339277
715.001	0.26308342
715.191	0.26264817
715.382	0.26219102
715.572	0.26167917
715.762	0.26110183
715.953	0.26060668
716.143	0.26017601
716.333	0.25960217
716.523	0.25914238
716.714	0.2587509
716.904	0.25839565
717.094	0.25811336
717.284	0.25785296
717.474	0.25759476
717.664	0.2574952
717.855	0.25730305
718.045	0.25707686
718.235	0.25675004
718.425	0.25644078
718.615	0.25596982
718.805	0.25552387
718.995	0.25507585
719.185	0.25477648
719.375	0.25442558
719.565	0.25412967
719.755	0.25385752
719.945	0.25374494
720.135	0.25361457
720.325	0.25346328
720.515	0.25322816
720.704	0.2530495
720.894	0.25286743
721.084	0.25256447
721.274	0.25227948
721.464	0.25200787
721.654	0.25183926
721.843	0.25161045
722.033	0.25143142
722.223	0.25123343
722.413	0.25113279
722.602	0.25099459
722.792	0.25082024
722.982	0.25067472
723.171	0.25064043
723.361	0.25052561
723.55	0.25045226
723.74	0.25036087
723.93	0.25019293
724.119	0.25009979
724.309	0.24975553
724.498	0.24938155
724.688	0.24902052
724.877	0.24869909
725.067	0.2483911
725.256	0.24811372
725.446	0.24777395
725.635	0.24746266
725.825	0.24716341
726.014	0.24693623
726.203	0.2467216
726.393	0.24649217
726.582	0.24624497
726.771	0.2460459
726.961	0.24592739
727.15	0.24579665
727.339	0.24573168
727.529	0.24559447
727.718	0.24546739
727.907	0.24536142
728.096	0.24522021
728.286	0.24514655
728.475	0.24511175
728.664	0.24497735
728.853	0.24494467
729.042	0.24486099
729.231	0.24477939
729.42	0.24459511
729.609	0.2444354
729.799	0.24419784
729.988	0.24401043
730.177	0.24363095
730.366	0.24335587
730.555	0.24303805
730.744	0.24289699
730.933	0.24272065
731.122	0.24259731
731.31	0.24248613
731.499	0.24251228
731.688	0.24258186
731.877	0.24268402
732.066	0.24267999
732.255	0.24263833
732.444	0.24258244
732.632	0.24251337
732.821	0.24249083
733.01	0.24234924
733.199	0.24231665
733.388	0.24237757
733.576	0.24245608
733.765	0.24255629
733.954	0.24263222
734.142	0.24256665
734.331	0.24258986
734.52	0.24255583
734.708	0.24246566
734.897	0.24238007
735.086	0.24224446
735.274	0.24208327
735.463	0.24201099
735.651	0.24191095
735.84	0.2417598
736.028	0.24169125
736.217	0.24164587
736.405	0.24164162
736.594	0.24174985
736.782	0.24182871
736.971	0.24187846
737.159	0.2418834
737.347	0.24178619
737.536	0.24171051
737.724	0.24161581
737.912	0.24134288
738.101	0.24111157
738.289	0.24090824
738.477	0.24076245
738.666	0.24056124
738.854	0.24048997
739.042	0.24046269
739.23	0.24057941
739.418	0.24073877
739.607	0.24096914
739.795	0.24130502
739.983	0.24175056
740.171	0.24201302
740.359	0.24229415
740.547	0.24244575
740.735	0.24253949
740.923	0.24260923
741.112	0.24259655
741.3	0.2425434
741.488	0.24251696
741.676	0.24244317
741.864	0.242498
742.052	0.24255684
742.239	0.24253
742.427	0.24247827
742.615	0.24247314
742.803	0.24245563
742.991	0.2425665
743.179	0.24265871
743.367	0.24280889
743.555	0.24313234
743.742	0.24351571
743.93	0.24388053
744.118	0.24413401
744.306	0.24425983
744.494	0.24435348
744.681	0.24439985
744.869	0.24433235
745.057	0.24421497
745.244	0.24414822
745.432	0.24419188
745.62	0.24426956
745.807	0.24446549
745.995	0.24465684
746.182	0.24481533
746.37	0.24502409
746.558	0.24521768
746.745	0.24536525
746.933	0.24552454
747.12	0.24563454
747.308	0.24578001
747.495	0.24583136
747.683	0.24583726
747.87	0.24583145
748.057	0.24592219
748.245	0.24595273
748.432	0.24598772
748.62	0.24592598
748.807	0.2460575
748.994	0.2462155
749.182	0.24638902
749.369	0.24657802
749.556	0.24672177
749.743	0.24681332
749.931	0.24702051
750.118	0.24732816
750.305	0.247569
750.492	0.24777275
750.68	0.24800704
750.867	0.24833839
751.054	0.24869282
751.241	0.24897021
751.428	0.24917853
751.615	0.24950357
751.802	0.24984864
751.989	0.25006623
752.176	0.25041776
752.363	0.2506754
752.55	0.25098577
752.737	0.25117112
752.924	0.25124849
753.111	0.25133147
753.298	0.25144204
753.485	0.25137113
753.672	0.2513683
753.859	0.25131408
754.046	0.25127214
754.233	0.25139895
754.42	0.25151473
754.606	0.2516039
754.793	0.25184967
754.98	0.25210484
755.167	0.25234409
755.353	0.25270397
755.54	0.25297766
755.727	0.25318406
755.914	0.25339173
756.1	0.25364393
756.287	0.25384911
756.474	0.25399136
756.66	0.25401208
756.847	0.25400286
757.033	0.25398019
757.22	0.25413636
757.407	0.25415417
757.593	0.25417451
757.78	0.2543061
757.966	0.25454728
758.153	0.25479307
758.339	0.25512837
758.526	0.25544985
758.712	0.25566072
758.898	0.25599456
759.085	0.25633513
759.271	0.25665971
759.458	0.25706113
759.644	0.25760345
759.83	0.25805019
760.017	0.25859627
760.203	0.25908581
760.389	0.25948904
760.576	0.25981496
760.762	0.26002437
760.948	0.25996265
761.134	0.25995511
761.32	0.25992107
761.507	0.25998411
761.693	0.26010921
761.879	0.26015578
762.065	0.26030469
762.251	0.26057689
762.437	0.26084322
762.623	0.26111496
762.809	0.26128228
762.995	0.26151302
763.181	0.26187845
763.367	0.26227226
763.553	0.26265565
763.739	0.26299932
763.925	0.26335288
764.111	0.26368888
764.297	0.26406807
764.483	0.26433408
764.669	0.2645263
764.855	0.26479334
765.041	0.26502301
765.227	0.26517955
765.412	0.26537817
765.598	0.26548325
765.784	0.26583137
765.97	0.26618458
766.156	0.26646636
766.341	0.26675562
766.527	0.2671549
766.713	0.26759833
766.898	0.26804814
767.084	0.26833753
767.27	0.26856511
767.455	0.26890191
767.641	0.26930367
767.827	0.26970992
768.012	0.27006305
768.198	0.27051671
768.383	0.27090779
768.569	0.27141578
768.754	0.27179779
768.94	0.27220849
769.125	0.27263826
769.311	0.27291637
769.496	0.27309335
769.682	0.2734567
769.867	0.27378467
770.052	0.27416476
770.238	0.27442739
770.423	0.27462343
770.608	0.27495175
770.794	0.27526148
770.979	0.27540237
771.164	0.27558608
771.35	0.27576087
771.535	0.27596811
771.72	0.27620383
771.905	0.27646805
772.09	0.2767496
772.276	0.27718606
772.461	0.27755094
772.646	0.27793308
772.831	0.27830352
773.016	0.27878617
773.201	0.27927053
773.386	0.27982479
773.571	0.28014056
773.756	0.28042754
773.941	0.28071311
774.126	0.28099737
774.311	0.28125016
774.496	0.28145674
774.681	0.28167793
774.866	0.28200387
775.051	0.28235006
775.236	0.28277023
775.421	0.28314313
775.606	0.28349273
775.791	0.28384649
775.976	0.28413521
776.16	0.28442411
776.345	0.28467273
776.53	0.28486518
776.715	0.28513111
776.899	0.28532975
777.084	0.28551483
777.269	0.28581111
777.454	0.28612786
777.638	0.28648032
777.823	0.28680152
778.008	0.28700726
778.192	0.28723094
778.377	0.28739053
778.561	0.28748748
778.746	0.28760524
778.931	0.28777415
779.115	0.28791284
779.3	0.28818898
779.484	0.28845843
779.669	0.28893542
779.853	0.28929076
780.037	0.28967736
780.222	0.28998379
780.406	0.29033821
780.591	0.2905264
780.775	0.29066869
780.959	0.29068965
781.144	0.29074278
781.328	0.29070538
781.512	0.29060977
781.697	0.29058208
781.881	0.2905682
782.065	0.29054926
782.249	0.29039625
782.434	0.29034397
782.618	0.29032801
782.802	0.2904405
782.986	0.29046356
783.17	0.29061698
783.354	0.29080038
783.539	0.29108948
783.723	0.29138928
783.907	0.29180444
784.091	0.29215942
784.275	0.29256854
784.459	0.29285567
784.643	0.29316666
784.827	0.2934215
785.011	0.29364919
785.195	0.29379181
785.379	0.29396846
785.563	0.29413475
785.747	0.29438721
785.93	0.29468396
786.114	0.29484152
786.298	0.29501997
786.482	0.29515756
786.666	0.29523381
786.85	0.29537209
787.033	0.29545357
787.217	0.2956696
787.401	0.29605486
787.585	0.29642995
787.768	0.29682687
787.952	0.29723847
788.136	0.29749864
788.319	0.29783654
788.503	0.2980493
788.687	0.29838869
788.87	0.29870898
789.054	0.299057
789.237	0.29943493
789.421	0.29981399
789.605	0.30020779
789.788	0.30051696
789.972	0.30079266
790.155	0.3010022
790.338	0.30122431
790.522	0.30147833
790.705	0.30176001
790.889	0.30198408
791.072	0.30232751
791.256	0.30259103
791.439	0.30289556
791.622	0.30315773
791.806	0.30342714
791.989	0.30368394
792.172	0.30407691
792.355	0.30434924
792.539	0.30465144
792.722	0.30487537
792.905	0.30512794
793.088	0.30534815
793.271	0.30580882
793.455	0.30615331
793.638	0.30654612
793.821	0.30673381
794.004	0.30701958
794.187	0.30741755
794.37	0.3077953
794.553	0.30805576
794.736	0.30822257
794.919	0.30839945
795.102	0.30892277
795.285	0.30958154
795.468	0.31003657
795.651	0.31072747
795.834	0.31149654
796.017	0.31235835
796.2	0.31315225
796.383	0.31378885
796.566	0.31429908
796.749	0.31488185
796.931	0.3152922
797.114	0.31547166
797.297	0.31554509
797.48	0.31562318
797.663	0.31569122
797.845	0.31579499
798.028	0.31588357
798.211	0.31594194
798.393	0.31604634
798.576	0.31623132
798.759	0.31639996
798.941	0.31661243
799.124	0.31687566
799.307	0.31708539
799.489	0.31738556
799.672	0.31769044
799.854	0.31787916
800.037	0.31815859
800.219	0.31838014
800.402	0.31852089
800.584	0.31876104
800.767	0.31902433
800.949	0.31937741
801.132	0.31992733
801.314	0.32038233
801.496	0.32080953
801.679	0.32116713
801.861	0.3214243
802.043	0.32153502
802.226	0.32159198
802.408	0.32153038
802.59	0.32164067
802.772	0.32183945
802.955	0.3221139
803.137	0.32240954
803.319	0.32274341
803.501	0.3230571
803.684	0.3234684
803.866	0.32364955
804.048	0.32391566
804.23	0.32415259
804.412	0.32437637
804.594	0.32453649
804.776	0.32486805
804.958	0.32511613
805.14	0.32543979
805.322	0.32560982
805.504	0.32576016
805.686	0.32596664
805.868	0.32609924
806.05	0.32609761
806.232	0.32620472
806.414	0.32644582
806.596	0.32668712
806.778	0.32685667
806.96	0.32704876
807.141	0.32728804
807.323	0.32743054
807.505	0.32745506
807.687	0.32736979
807.869	0.32718931
808.05	0.32700913
808.232	0.32673337
808.414	0.32651445
808.595	0.32628506
808.777	0.32618526
808.959	0.3262141
809.14	0.32626684
809.322	0.32646255
809.504	0.32660913
809.685	0.32679248
809.867	0.32695133
810.048	0.32691908
810.23	0.32685629
810.411	0.32676654
810.593	0.32668388
810.774	0.32674351
810.956	0.32675249
811.137	0.32691489
811.319	0.32718277
811.5	0.32733249
811.681	0.32764566
811.863	0.32778794
812.044	0.32787093
812.225	0.32806243
812.407	0.32796496
812.588	0.32788315
812.769	0.32788199
812.951	0.32776036
813.132	0.32782241
813.313	0.3280461
813.494	0.32815615
813.675	0.32839724
813.857	0.32879381
814.038	0.32916623
814.219	0.32950967
814.4	0.32980294
814.581	0.33003332
814.762	0.33017102
814.943	0.33048314
815.124	0.33050562
815.305	0.33051228
815.486	0.33062618
815.667	0.33072258
815.848	0.33067654
816.029	0.33073466
816.21	0.33086401
816.391	0.33117644
816.572	0.3313748
816.753	0.33166126
816.934	0.33180277
817.115	0.3320733
817.295	0.33231516
817.476	0.33230573
817.657	0.33231289
817.838	0.33258924
818.019	0.33275166
818.199	0.33307962
818.38	0.33327584
818.561	0.33367762
818.741	0.33416238
818.922	0.33455855
819.103	0.33494615
819.283	0.3353672
819.464	0.33576579
819.645	0.33623965
819.825	0.33659489
820.006	0.3369424
820.186	0.33726208
820.367	0.33750018
820.547	0.33767738
820.728	0.33779229
820.908	0.33784034
821.089	0.33789749
821.269	0.33789957
821.45	0.33803775
821.63	0.3380295
821.81	0.33810971
821.991	0.33823365
822.171	0.3384534
822.351	0.33864009
822.532	0.33887827
822.712	0.33903064
822.892	0.33932315
823.072	0.339582
823.253	0.33985962
823.433	0.34006866
823.613	0.34038556
823.793	0.34071949
823.973	0.3411668
824.154	0.34153816
824.334	0.3419094
824.514	0.34222251
824.694	0.34266865
824.874	0.34290226
825.054	0.34323064
825.234	0.34340852
825.414	0.34349779
825.594	0.34361401
825.774	0.34372387
825.954	0.34368182
826.134	0.3437105
826.314	0.34363708
826.494	0.34362209
826.674	0.34357797
826.854	0.34359569
827.033	0.34366247
827.213	0.34403662
827.393	0.34437798
827.573	0.34475119
827.753	0.34499797
827.932	0.34545139
828.112	0.34599449
828.292	0.34642496
828.472	0.34642634
828.651	0.34657521
828.831	0.34655892
829.011	0.34665062
829.19	0.34658827
829.37	0.3465899
829.549	0.34663953
829.729	0.34684704
829.909	0.34689844
830.088	0.34714512
830.268	0.34733029
830.447	0.34763506
830.627	0.34794812
830.806	0.34820209
830.986	0.34832398
831.165	0.34851681
831.344	0.34861351
831.524	0.34865577
831.703	0.34872367
831.883	0.34860424
832.062	0.34869504
832.241	0.34887731
832.421	0.3491145
832.6	0.34936494
832.779	0.34977237
832.958	0.34998682
833.138	0.35009353
833.317	0.35023715
833.496	0.35031539
833.675	0.35037952
833.854	0.35044673
834.034	0.35038461
834.213	0.35037364
834.392	0.35060132
834.571	0.35055235
834.75	0.35063969
834.929	0.35064607
835.108	0.35055636
835.287	0.35073764
835.466	0.35092401
835.645	0.35100098
835.824	0.35119185
836.003	0.35128825
836.182	0.35145527
836.361	0.35170571
836.54	0.35170996
836.719	0.35189232
836.897	0.35192236
837.076	0.35200098
837.255	0.3521101
837.434	0.35222122
837.613	0.35228126
837.791	0.3523823
837.97	0.35236119
838.149	0.35224593
838.328	0.35217506
838.506	0.35207204
838.685	0.351877
838.864	0.35184382
839.042	0.35186413
839.221	0.3520209
839.4	0.35236843
839.578	0.3526724
839.757	0.35301435
839.935	0.35346139
840.114	0.35374669
840.292	0.35383585
840.471	0.35381888
840.649	0.35377116
840.828	0.35364349
841.006	0.35350653
841.185	0.35335137
841.363	0.35344782
841.541	0.35365094
841.72	0.35384654
841.898	0.35410506
842.076	0.35442907
842.255	0.35475843
842.433	0.35521456
842.611	0.3554592
842.789	0.35563892
842.968	0.35590147
843.146	0.35603273
843.324	0.3561578
843.502	0.35621738
843.68	0.35628788
843.859	0.35625571
844.037	0.3561043
844.215	0.35587257
844.393	0.35572105
844.571	0.35552665
844.749	0.35543453
844.927	0.35522471
845.105	0.35507913
845.283	0.35501291
845.461	0.35508855
845.639	0.35518611
845.817	0.35521595
845.995	0.35527779
846.173	0.35534866
846.351	0.35519738
846.529	0.35518909
846.706	0.35505699
846.884	0.35501905
847.062	0.35494917
847.24	0.35484068
847.418	0.35478429
847.595	0.35492693
847.773	0.35514469
847.951	0.35519685
848.129	0.3550701
848.306	0.35508326
848.484	0.35505004
848.662	0.35493735
848.839	0.35487105
849.017	0.35466484
849.194	0.35456497
849.372	0.35457406
849.549	0.35446741
849.727	0.35454952
849.905	0.35452153
850.082	0.35461664
850.26	0.35486813
850.437	0.35513109
850.614	0.35536338
850.792	0.3555364
850.969	0.3557375
851.147	0.3560086
851.324	0.35608358
851.501	0.35601527
851.679	0.35599912
851.856	0.35594137
852.033	0.35622345
852.211	0.35624244
852.388	0.35618229
852.565	0.35634972
852.742	0.35656195
852.92	0.35657711
853.097	0.35661321
853.274	0.35653938
853.451	0.35646202
853.628	0.35645124
853.805	0.35627187
853.982	0.35606408
854.159	0.35591029
854.336	0.35574269
854.514	0.35550298
854.691	0.35547628
854.868	0.3555283
855.045	0.3555821
855.221	0.35577396
855.398	0.35586554
855.575	0.35595153
855.752	0.35605016
855.929	0.35610739
856.106	0.35586964
856.283	0.35568254
856.46	0.35547813
856.637	0.35539359
856.813	0.35522595
856.99	0.35498281
857.167	0.35474795
857.344	0.35470671
857.52	0.35461538
857.697	0.35425919
857.874	0.35408385
858.05	0.35409647
858.227	0.35404053
858.404	0.35403454
858.58	0.35414206
858.757	0.35415139
858.933	0.35436461
859.11	0.35440372
859.287	0.35417565
859.463	0.35402385
859.64	0.353959
859.816	0.35365441
859.993	0.35361557
860.169	0.3535607
860.345	0.353524
860.522	0.35365372
860.698	0.35377305
860.875	0.35375579
861.051	0.35399432
861.227	0.35400116
861.404	0.35415225
861.58	0.35429352
861.756	0.35423278
861.932	0.35429844
862.109	0.35418857
862.285	0.35413464
862.461	0.35407397
862.637	0.35371997
862.813	0.35342346
862.99	0.35321385
863.166	0.35286589
863.342	0.35280887
863.518	0.35236914
863.694	0.35206434
863.87	0.35168611
864.046	0.35142525
864.222	0.35122568
864.398	0.35117913
864.574	0.35082051
864.75	0.35075107
864.926	0.35067552
865.102	0.35074821
865.278	0.35050632
865.454	0.35048893
865.63	0.35023908
865.805	0.3502272
865.981	0.35025009
866.157	0.35029689
866.333	0.35018601
866.509	0.35040577
866.684	0.35044082
866.86	0.35079581
867.036	0.35084793
867.212	0.35051015
867.387	0.35027336
867.563	0.350201
867.739	0.3499876
867.914	0.34977687
868.09	0.34934823
868.265	0.348908
868.441	0.34880873
868.617	0.34870209
868.792	0.34867598
868.968	0.34852426
869.143	0.34846294
869.319	0.34841764
869.494	0.34834993
869.67	0.34831203
869.845	0.34813563
870.02	0.34788583
870.196	0.34791342
870.371	0.34776337
870.546	0.3476282
870.722	0.34784725
870.897	0.34767837
871.072	0.34759646
871.248	0.34731949
871.423	0.34700827
871.598	0.34679618
871.773	0.3464502
871.949	0.34603942
872.124	0.34592158
872.299	0.34566375
872.474	0.34554961
872.649	0.34536963
872.824	0.34515298
872.999	0.3451342
873.174	0.34507174
873.349	0.34503254
873.524	0.34487564
873.699	0.34485691
873.874	0.34464601
874.049	0.3444669
874.224	0.34401319
874.399	0.34348511
874.574	0.34311414
874.749	0.34276779
874.924	0.34220189
875.099	0.34175998
875.274	0.34146243
875.449	0.34149545
875.623	0.34126648
875.798	0.34081942
875.973	0.34054213
876.148	0.3402764
876.322	0.34025475
876.497	0.33985938
876.672	0.33941383
876.846	0.33926342
877.021	0.33912662
877.196	0.33871047
877.37	0.33884776
877.545	0.3387897
877.72	0.33867878
877.894	0.33864496
878.069	0.33842223
878.243	0.33812666
878.418	0.33823056
878.592	0.33792109
878.767	0.33759763
878.941	0.33768668
879.116	0.33747911
879.29	0.33762234
879.464	0.3376848
879.639	0.33766925
879.813	0.33782987
879.987	0.33778399
880.162	0.33770772
880.336	0.3377381
880.51	0.33767586
880.685	0.33764181
880.859	0.33753637
881.033	0.33708924
881.207	0.33671286
881.381	0.33650692
881.556	0.33614921
881.73	0.33568932
881.904	0.33553313
882.078	0.3352909
882.252	0.33524539
882.426	0.33519138
882.6	0.33483015
882.774	0.33457928
882.948	0.33430206
883.122	0.33375093
883.296	0.33320773
883.47	0.33280193
883.644	0.33250579
883.818	0.3320872
883.992	0.33197708
884.166	0.33194084
884.34	0.33199654
884.514	0.3321356
884.687	0.3320199
884.861	0.33186926
885.035	0.33186073
885.209	0.33150876
885.382	0.33103413
885.556	0.33064009
885.73	0.33027742
885.904	0.33000248
886.077	0.3296534
886.251	0.32940098
886.425	0.32910152
886.598	0.32894083
886.772	0.32859451
886.945	0.32819669
887.119	0.32786536
887.292	0.32761053
887.466	0.3274406
887.64	0.32723099
887.813	0.32702973
887.986	0.32693603
888.16	0.32684192
888.333	0.32652622
888.507	0.32629275
888.68	0.32594147
888.854	0.32585138
889.027	0.3255942
889.2	0.32550765
889.374	0.32539144
889.547	0.32535514
889.72	0.32533269
889.893	0.32509392
890.067	0.32472274
890.24	0.3243941
890.413	0.32396436
890.586	0.32338392
890.759	0.32308461
890.933	0.32274589
891.106	0.32245763
891.279	0.32228863
891.452	0.32204002
891.625	0.32169549
891.798	0.32165342
891.971	0.32152001
892.144	0.321232
892.317	0.32117947
892.49	0.32090566
892.663	0.32081677
892.836	0.32098798
893.009	0.32094001
893.182	0.32054961
893.355	0.3204823
893.527	0.32026463
893.7	0.32029219
893.873	0.32020934
894.046	0.31980967
894.219	0.31971918
894.391	0.3196392
894.564	0.31942168
894.737	0.31904656
894.91	0.31869451
895.082	0.3182246
895.255	0.31786423
895.428	0.31728671
895.6	0.31671452
895.773	0.31598266
895.945	0.31552623
896.118	0.31507937
896.291	0.31484513
896.463	0.31447101
896.636	0.31407016
896.808	0.31377856
896.981	0.31355016
897.153	0.31313139
897.326	0.31263635
897.498	0.31211164
897.67	0.31172272
897.843	0.31145837
898.015	0.31130296
898.187	0.31100019
898.36	0.31055703
898.532	0.31013562
898.704	0.30996395
898.877	0.30948956
899.049	0.30901548
899.221	0.3085538
899.393	0.30816842
899.566	0.30809177
899.738	0.30796389
899.91	0.30745843
900.082	0.3070711
900.254	0.30668922
900.426	0.30632369
900.598	0.30612036
900.77	0.30567372
900.942	0.30541998
901.114	0.30533476
901.286	0.30539635
901.458	0.30547762
901.63	0.30551515
901.802	0.3055671
901.974	0.30560488
902.146	0.30543702
902.318	0.30512526
902.49	0.30488015
902.662	0.30447309
902.834	0.30408381
903.005	0.30367827
903.177	0.30331139
903.349	0.30297227
903.521	0.30258941
903.693	0.30205359
903.864	0.30164923
904.036	0.30127001
904.208	0.30075299
904.379	0.30031755
904.551	0.30008377
904.723	0.2998337
904.894	0.29949062
905.066	0.29936884
905.237	0.29917174
905.409	0.29887866
905.58	0.29882297
905.752	0.29829528
905.923	0.29791334
906.095	0.29762944
906.266	0.29707941
906.438	0.29644484
906.609	0.29607635
906.78	0.29539972
906.952	0.29517254
907.123	0.29474094
907.295	0.29484979
907.466	0.29497788
907.637	0.29521717
907.808	0.29513947
907.98	0.29515711
908.151	0.29487314
908.322	0.29491566
908.493	0.29438511
908.665	0.29386132
908.836	0.29321317
909.007	0.29284137
909.178	0.29227419
909.349	0.29194422
909.52	0.29151909
909.691	0.29105676
909.862	0.29058082
910.033	0.290178
910.204	0.28978364
910.375	0.28970321
910.546	0.28957527
910.717	0.28916713
910.888	0.28901319
911.059	0.28873071
911.23	0.28854467
911.401	0.28813465
911.572	0.28762347
911.742	0.28708946
911.913	0.28675715
912.084	0.28625923
912.255	0.28592293
912.426	0.2854174
912.596	0.28495881
912.767	0.28464271
912.938	0.28428331
913.108	0.28390488
913.279	0.28344335
913.45	0.28296316
913.62	0.28260276
913.791	0.28241038
913.962	0.28193895
914.132	0.28144281
914.303	0.28107493
914.473	0.28090232
914.644	0.28055193
914.814	0.28031623
914.985	0.28006184
915.155	0.27995057
915.326	0.27977136
915.496	0.27952025
915.666	0.27919256
915.837	0.27922
916.007	0.27866923
916.177	0.27784603
916.348	0.27721523
916.518	0.27661757
916.688	0.27608776
916.858	0.27555685
917.029	0.27497855
917.199	0.27485179
917.369	0.2751496
917.539	0.27513405
917.709	0.27511505
917.88	0.27497271
918.05	0.2750211
918.22	0.2749904
918.39	0.27466678
918.56	0.27434688
918.73	0.27424428
918.9	0.27399
919.07	0.27383461
919.24	0.27362085
919.41	0.27334583
919.58	0.27312355
919.75	0.27285235
919.92	0.27221338
920.09	0.27193176
920.26	0.27148885
920.429	0.27096989
920.599	0.27048345
920.769	0.27005801
920.939	0.26951589
921.109	0.26923764
921.278	0.2688408
921.448	0.26860507
921.618	0.26827014
921.787	0.26790312
921.957	0.26769986
922.127	0.26738404
922.296	0.2671065
922.466	0.26663806
922.636	0.26622987
922.805	0.26572734
922.975	0.26519329
923.144	0.264573
923.314	0.26392823
923.483	0.2634086
923.653	0.26308004
923.822	0.26268602
923.992	0.26238222
924.161	0.26202875
924.331	0.26198711
924.5	0.26176138
924.669	0.26126358
924.839	0.26086814
925.008	0.26036659
925.177	0.25966078
925.347	0.25924731
925.516	0.25870181
925.685	0.25842784
925.854	0.25827845
926.023	0.25801303
926.193	0.25802618
926.362	0.25812015
926.531	0.25820354
926.7	0.25805946
926.869	0.25789073
927.038	0.25745033
927.207	0.2571124
927.376	0.2564828
927.545	0.25618892
927.715	0.25557339
927.884	0.25513566
928.052	0.25479282
928.221	0.25441886
928.39	0.25395578
928.559	0.25361281
928.728	0.2533571
928.897	0.25331461
929.066	0.25325684
929.235	0.25277335
929.404	0.25248376
929.572	0.25217151
929.741	0.25187149
929.91	0.25137933
930.079	0.25057633
930.247	0.24993619
930.416	0.24965956
930.585	0.24934029
930.753	0.24902599
930.922	0.2486912
931.091	0.24837105
931.259	0.2483007
931.428	0.24797728
931.596	0.24771328
931.765	0.24766892
931.934	0.24754007
932.102	0.24704989
932.27	0.24663816
932.439	0.24605581
932.607	0.24567728
932.776	0.24532741
932.944	0.24484427
933.113	0.24446497
933.281	0.24423484
933.449	0.24383039
933.618	0.24348751
933.786	0.24310871
933.954	0.24272042
934.123	0.24229797
934.291	0.24205636
934.459	0.24185729
934.627	0.24162668
934.795	0.24158179
934.964	0.24131899
935.132	0.24084678
935.3	0.24041913
935.468	0.23972145
935.636	0.23923138
935.804	0.23854199
935.972	0.23818468
936.14	0.23812427
936.308	0.23812011
936.476	0.23839267
936.644	0.23880814
936.812	0.23912456
936.98	0.23990749
937.148	0.2397181
937.316	0.239143
937.484	0.23932405
937.652	0.2387274
937.82	0.23885691
937.987	0.23820411
938.155	0.23750313
938.323	0.23723725
938.491	0.23674538
938.658	0.23673235
938.826	0.23664252
938.994	0.23598498
939.162	0.23612794
939.329	0.23648729
939.497	0.23742155
939.665	0.23769285
939.832	0.2377767
940	0.23810681
940.167	0.23810744
940.335	0.2378977
940.502	0.23720974
940.67	0.2365334
940.837	0.23765676
941.005	0.23661454
941.172	0.23606556
941.34	0.23599619
941.507	0.23689173
941.674	0.23794657
941.842	0.23800799
942.009	0.23858279
942.177	0.23763111
942.344	0.23893376
942.511	0.23889569
942.678	0.23888796
942.846	0.23755028
943.013	0.23714343
943.18	0.23557187
943.347	0.23715614
943.514	0.23579095
943.682	0.23635592
943.849	0.23506114
944.016	0.23474682
944.183	0.23379667
944.35	0.23417633
944.517	0.23460623
944.684	0.2355541
944.851	0.23203605
945.018	0.23230942
945.185	0.23147959
945.352	0.23118377
945.519	0.22995093
945.686	0.22785984
945.853	0.22833818
946.02	0.22841603
946.187	0.2271228
946.353	0.2283142
946.52	0.22820549
946.687	0.22799051
946.854	0.22832015
947.021	0.22704422
947.187	0.22696827
947.354	0.22612578
947.521	0.22565863
947.687	0.22419064
947.854	0.22362205
948.021	0.22283541
948.187	0.2213016
948.354	0.22133654
948.52	0.22135244
948.687	0.22101231
948.854	0.22151644
949.02	0.22032341
949.187	0.22010335
949.353	0.21962028
949.52	0.21837669
949.686	0.2176109
949.852	0.21711296
950.019	0.21690922
950.185	0.21728521
950.352	0.21597912
950.518	0.21454192
950.684	0.21412963
950.851	0.21363193
951.017	0.21150434
951.183	0.21080813
951.349	0.21001734
951.516	0.20834823
951.682	0.20820464
951.848	0.20757663
952.014	0.20697586
952.18	0.20742457
952.346	0.20628216
952.512	0.20571218
952.679	0.20646127
952.845	0.2057327
953.011	0.20515512
953.177	0.20465344
953.343	0.20324578
953.509	0.20352977
953.675	0.20293579
953.841	0.20244962
954.007	0.20247132
954.172	0.20290777
954.338	0.20218824
954.504	0.20158454
954.67	0.19939296
954.836	0.19885325
955.002	0.19828582
955.167	0.19771789
955.333	0.19615014
955.499	0.19566625
955.665	0.19510193
955.83	0.19576258
955.996	0.19516254
956.162	0.19431735
956.327	0.1934166
956.493	0.19314018
956.659	0.19314797
956.824	0.19244331
956.99	0.19148928
957.155	0.19077314
957.321	0.19088901
957.486	0.19091551
957.652	0.19031851
957.817	0.19015489
957.983	0.19010752
958.148	0.19004397
958.314	0.18962386
958.479	0.18868156
958.644	0.18818406
958.81	0.18815374
958.975	0.18745599
959.14	0.18753802
959.306	0.18687481
959.471	0.18648499
959.636	0.18595371
959.801	0.18604488
959.967	0.18603546
960.132	0.18598422
960.297	0.18558071
960.462	0.18592475
960.627	0.18555817
960.792	0.18505605
960.957	0.18449167
961.123	0.18431475
961.288	0.18374273
961.453	0.18367866
961.618	0.18315211
961.783	0.18338805
961.948	0.18347416
962.113	0.18300131
962.277	0.1823896
962.442	0.18223255
962.607	0.18178866
962.772	0.18127464
962.937	0.18067608
963.102	0.18052133
963.267	0.18026978
963.431	0.17999826
963.596	0.17922715
963.761	0.17833424
963.926	0.17805975
964.09	0.17770485
964.255	0.17759461
964.42	0.17695242
964.584	0.17651604
964.749	0.17616947
964.914	0.17599586
965.078	0.17536496
965.243	0.17478194
965.407	0.17410329
965.572	0.17406308
965.736	0.173792
965.901	0.17363964
966.065	0.17381354
966.23	0.17342903
966.394	0.17362032
966.559	0.17328762
966.723	0.17311021
966.887	0.17258203
967.052	0.17226555
967.216	0.17149744
967.38	0.17111041
967.545	0.17060173
967.709	0.17040933
967.873	0.17000229
968.037	0.16966743
968.202	0.16927895
968.366	0.16941963
968.53	0.16951858
968.694	0.16911396
968.858	0.16886075
969.022	0.16838855
969.187	0.16834651
969.351	0.16805072
969.515	0.16781362
969.679	0.16728963
969.843	0.16708019
970.007	0.16666947
970.171	0.1664491
970.335	0.16621165
970.499	0.16613969
970.662	0.16585431
970.826	0.16566551
970.99	0.16559026
971.154	0.16532333
971.318	0.16526686
971.482	0.16434465
971.645	0.16411729
971.809	0.16386941
971.973	0.16381393
972.137	0.1631808
972.3	0.16272033
972.464	0.16225849
972.628	0.16254957
972.791	0.1621393
972.955	0.16122844
973.119	0.16047045
973.282	0.16009004
973.446	0.15968049
973.609	0.15945668
973.773	0.15921051
973.936	0.15882884
974.1	0.15882559
974.263	0.15885653
974.427	0.15892062
974.59	0.15859679
974.754	0.15812629
974.917	0.15736888
975.08	0.15708611
975.244	0.1566632
975.407	0.15649558
975.57	0.1559025
975.734	0.15569259
975.897	0.15576944
976.06	0.15596973
976.223	0.15558186
976.387	0.15551242
976.55	0.15504085
976.713	0.15523081
976.876	0.15505884
977.039	0.15420658
977.202	0.15372128
977.365	0.15338704
977.528	0.1528826
977.692	0.15244382
977.855	0.15158094
978.018	0.15103883
978.181	0.15073387
978.344	0.15038314
978.506	0.14971931
978.669	0.14936929
978.832	0.1492495
978.995	0.14896219
979.158	0.1490929
979.321	0.14855142
979.484	0.14817121
979.646	0.14812605
979.809	0.14830818
979.972	0.14780877
980.135	0.14807076
980.297	0.14782558
980.46	0.14794667
980.623	0.14797572
980.786	0.14813056
980.948	0.14751132
981.111	0.1472677
981.273	0.14680738
981.436	0.14628905
981.599	0.14619347
981.761	0.14530952
981.924	0.14529962
982.086	0.145418
982.249	0.14545037
982.411	0.14531849
982.573	0.14529591
982.736	0.14531491
982.898	0.14592274
983.061	0.14554091
983.223	0.1453636
983.385	0.14523464
983.548	0.14539951
983.71	0.14541095
983.872	0.14539991
984.034	0.14490571
984.197	0.14443144
984.359	0.14413629
984.521	0.14407551
984.683	0.14384085
984.845	0.14364271
985.008	0.14274715
985.17	0.14315366
985.332	0.14283321
985.494	0.14231709
985.656	0.1420127
985.818	0.14107479
985.98	0.1403955
986.142	0.13987285
986.304	0.13896249
986.466	0.13863128
986.628	0.13841997
986.79	0.13817146
986.952	0.1378165
987.113	0.13752735
987.275	0.13736155
987.437	0.13699896
987.599	0.13681158
987.761	0.13652238
987.922	0.13583533
988.084	0.13594361
988.246	0.13583138
988.408	0.13605609
988.569	0.13643718
988.731	0.13648484
988.893	0.13653754
989.054	0.13664044
989.216	0.1362222
989.377	0.13575514
989.539	0.13547504
989.701	0.13414601
989.862	0.13390945
990.024	0.13276238
990.185	0.13229531
990.347	0.13218467
990.508	0.13218395
990.669	0.13178704
990.831	0.13231885
990.992	0.13198291
991.154	0.13193611
991.315	0.13264329
991.476	0.13230517
991.638	0.13228682
991.799	0.13229786
991.96	0.13173022
992.121	0.13140748
992.283	0.13138005
992.444	0.13014414
992.605	0.13001377
992.766	0.12902145
992.927	0.12856606
993.088	0.12823414
993.249	0.12819163
993.41	0.1280889
993.572	0.12831534
993.733	0.12774292
993.894	0.12772682
994.055	0.12677842
994.216	0.12654555
994.376	0.12542598
994.537	0.12566183
994.698	0.12500948
994.859	0.12492396
995.02	0.12514807
995.181	0.12499065
995.342	0.1250677
995.503	0.12552222
995.663	0.12517062
995.824	0.12487521
995.985	0.12529956
996.146	0.12550721
996.306	0.12617426
996.467	0.12634446
996.628	0.12657105
996.788	0.12627634
996.949	0.12713071
997.11	0.12648947
997.27	0.1257105
997.431	0.12546513
997.591	0.12479164
997.752	0.12408211
997.912	0.12424314
998.073	0.12368709
998.233	0.12428051
998.394	0.12438085
998.554	0.12480568
998.714	0.12490613
998.875	0.1247935
999.035	0.1238498
999.196	0.12339832
999.356	0.12237129
999.516	0.12223449
999.676	0.12179555
999.837	0.12167125
999.997	0.12124146
1000.157	0.12109841
1000.317	0.12017809
1000.477	0.11992161
1000.638	0.11913592
1000.798	0.1189957
1000.958	0.11869497
1001.118	0.11890623
1001.278	0.11879884
1001.438	0.1188568
1001.598	0.11831582
1001.758	0.11845565
1001.918	0.117717
1002.078	0.11690061
1002.238	0.1169385
1002.398	0.11724094
1002.558	0.11717
1002.718	0.11712941
1002.878	0.11705469
1003.037	0.11598355
1003.197	0.11616464
1003.357	0.1151937
1003.517	0.11502199
1003.677	0.11444582
1003.836	0.11401942
1003.996	0.11295321
1004.156	0.11362157
1004.315	0.11330751
1004.475	0.11342619
1004.635	0.11256342
1004.794	0.11299273
1004.954	0.11335573
1005.114	0.11348191
1005.273	0.11303885
1005.433	0.11204094
1005.592	0.11174576
1005.752	0.11185686
1005.911	0.11137808
1006.071	0.11102211
1006.23	0.11058849
1006.389	0.11042367
1006.549	0.11039364
1006.708	0.10994437
1006.868	0.10822867
1007.027	0.10883586
1007.186	0.10876599
1007.345	0.10949956
1007.505	0.10986285
1007.664	0.11032664
1007.823	0.11019543
1007.982	0.11132505
1008.142	0.11040764
1008.301	0.11019348
1008.46	0.10914758
1008.619	0.1079956
1008.778	0.10817069
1008.937	0.10762965
1009.096	0.10715632
1009.255	0.10693869
1009.414	0.10615437
1009.573	0.10726406
1009.732	0.10819055
1009.891	0.10785526
1010.05	0.10895148
1010.209	0.10910128
1010.368	0.10896814
1010.527	0.10927132
1010.686	0.10865321
1010.845	0.1072766
1011.003	0.10727419
1011.162	0.10696162
1011.321	0.1061865
1011.48	0.10664675
1011.638	0.10636987
1011.797	0.10611981
1011.956	0.10580217
1012.115	0.10550938
1012.273	0.10499661
1012.432	0.10525287
1012.59	0.10387523
1012.749	0.10394289
1012.908	0.10323982
1013.066	0.10466325
1013.225	0.10368134
1013.383	0.10387418
1013.542	0.10429122
1013.7	0.1047444
1013.859	0.10431697
1014.017	0.10469415
1014.175	0.10425869
1014.334	0.10554426
1014.492	0.10553873
1014.65	0.10544504
1014.809	0.10627435
1014.967	0.10643599
1015.125	0.1069234
1015.284	0.10703757
1015.442	0.10679968
1015.6	0.1067649
1015.758	0.10614263
1015.916	0.10527416
1016.075	0.10579258
1016.233	0.10533158
1016.391	0.10566158
1016.549	0.10502208
1016.707	0.10544023
1016.865	0.10603016
1017.023	0.10565824
1017.181	0.1054012
1017.339	0.10511303
1017.497	0.10385244
1017.655	0.10331243
1017.813	0.10233537
1017.971	0.10264287
1018.129	0.1027315
1018.286	0.10326981
1018.444	0.10233753
1018.602	0.10353123
1018.76	0.1031807
1018.918	0.10338099
1019.075	0.10264034
1019.233	0.10285558
1019.391	0.10171098
1019.549	0.10277395
1019.706	0.1025052
1019.864	0.1037453
1020.022	0.10300339
1020.179	0.10418119
1020.337	0.10385035
1020.494	0.10369136
1020.652	0.10431487
1020.809	0.10393892
1020.967	0.1035932
1021.124	0.10376913
1021.282	0.10507574
1021.439	0.10522408
1021.597	0.10652027
1021.754	0.10594477
1021.911	0.10633614
1022.069	0.10546665
1022.226	0.10516376
1022.384	0.10081707
1022.541	0.10163507
1022.698	0.10104703
1022.855	0.10084567
1023.013	0.10118091
1023.17	0.10159416
1023.327	0.10396021
1023.484	0.1078335
1023.641	0.10673397
1023.798	0.10949987
1023.956	0.11093345
1024.113	0.10997848
1024.27	0.10949728
1024.427	0.10790897
1024.584	0.10621894
1024.741	0.10676325
1024.898	0.10492987
1025.055	0.10223705
1025.212	0.10094748
1025.369	0.0988978
1025.525	0.09964126
1025.682	0.10040257
1025.839	0.10093032
1025.996	0.09968621
1026.153	0.10290245
1026.31	0.10651732
1026.466	0.11001336
1026.623	0.11050446
1026.78	0.10852012
1026.937	0.10838268
1027.093	0.10953361
1027.25	0.10937584
1027.407	0.10675366
1027.563	0.10474647
1027.72	0.10467886
1027.876	0.10458811
1028.033	0.10190569
1028.19	0.10212503
1028.346	0.1009946
1028.503	0.10047251
1028.659	0.1035959
1028.816	0.10437583
1028.972	0.10801481
1029.128	0.11131704
1029.285	0.1119564
1029.441	0.11195223
1029.598	0.11263117
1029.754	0.11330719
1029.91	0.11091551
1030.067	0.1091602
1030.223	0.10912336
1030.379	0.1071183
1030.535	0.10784136
1030.691	0.10652892
1030.848	0.10710067
1031.004	0.10726
1031.16	0.10956505
1031.316	0.1134386
1031.472	0.11575165
1031.628	0.11444746
1031.784	0.11566624
1031.94	0.11862592
1032.096	0.11919972
1032.252	0.11904284
1032.408	0.11949944
1032.564	0.12017168
1032.72	0.12333656
1032.876	0.12225332
1033.032	0.11899004
1033.188	0.11829452
1033.344	0.11824839
1033.5	0.11627273
1033.655	0.11544932
1033.811	0.11361892
1033.967	0.11874355
