Data from 1_mm_pl_100pc_Absorbance__0__16-20-16-314.txt Node

Date: Wed Mar 08 16:20:16 CET 2023
User: Ange
Spectrometer: FLMT08341
Trigger mode: 0
Integration Time (sec): 1.000000E-2
Scans to average: 400
Electric dark correction enabled: true
Nonlinearity correction enabled: false
Boxcar width: 3
XAxis mode: Wavelengths
Number of Pixels in Spectrum: 3648
>>>>>Begin Spectral Data<<<<<
345.271	0.01996026
345.487	0.01561239
345.704	0.00392738
345.921	0.00855198
346.137	-0.00075017
346.354	-0.01111653
346.571	-0.04439589
346.787	-0.13819633
347.004	0.0667472
347.22	-0.08730344
347.437	-0.02190719
347.653	0.04033181
347.87	0.055907
348.086	0.99324516
348.303	-0.68888608
348.519	0.29430965
348.736	0.27863515
348.952	0.28818273
349.169	0.30363451
349.385	0.31471742
349.601	0.30813399
349.818	0.30412373
350.034	0.30058278
350.251	0.29888139
350.467	0.29696526
350.683	0.28600018
350.9	0.28435106
351.116	0.28017416
351.332	0.27744131
351.549	0.2829376
351.765	0.28609076
351.981	0.29131217
352.197	0.29890522
352.414	0.30400455
352.63	0.31102714
352.846	0.31487678
353.062	0.31055649
353.278	0.30261261
353.495	0.30646892
353.711	0.3068457
353.927	0.31100546
354.143	0.31153532
354.359	0.3080911
354.575	0.3058134
354.792	0.31678331
355.008	0.31176774
355.224	0.3066612
355.44	0.3032593
355.656	0.29951117
355.872	0.30346357
356.088	0.31824974
356.304	0.31548271
356.52	0.31753565
356.736	0.32167044
356.952	0.31947702
357.168	0.31839007
357.384	0.31961906
357.6	0.30836519
357.816	0.3094086
358.032	0.31068336
358.248	0.31694285
358.464	0.31636463
358.679	0.31946231
358.895	0.31833425
359.111	0.32299726
359.327	0.31965142
359.543	0.32037927
359.759	0.32291322
359.974	0.32352803
360.19	0.32213527
360.406	0.32095078
360.622	0.31883
360.838	0.3183814
361.053	0.31929724
361.269	0.31691334
361.485	0.31914459
361.701	0.32185214
361.916	0.32082266
362.132	0.32151052
362.348	0.32407225
362.563	0.32328804
362.779	0.32031917
362.995	0.31912375
363.21	0.3200779
363.426	0.32205684
363.641	0.32132916
363.857	0.32349075
364.073	0.3226253
364.288	0.32117478
364.504	0.3264196
364.719	0.32569095
364.935	0.32472089
365.15	0.32585361
365.366	0.32543671
365.581	0.32775096
365.797	0.32848831
366.012	0.32455077
366.228	0.32260745
366.443	0.32639634
366.658	0.3259001
366.874	0.32371882
367.089	0.32418473
367.305	0.32678471
367.52	0.32767068
367.735	0.3289355
367.951	0.32644203
368.166	0.32668822
368.381	0.33020255
368.597	0.32934431
368.812	0.3293246
369.027	0.33090069
369.243	0.33040619
369.458	0.33494403
369.673	0.33677685
369.888	0.33513343
370.104	0.33316325
370.319	0.33410787
370.534	0.33279856
370.749	0.33304769
370.964	0.33316425
371.179	0.33175329
371.395	0.33064572
371.61	0.33302675
371.825	0.33038685
372.04	0.33022681
372.255	0.32829864
372.47	0.32406724
372.685	0.32131193
372.9	0.32006035
373.115	0.31737094
373.33	0.3177842
373.545	0.31696702
373.76	0.31896969
373.975	0.31817006
374.19	0.31881573
374.405	0.31996412
374.62	0.32212285
374.835	0.32383016
375.05	0.32305861
375.265	0.32186845
375.48	0.32230321
375.695	0.32512802
375.91	0.32317631
376.125	0.32043571
376.339	0.31648326
376.554	0.31695441
376.769	0.31622408
376.984	0.31484396
377.199	0.31357867
377.414	0.3121843
377.628	0.31388117
377.843	0.31425756
378.058	0.31436271
378.273	0.31489368
378.487	0.31535476
378.702	0.31351637
378.917	0.31297232
379.131	0.31003875
379.346	0.30756157
379.561	0.30475409
379.775	0.30195951
379.99	0.29936566
380.205	0.29721917
380.419	0.29566236
380.634	0.29295471
380.848	0.29402747
381.063	0.29321847
381.278	0.29453675
381.492	0.29270749
381.707	0.29374415
381.921	0.29270753
382.136	0.29425754
382.35	0.29142345
382.565	0.29016942
382.779	0.28857404
382.994	0.28796688
383.208	0.28494822
383.422	0.28556122
383.637	0.28451253
383.851	0.28521442
384.066	0.2847523
384.28	0.28397172
384.494	0.28394574
384.709	0.28418136
384.923	0.28315648
385.137	0.28044946
385.352	0.27865663
385.566	0.2778996
385.78	0.27586423
385.995	0.27372505
386.209	0.27147204
386.423	0.2703943
386.637	0.26970005
386.852	0.26784293
387.066	0.26601109
387.28	0.26402508
387.494	0.26411786
387.708	0.26312645
387.923	0.26132878
388.137	0.2608343
388.351	0.26062406
388.565	0.26047469
388.779	0.26013757
388.993	0.259187
389.207	0.2583723
389.421	0.25697189
389.635	0.25463891
389.85	0.25276301
390.064	0.25115176
390.278	0.24939744
390.492	0.24772047
390.706	0.24649939
390.92	0.24520607
391.134	0.24478586
391.348	0.24441789
391.561	0.24216697
391.775	0.24057863
391.989	0.23845634
392.203	0.23751755
392.417	0.23653298
392.631	0.23550231
392.845	0.23341368
393.059	0.23279889
393.273	0.23199441
393.486	0.23008234
393.7	0.22731882
393.914	0.22618481
394.128	0.22437228
394.342	0.22291636
394.555	0.2206427
394.769	0.21885266
394.983	0.21833452
395.197	0.21793011
395.41	0.21633395
395.624	0.21536014
395.838	0.21415804
396.051	0.21444276
396.265	0.2130117
396.479	0.21244428
396.692	0.21093917
396.906	0.20924965
397.12	0.2075415
397.333	0.20621185
397.547	0.20385884
397.76	0.20302476
397.974	0.20108302
398.187	0.19985912
398.401	0.19910818
398.614	0.19827634
398.828	0.19686602
399.041	0.19599126
399.255	0.19461781
399.468	0.19318786
399.682	0.19195133
399.895	0.19064308
400.109	0.18891048
400.322	0.18789262
400.536	0.1860674
400.749	0.18539201
400.962	0.18396511
401.176	0.18238978
401.389	0.18100029
401.602	0.17931632
401.816	0.17811426
402.029	0.17714872
402.242	0.17529894
402.456	0.1744755
402.669	0.17318849
402.882	0.17112763
403.095	0.17049531
403.309	0.16922994
403.522	0.16823105
403.735	0.16700361
403.948	0.16585439
404.161	0.16550953
404.375	0.16512379
404.588	0.16395216
404.801	0.16281647
405.014	0.16108656
405.227	0.1603856
405.44	0.15903062
405.653	0.15734131
405.866	0.15602191
406.079	0.15456762
406.293	0.15330023
406.506	0.1523917
406.719	0.15113925
406.932	0.15027806
407.145	0.14898848
407.358	0.14830272
407.571	0.14718959
407.784	0.14642775
407.996	0.1455698
408.209	0.14450415
408.422	0.14327447
408.635	0.14267285
408.848	0.14162576
409.061	0.14073204
409.274	0.13948992
409.487	0.1383474
409.7	0.13715802
409.912	0.13648016
410.125	0.1355651
410.338	0.13448406
410.551	0.13341854
410.764	0.13274812
410.976	0.13206831
411.189	0.13147736
411.402	0.13044195
411.615	0.12952986
411.827	0.12891367
412.04	0.1283249
412.253	0.12744469
412.465	0.12676959
412.678	0.12563965
412.891	0.12523912
413.103	0.12425276
413.316	0.12337204
413.529	0.12297258
413.741	0.12219691
413.954	0.12139823
414.166	0.12097792
414.379	0.11993981
414.591	0.1195815
414.804	0.11883539
415.016	0.11814184
415.229	0.11750347
415.441	0.11683972
415.654	0.11638966
415.866	0.11603435
416.079	0.11560677
416.291	0.11488102
416.504	0.11430156
416.716	0.11380588
416.928	0.11326677
417.141	0.11238964
417.353	0.11173715
417.566	0.11102839
417.778	0.11063227
417.99	0.10988434
418.203	0.10945634
418.415	0.10893462
418.627	0.10860714
418.839	0.10834916
419.052	0.10802191
419.264	0.10755864
419.476	0.10717366
419.688	0.1065576
419.901	0.10619854
420.113	0.10570797
420.325	0.10510003
420.537	0.10434661
420.749	0.10401247
420.961	0.10358611
421.174	0.10313376
421.386	0.1026741
421.598	0.10229952
421.81	0.10211649
422.022	0.10192312
422.234	0.10152883
422.446	0.10130172
422.658	0.10109433
422.87	0.10080161
423.082	0.10052596
423.294	0.09988455
423.506	0.09955321
423.718	0.0993826
423.93	0.09912853
424.142	0.09867538
424.354	0.09830627
424.566	0.09797869
424.778	0.09810093
424.99	0.0977871
425.202	0.0973672
425.414	0.09707178
425.625	0.09719549
425.837	0.0970027
426.049	0.09714929
426.261	0.09676071
426.473	0.09663686
426.684	0.09680009
426.896	0.09678298
427.108	0.09621629
427.32	0.09631299
427.531	0.09606346
427.743	0.09617203
427.955	0.09624385
428.167	0.09598689
428.378	0.09600674
428.59	0.09641224
428.802	0.09624087
429.013	0.09629625
429.225	0.09620281
429.436	0.09622534
429.648	0.09639581
429.86	0.09625776
430.071	0.09616876
430.283	0.09627203
430.494	0.09627924
430.706	0.09630815
430.917	0.09634437
431.129	0.09637315
431.34	0.09662986
431.552	0.09682344
431.763	0.0968715
431.975	0.09687283
432.186	0.09697618
432.398	0.09710195
432.609	0.09708965
432.821	0.09702463
433.032	0.09691983
433.243	0.09692336
433.455	0.09708328
433.666	0.09707342
433.877	0.09693336
434.089	0.09709228
434.3	0.09732673
434.511	0.09740886
434.723	0.09743707
434.934	0.09730571
435.145	0.09731435
435.356	0.09755966
435.568	0.09746906
435.779	0.09731331
435.99	0.09731551
436.201	0.09751123
436.412	0.0975959
436.624	0.09773443
436.835	0.0981245
437.046	0.09836805
437.257	0.09847942
437.468	0.09864544
437.679	0.09872143
437.89	0.09907033
438.101	0.09936696
438.312	0.0993636
438.523	0.0995472
438.734	0.09967406
438.945	0.10000587
439.156	0.10024575
439.367	0.10056068
439.578	0.10089429
439.789	0.10092307
440	0.10108999
440.211	0.10138426
440.422	0.10158119
440.633	0.10188794
440.844	0.10199372
441.055	0.10209024
441.266	0.10244289
441.477	0.1026305
441.687	0.10288187
441.898	0.10325205
442.109	0.10340944
442.32	0.10379933
442.531	0.10394249
442.741	0.10421621
442.952	0.10457659
443.163	0.10519173
443.374	0.10545862
443.584	0.10572406
443.795	0.10594596
444.006	0.10633464
444.216	0.10659099
444.427	0.10688126
444.638	0.1070259
444.848	0.10725775
445.059	0.10760534
445.27	0.10792942
445.48	0.1081273
445.691	0.10849663
445.901	0.10880339
446.112	0.10914396
446.323	0.10943543
446.533	0.10978108
446.744	0.11004881
446.954	0.11037227
447.165	0.11064385
447.375	0.11099767
447.586	0.11125033
447.796	0.11163135
448.006	0.11198459
448.217	0.11250114
448.427	0.1131301
448.638	0.11337433
448.848	0.11372854
449.058	0.11416308
449.269	0.11463667
449.479	0.11491728
449.689	0.11520026
449.9	0.11553687
450.11	0.11619624
450.32	0.11665669
450.531	0.11691928
450.741	0.11710431
450.951	0.11763487
451.161	0.11794063
451.372	0.11813896
451.582	0.11856143
451.792	0.11877342
452.002	0.1191871
452.212	0.11959037
452.422	0.11993029
452.633	0.12033888
452.843	0.12085518
453.053	0.12114833
453.263	0.12166711
453.473	0.12210372
453.683	0.1226046
453.893	0.12305029
454.103	0.12354814
454.313	0.12387676
454.523	0.12425075
454.733	0.12473591
454.943	0.12521456
455.153	0.12552869
455.363	0.12584131
455.573	0.12639126
455.783	0.12692579
455.993	0.1273671
456.203	0.12786726
456.413	0.12831262
456.623	0.12893487
456.833	0.12960094
457.042	0.12986079
457.252	0.13034912
457.462	0.13100195
457.672	0.13149992
457.882	0.13190882
458.091	0.13232302
458.301	0.1327966
458.511	0.13342705
458.721	0.1339364
458.931	0.13434385
459.14	0.13466192
459.35	0.13530617
459.56	0.13589658
459.769	0.13655769
459.979	0.13701663
460.189	0.1375368
460.398	0.13804181
460.608	0.1386689
460.817	0.13919248
461.027	0.1396678
461.237	0.14000931
461.446	0.14057869
461.656	0.14108301
461.865	0.14151331
462.075	0.14196583
462.284	0.14245657
462.494	0.14302129
462.703	0.1434988
462.913	0.14415429
463.122	0.1449409
463.332	0.14563914
463.541	0.1462757
463.751	0.14692325
463.96	0.14744261
464.169	0.14813375
464.379	0.14874962
464.588	0.14921059
464.797	0.14982663
465.007	0.1505003
465.216	0.15112447
465.425	0.15184375
465.635	0.1524863
465.844	0.15311728
466.053	0.15380582
466.263	0.15451957
466.472	0.15524517
466.681	0.15596864
466.89	0.15656902
467.099	0.15731197
467.309	0.15799851
467.518	0.15865204
467.727	0.1593622
467.936	0.15995848
468.145	0.16052531
468.354	0.16130371
468.563	0.16201974
468.772	0.16264788
468.982	0.16334017
469.191	0.16403272
469.4	0.16479332
469.609	0.16555331
469.818	0.16628889
470.027	0.16688753
470.236	0.16756966
470.445	0.16824663
470.654	0.16890894
470.863	0.16954394
471.072	0.17041185
471.28	0.17117302
471.489	0.17214361
471.698	0.17300611
471.907	0.17387985
472.116	0.17476978
472.325	0.1756263
472.534	0.17635647
472.743	0.17714117
472.951	0.1780667
473.16	0.17904625
473.369	0.17993318
473.578	0.18079586
473.786	0.18187117
473.995	0.18275101
474.204	0.18363004
474.413	0.18426972
474.621	0.18499779
474.83	0.18582262
475.039	0.18674877
475.247	0.18755773
475.456	0.18861801
475.665	0.18967708
475.873	0.19079176
476.082	0.19183461
476.291	0.19284362
476.499	0.1937539
476.708	0.1946006
476.916	0.1955564
477.125	0.19649466
477.333	0.1975078
477.542	0.1985601
477.75	0.19959925
477.959	0.20073558
478.167	0.20190116
478.376	0.20277477
478.584	0.20380218
478.793	0.20466075
479.001	0.20564334
479.209	0.20656127
479.418	0.20743745
479.626	0.20846474
479.834	0.20966059
480.043	0.21081573
480.251	0.21196655
480.459	0.21309923
480.668	0.21430286
480.876	0.21544839
481.084	0.2166605
481.293	0.21780581
481.501	0.21896146
481.709	0.22029491
481.917	0.22160338
482.125	0.22275375
482.334	0.22404626
482.542	0.22525696
482.75	0.22654884
482.958	0.22782018
483.166	0.22902126
483.374	0.23013207
483.583	0.23145703
483.791	0.23277322
483.999	0.23404589
484.207	0.2353102
484.415	0.2365459
484.623	0.23783071
484.831	0.23916434
485.039	0.24047811
485.247	0.24181973
485.455	0.24319962
485.663	0.24450642
485.871	0.24581271
486.079	0.24709113
486.287	0.24845979
486.495	0.2497262
486.702	0.25095416
486.91	0.25229371
487.118	0.25367345
487.326	0.2550062
487.534	0.25638539
487.742	0.25770977
487.95	0.25913043
488.157	0.26067337
488.365	0.26209738
488.573	0.26346758
488.781	0.26500511
488.988	0.2666507
489.196	0.26826258
489.404	0.26977734
489.612	0.27123399
489.819	0.27274583
490.027	0.27420366
490.235	0.27568357
490.442	0.27722129
490.65	0.27865438
490.857	0.28012078
491.065	0.28168282
491.273	0.28323948
491.48	0.28494226
491.688	0.28644409
491.895	0.28791434
492.103	0.28941937
492.31	0.29104593
492.518	0.29269834
492.725	0.29439069
492.933	0.29601395
493.14	0.29775631
493.348	0.29944928
493.555	0.30125479
493.763	0.30296751
493.97	0.30462306
494.177	0.30621244
494.385	0.30788093
494.592	0.30969352
494.8	0.31142166
495.007	0.31315207
495.214	0.31493725
495.422	0.31672641
495.629	0.31847591
495.836	0.3202084
496.043	0.32194793
496.251	0.32376074
496.458	0.32553816
496.665	0.32721793
496.872	0.32896579
497.08	0.33085106
497.287	0.33266102
497.494	0.33443971
497.701	0.33633044
497.908	0.33825531
498.115	0.34008215
498.322	0.3419901
498.53	0.34379575
498.737	0.34566783
498.944	0.34745398
499.151	0.34923993
499.358	0.3509986
499.565	0.35286386
499.772	0.35472671
499.979	0.35656618
500.186	0.35856813
500.393	0.36052674
500.6	0.36247446
500.807	0.36440152
501.014	0.3663415
501.221	0.36825504
501.427	0.3702067
501.634	0.37208196
501.841	0.3739707
502.048	0.37584461
502.255	0.3776754
502.462	0.37971741
502.669	0.38180373
502.875	0.38387771
503.082	0.3858675
503.289	0.38788702
503.496	0.38989976
503.702	0.39195494
503.909	0.39395849
504.116	0.39592751
504.323	0.39797558
504.529	0.40001382
504.736	0.40204689
504.943	0.40398928
505.149	0.40612838
505.356	0.40821981
505.563	0.41033601
505.769	0.41235161
505.976	0.41436821
506.182	0.41654684
506.389	0.41880146
506.595	0.42099791
506.802	0.4230176
507.008	0.42503819
507.215	0.42720391
507.421	0.42939608
507.628	0.43148141
507.834	0.43349424
508.041	0.43563916
508.247	0.43780589
508.454	0.43998671
508.66	0.44193271
508.866	0.44409264
509.073	0.44626834
509.279	0.44848205
509.486	0.45046252
509.692	0.45260732
509.898	0.45479943
510.105	0.45700166
510.311	0.45906802
510.517	0.46114904
510.723	0.46327709
510.93	0.46531613
511.136	0.46746093
511.342	0.46957735
511.548	0.47174713
511.754	0.47401839
511.961	0.47629133
512.167	0.47854093
512.373	0.48081942
512.579	0.48294901
512.785	0.4850969
512.991	0.48727722
513.197	0.48935766
513.404	0.49147743
513.61	0.49362547
513.816	0.49567767
514.022	0.49789345
514.228	0.50003093
514.434	0.50211953
514.64	0.50441379
514.846	0.50670157
515.052	0.50892009
515.258	0.51107039
515.464	0.51314992
515.669	0.5153235
515.875	0.51754592
516.081	0.51954966
516.287	0.52166723
516.493	0.52385832
516.699	0.52603274
516.905	0.52817441
517.111	0.53027799
517.316	0.53247975
517.522	0.53472273
517.728	0.5369631
517.934	0.53904429
518.139	0.54125113
518.345	0.5433025
518.551	0.54550505
518.757	0.54751764
518.962	0.54958744
519.168	0.55163994
519.374	0.55364163
519.579	0.55571965
519.785	0.55808663
519.991	0.56021204
520.196	0.5623628
520.402	0.56443465
520.607	0.56655135
520.813	0.56875921
521.018	0.57078484
521.224	0.57251798
521.429	0.57461832
521.635	0.57665642
521.84	0.57854312
522.046	0.58050719
522.251	0.58243571
522.457	0.58459492
522.662	0.58695618
522.868	0.58901451
523.073	0.59112723
523.279	0.59331691
523.484	0.59521309
523.689	0.59741709
523.895	0.59947731
524.1	0.60146148
524.305	0.60338575
524.511	0.605384
524.716	0.60749477
524.921	0.60969142
525.126	0.61166682
525.332	0.61362306
525.537	0.61555702
525.742	0.61781488
525.947	0.61986374
526.153	0.62171996
526.358	0.62364761
526.563	0.62542984
526.768	0.62719634
526.973	0.62913876
527.178	0.63084585
527.383	0.63261768
527.588	0.63453434
527.794	0.6363305
527.999	0.63831189
528.204	0.64032044
528.409	0.64213505
528.614	0.64412769
528.819	0.6461145
529.024	0.64787698
529.229	0.64975422
529.434	0.65176552
529.639	0.65365613
529.843	0.65551186
530.048	0.65720774
530.253	0.65898962
530.458	0.66091551
530.663	0.66269255
530.868	0.66441354
531.073	0.66598749
531.278	0.66761339
531.482	0.66926233
531.687	0.67086288
531.892	0.67246062
532.097	0.67395485
532.302	0.67555248
532.506	0.67719428
532.711	0.67873693
532.916	0.68034724
533.12	0.68200107
533.325	0.68357447
533.53	0.68541421
533.734	0.68691553
533.939	0.68863468
534.144	0.69037773
534.348	0.69205234
534.553	0.69365333
534.757	0.69505848
534.962	0.69654733
535.167	0.69826657
535.371	0.69971186
535.576	0.70138541
535.78	0.70288529
535.985	0.70439892
536.189	0.70600112
536.394	0.70753995
536.598	0.70873844
536.803	0.71021041
537.007	0.71151521
537.211	0.71306852
537.416	0.71439348
537.62	0.71581263
537.825	0.71709113
538.029	0.71892106
538.233	0.7202961
538.438	0.72181698
538.642	0.72294001
538.846	0.72440588
539.05	0.72568764
539.255	0.72701035
539.459	0.72804325
539.663	0.72933172
539.867	0.73053754
540.072	0.73193289
540.276	0.7330926
540.48	0.7346469
540.684	0.73597727
540.888	0.73746924
541.092	0.73870343
541.297	0.73982883
541.501	0.74099654
541.705	0.74221783
541.909	0.74307201
542.113	0.74405009
542.317	0.74506329
542.521	0.74622226
542.725	0.74746304
542.929	0.74863155
543.133	0.74984439
543.337	0.75115988
543.541	0.75237425
543.745	0.75327842
543.949	0.75430214
544.153	0.75519987
544.357	0.75601402
544.56	0.75697136
544.764	0.75783043
544.968	0.75867252
545.172	0.75948324
545.376	0.76050367
545.58	0.76147087
545.783	0.7627698
545.987	0.76361646
546.191	0.76465087
546.395	0.76573712
546.598	0.76689897
546.802	0.76779653
547.006	0.76866219
547.21	0.76894246
547.413	0.76984155
547.617	0.77059887
547.821	0.77130245
548.024	0.77199206
548.228	0.77254989
548.431	0.77340614
548.635	0.77447702
548.839	0.77523471
549.042	0.77604134
549.246	0.77670428
549.449	0.7774759
549.653	0.77840706
549.856	0.77890746
550.06	0.77952463
550.263	0.78013624
550.467	0.78072264
550.67	0.7815501
550.874	0.78201132
551.077	0.78268471
551.28	0.78351077
551.484	0.78420834
551.687	0.78491977
551.891	0.78558429
552.094	0.78596074
552.297	0.78668521
552.501	0.78722339
552.704	0.787627
552.907	0.78796073
553.11	0.78810802
553.314	0.78844087
553.517	0.7886063
553.72	0.78884925
553.923	0.78901247
554.127	0.78934671
554.33	0.78957808
554.533	0.79011998
554.736	0.79038419
554.939	0.79103992
555.142	0.79172806
555.345	0.79232925
555.549	0.79297285
555.752	0.79360537
555.955	0.79401345
556.158	0.79458799
556.361	0.79489044
556.564	0.7950188
556.767	0.79531096
556.97	0.79549197
557.173	0.79584614
557.376	0.79621326
557.579	0.79626361
557.782	0.79663847
557.984	0.79704663
558.187	0.79736999
558.39	0.79752876
558.593	0.79773423
558.796	0.79773334
558.999	0.79783572
559.202	0.79772024
559.404	0.79751967
559.607	0.79731408
559.81	0.79715398
560.013	0.79704976
560.216	0.79698767
560.418	0.7972801
560.621	0.79759092
560.824	0.79784329
561.026	0.79795916
561.229	0.79805318
561.432	0.79818764
561.634	0.79832985
561.837	0.79802176
562.04	0.79809318
562.242	0.79795903
562.445	0.79804609
562.647	0.79819472
562.85	0.79801025
563.053	0.79778747
563.255	0.79781982
563.458	0.7975443
563.66	0.7975213
563.863	0.7975238
564.065	0.79736529
564.268	0.79726755
564.47	0.79723917
564.672	0.79701124
564.875	0.79705012
565.077	0.7968654
565.28	0.79661167
565.482	0.79641769
565.684	0.79616127
565.887	0.79605629
566.089	0.79609365
566.291	0.79571437
566.494	0.79545205
566.696	0.79511649
566.898	0.79500478
567.1	0.79487218
567.303	0.79462406
567.505	0.79424334
567.707	0.79389364
567.909	0.79349271
568.111	0.79314548
568.314	0.79269255
568.516	0.79236912
568.718	0.79191508
568.92	0.79153684
569.122	0.79114306
569.324	0.79087664
569.526	0.79030165
569.728	0.78986117
569.93	0.78928864
570.132	0.78874564
570.334	0.78823452
570.536	0.78764993
570.738	0.78692227
570.94	0.78635455
571.142	0.78588076
571.344	0.78528754
571.546	0.7847193
571.748	0.78427604
571.95	0.78375055
572.152	0.78323434
572.354	0.78277505
572.555	0.78208802
572.757	0.78169142
572.959	0.78107067
573.161	0.78018022
573.363	0.77961959
573.564	0.77916824
573.766	0.7785959
573.968	0.77804207
574.17	0.7771909
574.371	0.77664631
574.573	0.77610333
574.775	0.77518736
574.976	0.77434882
575.178	0.77357392
575.38	0.77253389
575.581	0.77157616
575.783	0.77075274
575.985	0.7698473
576.186	0.76920589
576.388	0.76836821
576.589	0.76751411
576.791	0.76696117
576.992	0.76648797
577.194	0.76570916
577.395	0.76487135
577.597	0.76407376
577.798	0.76329514
578	0.76246
578.201	0.76154964
578.402	0.76053759
578.604	0.75960047
578.805	0.75894879
579.007	0.75819025
579.208	0.757419
579.409	0.75676687
579.611	0.75577896
579.812	0.75497575
580.013	0.75401913
580.215	0.75277
580.416	0.7517483
580.617	0.75068079
580.818	0.74968056
581.019	0.74871928
581.221	0.74764228
581.422	0.7466024
581.623	0.74579108
581.824	0.74450795
582.025	0.74340733
582.226	0.74226729
582.428	0.74135451
582.629	0.74043908
582.83	0.73937563
583.031	0.73830902
583.232	0.73757827
583.433	0.73668694
583.634	0.73555268
583.835	0.734399
584.036	0.73312065
584.237	0.73203197
584.438	0.73084849
584.639	0.7293664
584.84	0.72809105
585.041	0.72686287
585.242	0.72560853
585.442	0.72444113
585.643	0.72351856
585.844	0.72240675
586.045	0.72157573
586.246	0.72037059
586.447	0.71915592
586.647	0.71790103
586.848	0.7165957
587.049	0.715178
587.25	0.71384686
587.45	0.712461
587.651	0.71129784
587.852	0.71011229
588.053	0.70903082
588.253	0.70777776
588.454	0.70655728
588.655	0.70533325
588.855	0.70393525
589.056	0.70258186
589.256	0.70135738
589.457	0.70007268
589.658	0.69889683
589.858	0.69745735
590.059	0.6961335
590.259	0.69484959
590.46	0.69346957
590.66	0.69203303
590.861	0.69057079
591.061	0.68906646
591.262	0.6877848
591.462	0.68638694
591.662	0.68501642
591.863	0.68357469
592.063	0.68225847
592.264	0.68095064
592.464	0.6795549
592.664	0.67823465
592.865	0.67689552
593.065	0.67536091
593.265	0.67414726
593.465	0.67252171
593.666	0.67112646
593.866	0.66980013
594.066	0.66833443
594.266	0.66697079
594.467	0.6654868
594.667	0.66398076
594.867	0.66271258
595.067	0.66123857
595.267	0.65969001
595.467	0.65820647
595.668	0.65665023
595.868	0.65545405
596.068	0.65408611
596.268	0.65263726
596.468	0.6513187
596.668	0.65001533
596.868	0.64859234
597.068	0.64731838
597.268	0.64585459
597.468	0.64426316
597.668	0.64262528
597.868	0.64100807
598.068	0.63939589
598.268	0.63789343
598.467	0.63636815
598.667	0.63469294
598.867	0.6330259
599.067	0.63164213
599.267	0.63008366
599.467	0.62850559
599.667	0.62688343
599.866	0.62532928
600.066	0.62393754
600.266	0.62251462
600.466	0.62090866
600.665	0.61944173
600.865	0.61797928
601.065	0.61664191
601.264	0.6150182
601.464	0.61347957
601.664	0.61197816
601.863	0.61042527
602.063	0.60887988
602.263	0.6071225
602.462	0.60542797
602.662	0.60385381
602.861	0.60214199
603.061	0.60051924
603.26	0.59892651
603.46	0.59729266
603.659	0.59585195
603.859	0.59432299
604.058	0.59267132
604.258	0.59106749
604.457	0.58957246
604.657	0.5878818
604.856	0.58612213
605.056	0.58451523
605.255	0.58284947
605.454	0.58129923
605.654	0.57978003
605.853	0.57819938
606.052	0.57667553
606.252	0.57532737
606.451	0.57382796
606.65	0.57236437
606.849	0.57056694
607.049	0.56889561
607.248	0.56720818
607.447	0.56562397
607.646	0.5640092
607.845	0.56243218
608.045	0.56066583
608.244	0.55935971
608.443	0.55784788
608.642	0.55636612
608.841	0.5546819
609.04	0.55299682
609.239	0.55132371
609.438	0.54971496
609.637	0.5480912
609.836	0.54650642
610.035	0.54489936
610.234	0.5433645
610.433	0.54188513
610.632	0.54028156
610.831	0.53872566
611.03	0.53705656
611.229	0.53547554
611.428	0.53381633
611.627	0.5322313
611.826	0.53054014
612.025	0.52899426
612.224	0.52724735
612.422	0.52556284
612.621	0.52382559
612.82	0.52222538
613.019	0.5206068
613.218	0.5190285
613.416	0.51722507
613.615	0.51565702
613.814	0.51400814
614.012	0.51242574
614.211	0.51080766
614.41	0.50917233
614.608	0.50760338
614.807	0.50612854
615.006	0.50462675
615.204	0.5031857
615.403	0.50179613
615.602	0.5003135
615.8	0.49887734
615.999	0.49716229
616.197	0.49556784
616.396	0.49395213
616.594	0.49222808
616.793	0.49057799
616.991	0.48886614
617.19	0.48705538
617.388	0.48559948
617.586	0.48397191
617.785	0.4824198
617.983	0.48091569
618.182	0.4793723
618.38	0.47782447
618.578	0.47647551
618.777	0.47501938
618.975	0.4736079
619.173	0.47208748
619.372	0.47058306
619.57	0.46890584
619.768	0.46745053
619.966	0.46575529
620.165	0.46404385
620.363	0.46251553
620.561	0.46088361
620.759	0.45935719
620.957	0.45789781
621.155	0.45632917
621.354	0.45478864
621.552	0.4533885
621.75	0.45175114
621.948	0.45035904
622.146	0.448863
622.344	0.44737458
622.542	0.44592665
622.74	0.44439436
622.938	0.44288546
623.136	0.44152152
623.334	0.44016451
623.532	0.43858411
623.73	0.43711372
623.928	0.43564787
624.126	0.43430622
624.324	0.43291229
624.522	0.4313367
624.719	0.42966682
624.917	0.42821277
625.115	0.42650245
625.313	0.42496524
625.511	0.42334953
625.708	0.42161999
625.906	0.42003584
626.104	0.41857742
626.302	0.41717618
626.499	0.41581542
626.697	0.41431226
626.895	0.4127603
627.093	0.41138796
627.29	0.41003027
627.488	0.40857282
627.686	0.40722387
627.883	0.4058059
628.081	0.40430729
628.278	0.40307053
628.476	0.40162197
628.673	0.4002603
628.871	0.39888852
629.068	0.39729725
629.266	0.39579942
629.463	0.39435855
629.661	0.39284582
629.858	0.39129121
630.056	0.38964705
630.253	0.38811193
630.451	0.38665525
630.648	0.38510854
630.845	0.38363001
631.043	0.38209578
631.24	0.38071274
631.438	0.37914975
631.635	0.37752777
631.832	0.37582548
632.029	0.37437745
632.227	0.37283061
632.424	0.37144152
632.621	0.36995158
632.818	0.36861338
633.016	0.36732337
633.213	0.36607828
633.41	0.36479539
633.607	0.36348804
633.804	0.36209347
634.001	0.36068852
634.199	0.35938113
634.396	0.35807908
634.593	0.35669926
634.79	0.35545421
634.987	0.35418743
635.184	0.35297757
635.381	0.35182305
635.578	0.35064475
635.775	0.34928177
635.972	0.34806783
636.169	0.34669964
636.366	0.34540826
636.563	0.34412377
636.76	0.34272792
636.957	0.34128607
637.153	0.33986619
637.35	0.33851577
637.547	0.33712681
637.744	0.3356892
637.941	0.33432923
638.138	0.3330475
638.334	0.33177517
638.531	0.33064157
638.728	0.32949309
638.925	0.32843823
639.121	0.32744378
639.318	0.32635135
639.515	0.32521586
639.711	0.32411703
639.908	0.32283454
640.105	0.32157453
640.301	0.32029043
640.498	0.31899828
640.695	0.3177769
640.891	0.31657785
641.088	0.31537449
641.284	0.31429041
641.481	0.31324204
641.677	0.31211021
641.874	0.31087711
642.07	0.30969582
642.267	0.30859838
642.463	0.30742496
642.66	0.30631956
642.856	0.30504435
643.053	0.30384661
643.249	0.3027788
643.445	0.30159947
643.642	0.30033336
643.838	0.29919417
644.034	0.29804029
644.231	0.29692922
644.427	0.295894
644.623	0.2949025
644.82	0.2940114
645.016	0.29298255
645.212	0.29197241
645.408	0.29100714
645.604	0.29016917
645.801	0.28919116
645.997	0.28805856
646.193	0.28695192
646.389	0.28602838
646.585	0.28504512
646.781	0.28407367
646.977	0.28306378
647.173	0.28201476
647.37	0.2810078
647.566	0.2800049
647.762	0.27905038
647.958	0.27826753
648.154	0.27728234
648.35	0.27633065
648.546	0.27534612
648.742	0.27450588
648.937	0.27347453
649.133	0.27255253
649.329	0.27147797
649.525	0.27053533
649.721	0.26952876
649.917	0.26870629
650.113	0.26764855
650.309	0.26682968
650.504	0.26585828
650.7	0.26493769
650.896	0.26402993
651.092	0.26312197
651.287	0.26225984
651.483	0.2615537
651.679	0.26070986
651.875	0.25995541
652.07	0.25922782
652.266	0.258388
652.462	0.25766417
652.657	0.2567495
652.853	0.25583582
653.048	0.25497985
653.244	0.25407969
653.44	0.25311671
653.635	0.25211299
653.831	0.25117733
654.026	0.25031914
654.222	0.24935091
654.417	0.24854702
654.613	0.24765098
654.808	0.24676728
655.004	0.24605943
655.199	0.24522912
655.394	0.24448597
655.59	0.24386697
655.785	0.24297235
655.98	0.24220006
656.176	0.24142851
656.371	0.24074093
656.566	0.23999836
656.762	0.23911948
656.957	0.23823046
657.152	0.23751876
657.348	0.23677559
657.543	0.23614591
657.738	0.23541889
657.933	0.23478456
658.128	0.23416611
658.324	0.23350914
658.519	0.23290022
658.714	0.23231873
658.909	0.23154011
659.104	0.23081527
659.299	0.2299855
659.494	0.22917737
659.689	0.22843806
659.884	0.22768414
660.079	0.22692957
660.274	0.22626578
660.469	0.22560437
660.664	0.22508452
660.859	0.22453031
661.054	0.22397804
661.249	0.22339018
661.444	0.22273592
661.639	0.22204381
661.834	0.22132037
662.029	0.2205676
662.224	0.21987685
662.418	0.21922001
662.613	0.21854573
662.808	0.21794951
663.003	0.21742067
663.198	0.2169188
663.392	0.21637618
663.587	0.21599727
663.782	0.21542073
663.977	0.21479986
664.171	0.21419015
664.366	0.21354403
664.561	0.21289911
664.755	0.21231388
664.95	0.2116445
665.144	0.21111118
665.339	0.21072861
665.534	0.21024671
665.728	0.20982592
665.923	0.20942321
666.117	0.20900069
666.312	0.20851379
666.506	0.20808084
666.701	0.20745369
666.895	0.20690391
667.09	0.20632011
667.284	0.20574653
667.479	0.20506479
667.673	0.20451715
667.867	0.20395426
668.062	0.20344203
668.256	0.20299495
668.45	0.20265284
668.645	0.20222819
668.839	0.20190581
669.033	0.20149071
669.228	0.20115938
669.422	0.20087166
669.616	0.20052722
669.81	0.2001308
670.004	0.19976546
670.199	0.19939007
670.393	0.19900896
670.587	0.19849281
670.781	0.19798175
670.975	0.19748536
671.169	0.19691366
671.363	0.19637677
671.558	0.19588745
671.752	0.19545116
671.946	0.19506812
672.14	0.19471702
672.334	0.19425115
672.528	0.19396156
672.722	0.19352711
672.916	0.19313857
673.11	0.19267578
673.304	0.19236485
673.497	0.1919407
673.691	0.19170915
673.885	0.19122686
674.079	0.19098467
674.273	0.19063105
674.467	0.19039128
674.661	0.18998926
674.854	0.18966028
675.048	0.18930927
675.242	0.18906057
675.436	0.18874019
675.629	0.18843252
675.823	0.18805566
676.017	0.18772741
676.211	0.18734145
676.404	0.18697367
676.598	0.18667693
676.792	0.18630083
676.985	0.18600375
677.179	0.18569461
677.372	0.18549477
677.566	0.18538877
677.76	0.18526071
677.953	0.18511129
678.147	0.185007
678.34	0.18484298
678.534	0.18465044
678.727	0.18437
678.921	0.18408937
679.114	0.18369902
679.307	0.18343212
679.501	0.18315525
679.694	0.18288613
679.888	0.18261144
680.081	0.18243
680.274	0.18212104
680.468	0.18192912
680.661	0.18162451
680.854	0.18150112
681.048	0.18129881
681.241	0.18113264
681.434	0.18088894
681.627	0.18075754
681.821	0.18067821
682.014	0.18065104
682.207	0.18038024
682.4	0.18033737
682.593	0.1803358
682.786	0.18030757
682.98	0.18029655
683.173	0.18026446
683.366	0.18016697
683.559	0.18018164
683.752	0.18012407
683.945	0.18005358
684.138	0.17999194
684.331	0.17989926
684.524	0.17980568
684.717	0.17961355
684.91	0.17947537
685.103	0.17924104
685.296	0.17895187
685.489	0.17864114
685.682	0.17833757
685.874	0.17804005
686.067	0.17787747
686.26	0.17769931
686.453	0.17761723
686.646	0.17746906
686.839	0.17746413
687.031	0.17744635
687.224	0.17734993
687.417	0.17731572
687.61	0.17724089
687.802	0.17720439
687.995	0.17727893
688.188	0.17733069
688.38	0.17734933
688.573	0.17740807
688.766	0.17739113
688.958	0.17739305
689.151	0.17735181
689.343	0.17734187
689.536	0.17718667
689.729	0.17710649
689.921	0.17700869
690.114	0.17684966
690.306	0.17678845
690.499	0.17673835
690.691	0.17672045
690.884	0.17679545
691.076	0.17684254
691.268	0.17690743
691.461	0.17699231
691.653	0.17703644
691.846	0.17701237
692.038	0.17698609
692.23	0.1769002
692.423	0.17691924
692.615	0.17696015
692.807	0.17711517
692.999	0.17724279
693.192	0.177425
693.384	0.1776518
693.576	0.17786838
693.768	0.17805248
693.961	0.17821175
694.153	0.17833892
694.345	0.17841445
694.537	0.17848558
694.729	0.17843952
694.921	0.17845587
695.113	0.17852724
695.305	0.17854383
695.498	0.1784856
695.69	0.17854492
695.882	0.17856085
696.074	0.17877624
696.266	0.17898182
696.458	0.17909752
696.65	0.17927293
696.842	0.17957933
697.033	0.1797847
697.225	0.17997081
697.417	0.1800645
697.609	0.18001923
697.801	0.18005868
697.993	0.18011092
698.185	0.18001946
698.376	0.18003533
698.568	0.18009069
698.76	0.18016373
698.952	0.18044996
699.144	0.18077924
699.335	0.18116695
699.527	0.18160153
699.719	0.18190864
699.91	0.18218894
700.102	0.18241543
700.294	0.1825659
700.485	0.18262271
700.677	0.18263573
700.869	0.18269268
701.06	0.18279904
701.252	0.18300659
701.443	0.18328619
701.635	0.18353651
701.826	0.1837792
702.018	0.18404133
702.209	0.18428988
702.401	0.18449985
702.592	0.1846969
702.784	0.18477915
702.975	0.18486286
703.166	0.18503092
703.358	0.18514902
703.549	0.18529911
703.741	0.18553327
703.932	0.18568964
704.123	0.18586623
704.315	0.18611343
704.506	0.18638808
704.697	0.18667117
704.888	0.18701586
705.08	0.18737423
705.271	0.1878354
705.462	0.18827572
705.653	0.18869323
705.844	0.18903538
706.035	0.18948661
706.227	0.1898356
706.418	0.19015219
706.609	0.19055607
706.8	0.19101843
706.991	0.19146631
707.182	0.19189366
707.373	0.19220472
707.564	0.19255186
707.755	0.19285814
707.946	0.19310882
708.137	0.19332783
708.328	0.19359578
708.519	0.19385765
708.71	0.19417465
708.901	0.19444686
709.092	0.19482501
709.283	0.19513609
709.473	0.19546398
709.664	0.19585684
709.855	0.19623776
710.046	0.19676007
710.237	0.19730773
710.427	0.19773006
710.618	0.19811859
710.809	0.19851879
711	0.19895059
711.19	0.19936651
711.381	0.19969992
711.572	0.20003556
711.762	0.20049264
711.953	0.20090539
712.144	0.20139477
712.334	0.20177395
712.525	0.20221001
712.715	0.20244533
712.906	0.20271068
713.097	0.20291596
713.287	0.20320602
713.478	0.20358706
713.668	0.2039206
713.859	0.20424385
714.049	0.20479834
714.239	0.20537894
714.43	0.20591468
714.62	0.20646989
714.811	0.20691203
715.001	0.20752106
715.191	0.20813707
715.382	0.20859954
715.572	0.20908936
715.762	0.20952148
715.953	0.20992954
716.143	0.21038103
716.333	0.21067818
716.523	0.21100108
716.714	0.21142555
716.904	0.21177584
717.094	0.21226977
717.284	0.21286243
717.474	0.21341408
717.664	0.21400329
717.855	0.21451386
718.045	0.21507469
718.235	0.21556193
718.425	0.21603524
718.615	0.2163825
718.805	0.21678397
718.995	0.21720928
719.185	0.2177757
719.375	0.21818035
719.565	0.2186801
719.755	0.21925576
719.945	0.21993305
720.135	0.22061633
720.325	0.22126869
720.515	0.22184698
720.704	0.22251522
720.894	0.22309245
721.084	0.22352695
721.274	0.22403024
721.464	0.22450444
721.654	0.2250934
721.843	0.22566746
722.033	0.22619126
722.223	0.22689674
722.413	0.22763215
722.602	0.22828647
722.792	0.22891909
722.982	0.22944258
723.171	0.23005788
723.361	0.23066054
723.55	0.23120087
723.74	0.2317181
723.93	0.2322069
724.119	0.23279938
724.309	0.23330508
724.498	0.23372032
724.688	0.23422619
724.877	0.23472241
725.067	0.2352265
725.256	0.23576918
725.446	0.2361704
725.635	0.23659291
725.825	0.23704293
726.014	0.23751686
726.203	0.2380248
726.393	0.23854477
726.582	0.2389971
726.771	0.2395968
726.961	0.24027923
727.15	0.24103914
727.339	0.24173994
727.529	0.24246272
727.718	0.24312712
727.907	0.24376716
728.096	0.24427743
728.286	0.24480606
728.475	0.24537963
728.664	0.24596788
728.853	0.24660445
729.042	0.24728766
729.231	0.24799035
729.42	0.24869337
729.609	0.2493469
729.799	0.24992807
729.988	0.25055924
730.177	0.25103279
730.366	0.251509
730.555	0.25200623
730.744	0.25259634
730.933	0.25320295
731.122	0.25375828
731.31	0.25433572
731.499	0.25495594
731.688	0.25567158
731.877	0.25643088
732.066	0.25717936
732.255	0.25784476
732.444	0.25851493
732.632	0.25913207
732.821	0.25979709
733.01	0.26045859
733.199	0.26114371
733.388	0.26181836
733.576	0.26254006
733.765	0.26322004
733.954	0.26388656
734.142	0.26443907
734.331	0.26504789
734.52	0.26558608
734.708	0.26615831
734.897	0.26679564
735.086	0.26745483
735.274	0.26816784
735.463	0.26899884
735.651	0.26975806
735.84	0.27051552
736.028	0.27126194
736.217	0.2720089
736.405	0.27277731
736.594	0.27355763
736.782	0.27430475
736.971	0.27501
737.159	0.27568887
737.347	0.27632944
737.536	0.27690692
737.724	0.27749723
737.912	0.27800953
738.101	0.27858776
738.289	0.27923565
738.477	0.27986808
738.666	0.28042135
738.854	0.28107135
739.042	0.28178708
739.23	0.28245319
739.418	0.28306129
739.607	0.28367274
739.795	0.28434095
739.983	0.28514155
740.171	0.28587717
740.359	0.28655491
740.547	0.28729087
740.735	0.28804792
740.923	0.28884178
741.112	0.28958046
741.3	0.29022425
741.488	0.29089031
741.676	0.2915771
741.864	0.29226704
742.052	0.29296974
742.239	0.29353803
742.427	0.29411515
742.615	0.29470385
742.803	0.29532436
742.991	0.29598606
743.179	0.29665755
743.367	0.29739795
743.555	0.29824389
743.742	0.29915793
743.93	0.30009322
744.118	0.3008646
744.306	0.30161153
744.494	0.30228541
744.681	0.30288876
744.869	0.30351574
745.057	0.30417013
745.244	0.30484816
745.432	0.3056634
745.62	0.30636053
745.807	0.30721544
745.995	0.30796979
746.182	0.3086681
746.37	0.30942293
746.558	0.31014045
746.745	0.31080274
746.933	0.31159125
747.12	0.3123426
747.308	0.31324428
747.495	0.31412167
747.683	0.31482906
747.87	0.31553403
748.057	0.31634696
748.245	0.31715155
748.432	0.3178477
748.62	0.31836695
748.807	0.31892679
748.994	0.31957684
749.182	0.32029384
749.369	0.32094172
749.556	0.32157865
749.743	0.32218937
749.931	0.32296795
750.118	0.32383142
750.305	0.32464726
750.492	0.32543332
750.68	0.32624968
750.867	0.32710576
751.054	0.32802335
751.241	0.3289301
751.428	0.32981283
751.615	0.33075248
751.802	0.33167626
751.989	0.33256591
752.176	0.33347906
752.363	0.33428175
752.55	0.33500309
752.737	0.33569316
752.924	0.33629205
753.111	0.33691058
753.298	0.33753537
753.485	0.33802029
753.672	0.3385632
753.859	0.33911083
754.046	0.33952894
754.233	0.34011298
754.42	0.34070841
754.606	0.34121321
754.793	0.34186964
754.98	0.34269587
755.167	0.34343035
755.353	0.34437588
755.54	0.34522661
755.727	0.34602733
755.914	0.34691812
756.1	0.34781577
756.287	0.34850549
756.474	0.34931254
756.66	0.34999958
756.847	0.35060997
757.033	0.35109918
757.22	0.35166508
757.407	0.35220628
757.593	0.35287641
757.78	0.3535261
757.966	0.35426873
758.153	0.35498818
758.339	0.35579007
758.526	0.35647011
758.712	0.35706068
758.898	0.35776159
759.085	0.35844484
759.271	0.35908493
759.458	0.35978759
759.644	0.36070614
759.83	0.36158739
760.017	0.3624415
760.203	0.36317719
760.389	0.3639608
760.576	0.36469807
760.762	0.3654671
760.948	0.36600789
761.134	0.36667212
761.32	0.3673973
761.507	0.36813537
761.693	0.36891197
761.879	0.36963734
762.065	0.37037741
762.251	0.37116589
762.437	0.37189159
762.623	0.37261008
762.809	0.3732645
762.995	0.37396409
763.181	0.37468816
763.367	0.37544808
763.553	0.37619362
763.739	0.37706064
763.925	0.37795948
764.111	0.37896413
764.297	0.37997595
764.483	0.38098231
764.669	0.38185602
764.855	0.3826956
765.041	0.38342118
765.227	0.38399746
765.412	0.38451532
765.598	0.38500325
765.784	0.3856129
765.97	0.38638127
766.156	0.38721351
766.341	0.38812726
766.527	0.38901458
766.713	0.38991004
766.898	0.39086155
767.084	0.39172087
767.27	0.39237753
767.455	0.39323704
767.641	0.39413386
767.827	0.39518895
768.012	0.39627896
768.198	0.39722768
768.383	0.39809355
768.569	0.39915472
768.754	0.40004168
768.94	0.40078585
769.125	0.40152273
769.311	0.40209555
769.496	0.40275926
769.682	0.40352584
769.867	0.40429834
770.052	0.40507512
770.238	0.405788
770.423	0.40651853
770.608	0.40734058
770.794	0.40812477
770.979	0.40879573
771.164	0.40945055
771.35	0.41012489
771.535	0.410877
771.72	0.41165318
771.905	0.41248266
772.09	0.41324361
772.276	0.41416946
772.461	0.41503672
772.646	0.41596524
772.831	0.41678726
773.016	0.41771365
773.201	0.41845955
773.386	0.41932207
773.571	0.41995551
773.756	0.42056455
773.941	0.42114601
774.126	0.42195819
774.311	0.42251512
774.496	0.42326386
774.681	0.42393106
774.866	0.42468414
775.051	0.42541884
775.236	0.42624231
775.421	0.42688121
775.606	0.42768373
775.791	0.4283398
775.976	0.42908866
776.16	0.42992413
776.345	0.43071774
776.53	0.43148603
776.715	0.43228491
776.899	0.43312474
777.084	0.43393703
777.269	0.43477955
777.454	0.43550007
777.638	0.43633041
777.823	0.43691434
778.008	0.4374238
778.192	0.43784525
778.377	0.43822759
778.561	0.43857156
778.746	0.43902351
778.931	0.43945155
779.115	0.43998063
779.3	0.44055363
779.484	0.44102158
779.669	0.44160182
779.853	0.44213158
780.037	0.44270482
780.222	0.4431434
780.406	0.44359323
780.591	0.44410063
780.775	0.44458973
780.959	0.44506653
781.144	0.44551927
781.328	0.44585791
781.512	0.44615794
781.697	0.44657218
781.881	0.44677713
782.065	0.44709196
782.249	0.44719591
782.434	0.44741366
782.618	0.44764342
782.802	0.44812053
782.986	0.44849124
783.17	0.44893305
783.354	0.44940733
783.539	0.44995585
783.723	0.45040938
783.907	0.45098213
784.091	0.45142571
784.275	0.45192554
784.459	0.45239479
784.643	0.45289817
784.827	0.45340933
785.011	0.4539416
785.195	0.45451265
785.379	0.45500755
785.563	0.45544325
785.747	0.4559413
785.93	0.45658975
786.114	0.45703216
786.298	0.45746385
786.482	0.45776271
786.666	0.45816698
786.85	0.45859186
787.033	0.45902309
787.217	0.45943563
787.401	0.46008064
787.585	0.46086855
787.768	0.46175834
787.952	0.46257297
788.136	0.46341799
788.319	0.46433477
788.503	0.46497179
788.687	0.46577233
788.87	0.46648828
789.054	0.46708231
789.237	0.46769792
789.421	0.46828541
789.605	0.46880525
789.788	0.46934997
789.972	0.46986699
790.155	0.47025866
790.338	0.47070196
790.522	0.47129451
790.705	0.47184398
790.889	0.47237461
791.072	0.4730574
791.256	0.47372112
791.439	0.47446529
791.622	0.47528673
791.806	0.47619858
791.989	0.47691421
792.172	0.4778228
792.355	0.47856552
792.539	0.47940612
792.722	0.48000408
792.905	0.48046602
793.088	0.48073946
793.271	0.48137714
793.455	0.48185708
793.638	0.48241107
793.821	0.48265825
794.004	0.48313059
794.187	0.48386115
794.37	0.48464174
794.553	0.48537226
794.736	0.48602491
794.919	0.48667403
795.102	0.48761245
795.285	0.48862912
795.468	0.48936039
795.651	0.49021208
795.834	0.49096627
796.017	0.49191814
796.2	0.49281957
796.383	0.49361126
796.566	0.49442333
796.749	0.49530869
796.931	0.49598929
797.114	0.4966539
797.297	0.49719665
797.48	0.49789957
797.663	0.49854002
797.845	0.49910935
798.028	0.49972584
798.211	0.5002347
798.393	0.50082596
798.576	0.50146075
798.759	0.50175677
798.941	0.50233204
799.124	0.5028262
799.307	0.50337521
799.489	0.50411092
799.672	0.5047301
799.854	0.50525849
800.037	0.50606186
800.219	0.50669714
800.402	0.50737446
800.584	0.50782153
800.767	0.50832575
800.949	0.5088769
801.132	0.50961875
801.314	0.51016481
801.496	0.51064542
801.679	0.51115792
801.861	0.51157081
802.043	0.5117705
802.226	0.51205011
802.408	0.51222693
802.59	0.5127024
802.772	0.51322192
802.955	0.51378129
803.137	0.5144286
803.319	0.51525491
803.501	0.515938
803.684	0.51661686
803.866	0.51695257
804.048	0.51740779
804.23	0.51777446
804.412	0.51836772
804.594	0.51875736
804.776	0.51939789
804.958	0.51973597
805.14	0.52018962
805.322	0.52044489
805.504	0.52074389
805.686	0.52089739
805.868	0.52097465
806.05	0.52079442
806.232	0.52096859
806.414	0.52139236
806.596	0.52165654
806.778	0.52180236
806.96	0.52204551
807.141	0.52235
807.323	0.52282427
807.505	0.52303508
807.687	0.52306862
807.869	0.5231885
808.05	0.52333367
808.232	0.52337924
808.414	0.52354865
808.595	0.5234976
808.777	0.52365114
808.959	0.52400334
809.14	0.52429974
809.322	0.52457322
809.504	0.52469246
809.685	0.52496491
809.867	0.52505367
810.048	0.52501698
810.23	0.52490769
810.411	0.52487507
810.593	0.52499595
810.774	0.52524451
810.956	0.52539954
811.137	0.52578082
811.319	0.52633836
811.5	0.52668611
811.681	0.52714884
811.863	0.52737193
812.044	0.52751816
812.225	0.52780553
812.407	0.52790925
812.588	0.52789025
812.769	0.52787026
812.951	0.52785456
813.132	0.52792307
813.313	0.5283461
813.494	0.52832297
813.675	0.52850316
813.857	0.52886937
814.038	0.5293653
814.219	0.52965862
814.4	0.52992217
814.581	0.53029201
814.762	0.53066578
814.943	0.53111539
815.124	0.53130678
815.305	0.53157211
815.486	0.53199585
815.667	0.53254261
815.848	0.53260195
816.029	0.53285977
816.21	0.53314169
816.391	0.53368647
816.572	0.53383351
816.753	0.53421017
816.934	0.53446129
817.115	0.53489842
817.295	0.53534778
817.476	0.53555065
817.657	0.53575577
817.838	0.53648565
818.019	0.53681129
818.199	0.53723473
818.38	0.53761618
818.561	0.53822093
818.741	0.53897218
818.922	0.53951074
819.103	0.54000766
819.283	0.54061051
819.464	0.54128137
819.645	0.541937
819.825	0.54237522
820.006	0.54282826
820.186	0.54337772
820.367	0.54374073
820.547	0.5440523
820.728	0.54438703
820.908	0.54472462
821.089	0.54521795
821.269	0.54560283
821.45	0.54594037
821.63	0.54619802
821.81	0.54674822
821.991	0.54717597
822.171	0.547556
822.351	0.54777476
822.532	0.5481315
822.712	0.54851315
822.892	0.54908947
823.072	0.54944664
823.253	0.54985234
823.433	0.55023342
823.613	0.55060392
823.793	0.55097438
823.973	0.55160234
824.154	0.55192479
824.334	0.55248382
824.514	0.55305438
824.694	0.55371689
824.874	0.55423456
825.054	0.55487264
825.234	0.55518253
825.414	0.55548751
825.594	0.55563859
825.774	0.55576876
825.954	0.55565179
826.134	0.55580739
826.314	0.55564222
826.494	0.55582397
826.674	0.55589838
826.854	0.55603244
827.033	0.55614591
827.213	0.55685749
827.393	0.55724167
827.573	0.55802711
827.753	0.55838926
827.932	0.5591256
828.112	0.55994738
828.292	0.56071532
828.472	0.56091424
828.651	0.56158514
828.831	0.5617972
829.011	0.56223344
829.19	0.56232991
829.37	0.56249561
829.549	0.56272714
829.729	0.56303383
829.909	0.56317931
830.088	0.56350952
830.268	0.56350775
830.447	0.56407597
830.627	0.5644332
830.806	0.56475933
830.986	0.5649457
831.165	0.56523655
831.344	0.56550555
831.524	0.56585132
831.703	0.56591748
831.883	0.56599929
832.062	0.56619505
832.241	0.56668096
832.421	0.56705085
832.6	0.56738275
832.779	0.56792746
832.958	0.5682042
833.138	0.56824857
833.317	0.56860076
833.496	0.56870079
833.675	0.56880698
833.854	0.56925339
834.034	0.56931107
834.213	0.56945854
834.392	0.56996825
834.571	0.56993459
834.75	0.57018267
834.929	0.57032401
835.108	0.57018382
835.287	0.57037143
835.466	0.57052366
835.645	0.5707504
835.824	0.57089129
836.003	0.57102909
836.182	0.57132486
836.361	0.57159629
836.54	0.5716964
836.719	0.57203663
836.897	0.57205417
837.076	0.5722723
837.255	0.57250074
837.434	0.57275108
837.613	0.57300173
837.791	0.57328434
837.97	0.57342718
838.149	0.57351494
838.328	0.57364171
838.506	0.57358218
838.685	0.57342967
838.864	0.57351055
839.042	0.5735409
839.221	0.57378843
839.4	0.57420224
839.578	0.57453911
839.757	0.57486917
839.935	0.57518655
840.114	0.57537813
840.292	0.57544525
840.471	0.57547297
840.649	0.57531932
840.828	0.57529275
841.006	0.57540262
841.185	0.57521827
841.363	0.57540296
841.541	0.57573363
841.72	0.57621979
841.898	0.57674347
842.076	0.57714538
842.255	0.57740089
842.433	0.57824138
842.611	0.57846631
842.789	0.57882799
842.968	0.57915055
843.146	0.5791995
843.324	0.57939397
843.502	0.57964862
843.68	0.57952694
843.859	0.57943423
844.037	0.57916089
844.215	0.57857938
844.393	0.57848091
844.571	0.57817291
844.749	0.5781408
844.927	0.57803194
845.105	0.57800923
845.283	0.57789669
845.461	0.57813088
845.639	0.57817664
845.817	0.5782979
845.995	0.57850534
846.173	0.57891535
846.351	0.57896279
846.529	0.57927551
846.706	0.57931933
846.884	0.57956807
847.062	0.57947191
847.24	0.57928613
847.418	0.57907056
847.595	0.57929701
847.773	0.57958752
847.951	0.57967693
848.129	0.57945734
848.306	0.57975165
848.484	0.57964572
848.662	0.57968619
848.839	0.57963411
849.017	0.57934145
849.194	0.57918201
849.372	0.57912193
849.549	0.57879091
849.727	0.57889856
849.905	0.57848892
850.082	0.5783541
850.26	0.57849498
850.437	0.57853676
850.614	0.57886471
850.792	0.57904191
850.969	0.57928634
851.147	0.57969275
851.324	0.57981216
851.501	0.57972976
851.679	0.57976476
851.856	0.57949031
852.033	0.57972946
852.211	0.57976044
852.388	0.57976972
852.565	0.58014658
852.742	0.58054462
852.92	0.58077744
853.097	0.58116249
853.274	0.58123923
853.451	0.58095865
853.628	0.58082705
853.805	0.58037498
853.982	0.58004145
854.159	0.57960568
854.336	0.57918182
854.514	0.57883819
854.691	0.57876634
854.868	0.57883281
855.045	0.57897834
855.221	0.57909535
855.398	0.57914517
855.575	0.57908331
855.752	0.57915715
855.929	0.57936551
856.106	0.57894452
856.283	0.57866223
856.46	0.57833275
856.637	0.57855721
856.813	0.57854867
856.99	0.57849216
857.167	0.57844461
857.344	0.57859712
857.52	0.57866936
857.697	0.57838705
857.874	0.57794382
858.05	0.57793824
858.227	0.57766979
858.404	0.57728653
858.58	0.57745006
858.757	0.57724334
858.933	0.57750174
859.11	0.57757194
859.287	0.57708978
859.463	0.57678669
859.64	0.57691109
859.816	0.57652826
859.993	0.57654646
860.169	0.5767025
860.345	0.57669471
860.522	0.57707049
860.698	0.5773423
860.875	0.5771444
861.051	0.57734861
861.227	0.57704612
861.404	0.57681386
861.58	0.57698741
861.756	0.57685751
861.932	0.57692265
862.109	0.57655676
862.285	0.57644731
862.461	0.57678179
862.637	0.57663549
862.813	0.57634343
862.99	0.57606056
863.166	0.57557297
863.342	0.57612103
863.518	0.57553806
863.694	0.57515987
863.87	0.57453806
864.046	0.57401921
864.222	0.57368897
864.398	0.57355308
864.574	0.57264425
864.75	0.57273091
864.926	0.57266788
865.102	0.57283316
865.278	0.572712
865.454	0.57284454
865.63	0.57264671
865.805	0.57273784
865.981	0.57263323
866.157	0.5725689
866.333	0.57211738
866.509	0.57220049
866.684	0.57195709
866.86	0.5722048
867.036	0.57211673
867.212	0.57142469
867.387	0.57086642
867.563	0.57090066
867.739	0.57064371
867.914	0.57065428
868.09	0.57006922
868.265	0.56963035
868.441	0.56971244
868.617	0.56962109
868.792	0.56948285
868.968	0.56928686
869.143	0.5691998
869.319	0.56937012
869.494	0.56920975
869.67	0.56927498
869.845	0.56922257
870.02	0.56915207
870.196	0.56905694
870.371	0.56865241
870.546	0.5682986
870.722	0.56839299
870.897	0.56807552
871.072	0.5678055
871.248	0.5672992
871.423	0.56678397
871.598	0.56656633
871.773	0.56587065
871.949	0.56525782
872.124	0.56507464
872.299	0.56443569
872.474	0.56424484
872.649	0.56393515
872.824	0.56351937
872.999	0.56345103
873.174	0.56362794
873.349	0.56332007
873.524	0.56340859
873.699	0.56327624
873.874	0.56304442
874.049	0.56278914
874.224	0.56243973
874.399	0.5616128
874.574	0.56140766
874.749	0.56083338
874.924	0.5601721
875.099	0.55972734
875.274	0.55924973
875.449	0.55921827
875.623	0.55901509
875.798	0.55832874
875.973	0.55809867
876.148	0.55763827
876.322	0.55750185
876.497	0.55707893
876.672	0.55649228
876.846	0.5562567
877.021	0.55593299
877.196	0.55499382
877.37	0.55488658
877.545	0.55479131
877.72	0.55437191
877.894	0.55405786
878.069	0.55341557
878.243	0.55263593
878.418	0.55280631
878.592	0.55238566
878.767	0.55149136
878.941	0.55130851
879.116	0.55093121
879.29	0.55076548
879.464	0.55077589
879.639	0.55040275
879.813	0.55042191
879.987	0.5501867
880.162	0.54992227
880.336	0.54956131
880.51	0.54937542
880.685	0.54922071
880.859	0.54904805
881.033	0.54867162
881.207	0.54835568
881.381	0.54826029
881.556	0.54806768
881.73	0.54756248
881.904	0.54765658
882.078	0.54731028
882.252	0.54693335
882.426	0.5467946
882.6	0.54632293
882.774	0.5461718
882.948	0.54575096
883.122	0.54461101
883.296	0.54395216
883.47	0.54355546
883.644	0.54335802
883.818	0.54256225
883.992	0.54217291
884.166	0.54212652
884.34	0.54234691
884.514	0.54243479
884.687	0.54200377
884.861	0.54128274
885.035	0.54129295
885.209	0.5406995
885.382	0.53998316
885.556	0.53927349
885.73	0.53876411
885.904	0.53852552
886.077	0.53806089
886.251	0.53765193
886.425	0.53743729
886.598	0.53747673
886.772	0.53705072
886.945	0.53668165
887.119	0.5360293
887.292	0.53592244
887.466	0.53592821
887.64	0.53526934
887.813	0.53459486
887.986	0.53430555
888.16	0.53388251
888.333	0.53320488
888.507	0.53263988
888.68	0.53183546
888.854	0.53150024
889.027	0.53103663
889.2	0.53090526
889.374	0.53032212
889.547	0.53063954
889.72	0.53061204
889.893	0.53036439
890.067	0.52998714
890.24	0.52967269
890.413	0.52912307
890.586	0.52837119
890.759	0.52784783
890.933	0.52728156
891.106	0.5267199
891.279	0.52642059
891.452	0.52602861
891.625	0.5254898
891.798	0.52565221
891.971	0.52513468
892.144	0.52466812
892.317	0.52450939
892.49	0.52388743
892.663	0.52356957
892.836	0.52361699
893.009	0.52327305
893.182	0.52263371
893.355	0.52241106
893.527	0.52198153
893.7	0.5222135
893.873	0.52203705
894.046	0.52111377
894.219	0.52068331
894.391	0.52040909
894.564	0.51998523
894.737	0.51930915
894.91	0.51852693
895.082	0.5176009
895.255	0.51720146
895.428	0.51667544
895.6	0.51589675
895.773	0.51490541
895.945	0.51424791
896.118	0.51360877
896.291	0.51330594
896.463	0.51282583
896.636	0.51207604
896.808	0.51167229
896.981	0.51121514
897.153	0.51058526
897.326	0.50998479
897.498	0.50912489
897.67	0.50855216
897.843	0.50815674
898.015	0.5080433
898.187	0.50806091
898.36	0.50780087
898.532	0.50718264
898.704	0.50744792
898.877	0.50711571
899.049	0.50689735
899.221	0.5064004
899.393	0.5056801
899.566	0.50544622
899.738	0.50532575
899.91	0.5046214
900.082	0.50402651
900.254	0.50330749
900.426	0.50269019
900.598	0.5022478
900.77	0.50159623
900.942	0.50117334
901.114	0.50056074
901.286	0.5002637
901.458	0.50006965
901.63	0.4996005
901.802	0.49948836
901.974	0.49929977
902.146	0.49894768
902.318	0.49855511
902.49	0.49820403
902.662	0.49768559
902.834	0.49726388
903.005	0.49674978
903.177	0.49608663
903.349	0.49564147
903.521	0.49507222
903.693	0.49456644
903.864	0.49404893
904.036	0.49374535
904.208	0.49279059
904.379	0.49225901
904.551	0.49200068
904.723	0.49181905
904.894	0.49126535
905.066	0.49096913
905.237	0.49069411
905.409	0.49045235
905.58	0.49011199
905.752	0.48897071
905.923	0.48804256
906.095	0.48720293
906.266	0.48623259
906.438	0.4853337
906.609	0.4845833
906.78	0.48372992
906.952	0.48346015
907.123	0.48282054
907.295	0.48287981
907.466	0.48276293
907.637	0.48263626
907.808	0.48223068
907.98	0.48194313
908.151	0.48150223
908.322	0.48126186
908.493	0.48029256
908.665	0.47958012
908.836	0.47868279
909.007	0.47837037
909.178	0.47790134
909.349	0.47753259
909.52	0.47742108
909.691	0.47694288
909.862	0.47672054
910.033	0.47616452
910.204	0.47554753
910.375	0.47517371
910.546	0.474511
910.717	0.47348624
910.888	0.473141
911.059	0.47233723
911.23	0.47180117
911.401	0.47107246
911.572	0.47012034
911.742	0.46934657
911.913	0.46885515
912.084	0.46795795
912.255	0.46731101
912.426	0.46649774
912.596	0.4658035
912.767	0.46535869
912.938	0.46492939
913.108	0.4643817
913.279	0.46378559
913.45	0.46327498
913.62	0.46306044
913.791	0.46293971
913.962	0.46266998
914.132	0.46194007
914.303	0.46141251
914.473	0.46108044
914.644	0.46039816
914.814	0.45978044
914.985	0.45920745
915.155	0.4585638
915.326	0.45815178
915.496	0.45751587
915.666	0.45694198
915.837	0.4567927
916.007	0.45585466
916.177	0.45458746
916.348	0.45382981
916.518	0.45316146
916.688	0.45258039
916.858	0.45201411
917.029	0.45103475
917.199	0.45081427
917.369	0.45094748
917.539	0.45075431
917.709	0.45034512
917.88	0.44980109
918.05	0.44931323
918.22	0.44914367
918.39	0.44860999
918.56	0.44815402
918.73	0.44785198
918.9	0.447359
919.07	0.44702784
919.24	0.44676413
919.41	0.44649233
919.58	0.44590345
919.75	0.44541763
919.92	0.44422129
920.09	0.44380592
920.26	0.44314083
920.429	0.44247297
920.599	0.4415006
920.769	0.44086489
920.939	0.43984501
921.109	0.439445
921.278	0.43866436
921.448	0.43825085
921.618	0.43776037
921.787	0.43738312
921.957	0.43704986
922.127	0.43660556
922.296	0.43634831
922.466	0.43589217
922.636	0.43529247
922.805	0.43453832
922.975	0.43366524
923.144	0.43301719
923.314	0.43231293
923.483	0.43135708
923.653	0.4306521
923.822	0.42995588
923.992	0.42936945
924.161	0.42890615
924.331	0.42827267
924.5	0.42781032
924.669	0.42714209
924.839	0.42675111
925.008	0.42609249
925.177	0.42525849
925.347	0.42472624
925.516	0.42440852
925.685	0.42392903
925.854	0.42361318
926.023	0.42289294
926.193	0.42265751
926.362	0.42217289
926.531	0.42150834
926.7	0.42056838
926.869	0.42011439
927.038	0.41887282
927.207	0.41800478
927.376	0.41684274
927.545	0.41607902
927.715	0.41536635
927.884	0.41480353
928.052	0.414163
928.221	0.4136378
928.39	0.41293605
928.559	0.41255118
928.728	0.41222672
928.897	0.41211545
929.066	0.41176444
929.235	0.41098355
929.404	0.41076517
929.572	0.41042632
929.741	0.4098767
929.91	0.40920849
930.079	0.40791669
930.247	0.40728988
930.416	0.4069163
930.585	0.40641928
930.753	0.40584932
930.922	0.4052578
931.091	0.40476763
931.259	0.40452465
931.428	0.4038926
931.596	0.40312636
931.765	0.40258231
931.934	0.40224134
932.102	0.40096156
932.27	0.40034544
932.439	0.3995046
932.607	0.3987104
932.776	0.39867509
932.944	0.39811187
933.113	0.39769152
933.281	0.39792302
933.449	0.39702325
933.618	0.39651201
933.786	0.39624834
933.954	0.3951611
934.123	0.39449457
934.291	0.39379418
934.459	0.39302385
934.627	0.3930078
934.795	0.39273504
934.964	0.39201705
935.132	0.39120959
935.3	0.39036052
935.468	0.38924419
935.636	0.38859539
935.804	0.38722948
935.972	0.3862572
936.14	0.38523241
936.308	0.38454539
936.476	0.38423132
936.644	0.38389233
936.812	0.38345141
936.98	0.38331733
937.148	0.3826211
937.316	0.38176421
937.484	0.3819906
937.652	0.38068901
937.82	0.38058005
937.987	0.37938803
938.155	0.37842269
938.323	0.37800413
938.491	0.37661833
938.658	0.37604904
938.826	0.3755836
938.994	0.37430092
939.162	0.37379059
939.329	0.37391623
939.497	0.37405596
939.665	0.37454043
939.832	0.37406987
940	0.37421394
940.167	0.37392935
940.335	0.3731415
940.502	0.37141885
940.67	0.37048638
940.837	0.37095305
941.005	0.36928543
941.172	0.3677264
941.34	0.36689954
941.507	0.36829964
941.674	0.36998214
941.842	0.36913169
942.009	0.36911866
942.177	0.36650537
942.344	0.36890695
942.511	0.36884272
942.678	0.36830082
942.846	0.36537931
943.013	0.36446906
943.18	0.36271284
943.347	0.36439312
943.514	0.36192982
943.682	0.36266554
943.849	0.3600954
944.016	0.35865279
944.183	0.35843872
944.35	0.35804869
944.517	0.35793309
944.684	0.35758962
944.851	0.35105357
945.018	0.35107216
945.185	0.35170529
945.352	0.34968022
945.519	0.34916598
945.686	0.34778262
945.853	0.34919491
946.02	0.35043037
946.187	0.34991382
946.353	0.35121899
946.52	0.35217436
946.687	0.3510504
946.854	0.35183392
947.021	0.34906026
947.187	0.34910031
947.354	0.34687901
947.521	0.34510101
947.687	0.34201786
947.854	0.34172635
948.021	0.33968676
948.187	0.33961753
948.354	0.33961934
948.52	0.33963893
948.687	0.33989644
948.854	0.34189535
949.02	0.33947831
949.187	0.33923528
949.353	0.33923671
949.52	0.33728857
949.686	0.33750609
949.852	0.33725663
950.019	0.33687105
950.185	0.33847953
950.352	0.33763202
950.518	0.33493864
950.684	0.33593944
950.851	0.33505315
951.017	0.33274864
951.183	0.33123551
951.349	0.33041404
951.516	0.32867774
951.682	0.32923953
951.848	0.32762668
952.014	0.32693371
952.18	0.32780264
952.346	0.32735375
952.512	0.32661004
952.679	0.32784087
952.845	0.32682569
953.011	0.3269469
953.177	0.32648479
953.343	0.32460092
953.509	0.32503488
953.675	0.3241799
953.841	0.32266221
954.007	0.32266442
954.172	0.32282694
954.338	0.3216646
954.504	0.32077038
954.67	0.31778887
954.836	0.31747333
955.002	0.31711102
955.167	0.31619418
955.333	0.31341172
955.499	0.31296304
955.665	0.31236409
955.83	0.31322449
955.996	0.31231171
956.162	0.3110304
956.327	0.31020048
956.493	0.31062663
956.659	0.31060874
956.824	0.30953153
956.99	0.30802315
957.155	0.30750392
957.321	0.3075996
957.486	0.30761122
957.652	0.30683076
957.817	0.30679988
957.983	0.30623786
958.148	0.30621482
958.314	0.30564351
958.479	0.30406846
958.644	0.30331703
958.81	0.30332435
958.975	0.30242589
959.14	0.30271219
959.306	0.30179634
959.471	0.30088136
959.636	0.30059663
959.801	0.30111453
959.967	0.30054902
960.132	0.30015122
960.297	0.29930969
960.462	0.30004398
960.627	0.2998673
960.792	0.29928028
960.957	0.29816265
961.123	0.29794905
961.288	0.29716186
961.453	0.29785114
961.618	0.29690983
961.783	0.29674826
961.948	0.29665532
962.113	0.29553135
962.277	0.29442688
962.442	0.2939901
962.607	0.29283225
962.772	0.29217966
962.937	0.2910609
963.102	0.29065561
963.267	0.29038689
963.431	0.29026346
963.596	0.28974516
963.761	0.28877246
963.926	0.28811027
964.09	0.28822041
964.255	0.28824794
964.42	0.28824785
964.584	0.28817069
964.749	0.28720822
964.914	0.2866935
965.078	0.28621393
965.243	0.28512649
965.407	0.2840044
965.572	0.28286879
965.736	0.28215979
965.901	0.28238957
966.065	0.28323968
966.23	0.28243469
966.394	0.28257934
966.559	0.28212128
966.723	0.28167227
966.887	0.2808444
967.052	0.27968564
967.216	0.27810005
967.38	0.27702577
967.545	0.2761683
967.709	0.27623468
967.873	0.27613854
968.037	0.27582091
968.202	0.27560082
968.366	0.27534908
968.53	0.27596413
968.694	0.27536281
968.858	0.27424535
969.022	0.27307624
969.187	0.27227655
969.351	0.27184057
969.515	0.2713012
969.679	0.2699874
969.843	0.2696129
970.007	0.26930675
970.171	0.26959472
970.335	0.26963685
970.499	0.26919907
970.662	0.26864039
970.826	0.26870505
970.99	0.26860379
971.154	0.26805543
971.318	0.2669043
971.482	0.26514103
971.645	0.26452196
971.809	0.26437856
971.973	0.26375986
972.137	0.26247081
972.3	0.26139858
972.464	0.26110712
972.628	0.26158618
972.791	0.26154995
972.955	0.26071321
973.119	0.26015842
973.282	0.26030093
973.446	0.26026756
973.609	0.2599221
973.773	0.2595188
973.936	0.25893129
974.1	0.25864517
974.263	0.25863378
974.427	0.25800566
974.59	0.25761914
974.754	0.25712488
974.917	0.25645072
975.08	0.25604751
975.244	0.25538635
975.407	0.25468776
975.57	0.2541812
975.734	0.25380386
975.897	0.25346077
976.06	0.25305039
976.223	0.25238134
976.387	0.25223212
976.55	0.25185972
976.713	0.25142024
976.876	0.25069643
977.039	0.24953537
977.202	0.24904565
977.365	0.24805158
977.528	0.24716848
977.692	0.24643364
977.855	0.24540895
978.018	0.24489544
978.181	0.24500189
978.344	0.24452044
978.506	0.2440303
978.669	0.24333088
978.832	0.24261608
978.995	0.24249046
979.158	0.24229976
979.321	0.24142916
979.484	0.24090527
979.646	0.24065594
979.809	0.24099878
979.972	0.24058134
980.135	0.24060143
980.297	0.24025492
980.46	0.23985118
980.623	0.23988807
980.786	0.23962091
980.948	0.23850566
981.111	0.23781585
981.273	0.23693427
981.436	0.23597631
981.599	0.23604081
981.761	0.23437096
981.924	0.23450046
982.086	0.2345599
982.249	0.23475972
982.411	0.23431195
982.573	0.23419561
982.736	0.23449894
982.898	0.2348488
983.061	0.23392702
983.223	0.23334056
983.385	0.23288349
983.548	0.2330874
983.71	0.23300586
983.872	0.23155287
984.034	0.23077048
984.197	0.23013653
984.359	0.22977149
984.521	0.22973758
984.683	0.22956056
984.845	0.22976303
985.008	0.22944838
985.17	0.22994805
985.332	0.22982447
985.494	0.22880754
985.656	0.22814675
985.818	0.22731083
985.98	0.22591594
986.142	0.22471209
986.304	0.22354215
986.466	0.22242521
986.628	0.22203287
986.79	0.22090597
986.952	0.21962915
987.113	0.21902423
987.275	0.21869111
987.437	0.21839473
987.599	0.2181556
987.761	0.21782345
987.922	0.21753449
988.084	0.21766586
988.246	0.21698662
988.408	0.21731823
988.569	0.21700254
988.731	0.21726687
988.893	0.21732641
989.054	0.2178946
989.216	0.21756827
989.377	0.21766858
989.539	0.2168438
989.701	0.21552469
989.862	0.21439851
990.024	0.21280026
990.185	0.21149093
990.347	0.21099008
990.508	0.21019422
990.669	0.20998817
990.831	0.21050991
990.992	0.21091002
991.154	0.21078261
991.315	0.21152205
991.476	0.21064977
991.638	0.21062027
991.799	0.21022434
991.96	0.20999805
992.121	0.20934164
992.283	0.20940095
992.444	0.20789677
992.605	0.20786808
992.766	0.2071178
992.927	0.20630207
993.088	0.20573387
993.249	0.20522275
993.41	0.20480406
993.572	0.20480905
993.733	0.20477471
993.894	0.20403749
994.055	0.20294341
994.216	0.20212333
994.376	0.20081735
994.537	0.20137832
994.698	0.2005036
994.859	0.19927818
995.02	0.1991253
995.181	0.19862773
995.342	0.19841015
995.503	0.19820228
995.663	0.19698673
995.824	0.19614596
995.985	0.19695263
996.146	0.19707308
996.306	0.19778134
996.467	0.19781843
996.628	0.19837475
996.788	0.19809259
996.949	0.19934099
997.11	0.19851521
997.27	0.19751768
997.431	0.19726824
997.591	0.19601118
997.752	0.19475526
997.912	0.19512216
998.073	0.19386286
998.233	0.19427806
998.394	0.19451925
998.554	0.19481159
998.714	0.19512255
998.875	0.19484453
999.035	0.19329247
999.196	0.19306712
999.356	0.19135216
999.516	0.19107795
999.676	0.19060528
999.837	0.19046898
999.997	0.18980592
1000.157	0.18954144
1000.317	0.18846916
1000.477	0.18837207
1000.638	0.18758309
1000.798	0.18708488
1000.958	0.18644157
1001.118	0.186604
1001.278	0.18596004
1001.438	0.18586242
1001.598	0.18540287
1001.758	0.18539084
1001.918	0.1840111
1002.078	0.18251245
1002.238	0.18244794
1002.398	0.18279301
1002.558	0.18251373
1002.718	0.18185145
1002.878	0.18148028
1003.037	0.17997406
1003.197	0.18084703
1003.357	0.17967849
1003.517	0.18044363
1003.677	0.17912802
1003.836	0.1785228
1003.996	0.1769676
1004.156	0.17816655
1004.315	0.17775034
1004.475	0.17770279
1004.635	0.17623792
1004.794	0.17773692
1004.954	0.17813285
1005.114	0.17885435
1005.273	0.17840852
1005.433	0.17757307
1005.592	0.17799599
1005.752	0.1775483
1005.911	0.17620303
1006.071	0.17614056
1006.23	0.17550351
1006.389	0.17543441
1006.549	0.17541335
1006.708	0.17440336
1006.868	0.17244406
1007.027	0.17283368
1007.186	0.17309263
1007.345	0.17413886
1007.505	0.17400537
1007.664	0.17399906
1007.823	0.17408664
1007.982	0.17514321
1008.142	0.17494346
1008.301	0.1736961
1008.46	0.17184339
1008.619	0.17013739
1008.778	0.16954109
1008.937	0.16882685
1009.096	0.16839635
1009.255	0.16745574
1009.414	0.16569487
1009.573	0.16675789
1009.732	0.16827522
1009.891	0.16814929
1010.05	0.168508
1010.209	0.16782263
1010.368	0.16803627
1010.527	0.16863076
1010.686	0.16760743
1010.845	0.16607534
1011.003	0.16588345
1011.162	0.16519639
1011.321	0.16453302
1011.48	0.16426174
1011.638	0.1638885
1011.797	0.1633828
1011.956	0.16337836
1012.115	0.16367256
1012.273	0.16355988
1012.432	0.16410927
1012.59	0.16294353
1012.749	0.16295898
1012.908	0.16289824
1013.066	0.16258436
1013.225	0.16079291
1013.383	0.16186697
1013.542	0.16145392
1013.7	0.16106979
1013.859	0.16186195
1014.017	0.16196199
1014.175	0.16077116
1014.334	0.16253785
1014.492	0.1611082
1014.65	0.16140537
1014.809	0.16198009
1014.967	0.16256315
1015.125	0.16237917
1015.284	0.16466963
1015.442	0.16335559
1015.6	0.16352457
1015.758	0.16350831
1015.916	0.16236812
1016.075	0.16101335
1016.233	0.15972528
1016.391	0.15903607
1016.549	0.15968535
1016.707	0.15846465
1016.865	0.15863348
1017.023	0.15761705
1017.181	0.15730695
1017.339	0.1579031
1017.497	0.15696516
1017.655	0.15529652
1017.813	0.15596061
1017.971	0.15371379
1018.129	0.15454786
1018.286	0.15457897
1018.444	0.15288551
1018.602	0.15316065
1018.76	0.15251855
1018.918	0.15201124
1019.075	0.15304638
1019.233	0.15255379
1019.391	0.15241595
1019.549	0.15348395
1019.706	0.15296707
1019.864	0.15375967
1020.022	0.15317791
1020.179	0.15411494
1020.337	0.1535022
1020.494	0.15165577
1020.652	0.1524274
1020.809	0.1527207
1020.967	0.15241638
1021.124	0.1518309
1021.282	0.15257463
1021.439	0.15380205
1021.597	0.15635562
1021.754	0.15424211
1021.911	0.15542102
1022.069	0.15545555
1022.226	0.15567258
1022.384	0.15156615
1022.541	0.1509009
1022.698	0.14894554
1022.855	0.1508448
1023.013	0.14974797
1023.17	0.14866745
1023.327	0.15109756
1023.484	0.15428736
1023.641	0.15466574
1023.798	0.15724632
1023.956	0.15670262
1024.113	0.15493371
1024.27	0.15613418
1024.427	0.1540955
1024.584	0.15463783
1024.741	0.15396809
1024.898	0.15169302
1025.055	0.14970343
1025.212	0.14935694
1025.369	0.14504722
1025.525	0.14423056
1025.682	0.14208875
1025.839	0.14297356
1025.996	0.14268831
1026.153	0.14572357
1026.31	0.14721624
1026.466	0.15292173
1026.623	0.15464255
1026.78	0.15545793
1026.937	0.15584331
1027.093	0.15694858
1027.25	0.15638377
1027.407	0.15589113
1027.563	0.15190668
1027.72	0.15099164
1027.876	0.15136848
1028.033	0.15080317
1028.19	0.15051046
1028.346	0.14745772
1028.503	0.14682947
1028.659	0.14977848
1028.816	0.15014447
1028.972	0.15051825
1029.128	0.15049005
1029.285	0.14929391
1029.441	0.1498485
1029.598	0.14877126
1029.754	0.14922797
1029.91	0.1487301
1030.067	0.14786182
1030.223	0.14785526
1030.379	0.14852487
1030.535	0.14963717
1030.691	0.15087457
1030.848	0.15218934
1031.004	0.15011565
1031.16	0.15120693
1031.316	0.1543072
1031.472	0.15585525
1031.628	0.15369933
1031.784	0.1534304
1031.94	0.15250889
1032.096	0.15533114
1032.252	0.154577
1032.408	0.1545347
1032.564	0.15440906
1032.72	0.15933539
1032.876	0.15645125
1033.032	0.15601813
1033.188	0.15168667
1033.344	0.15330431
1033.5	0.15289538
1033.655	0.1516596
1033.811	0.1491655
1033.967	0.15528556
