Data from 1_mm_pl_40pc_Absorbance__0__16-13-33-348.txt Node

Date: Wed Mar 08 16:13:33 CET 2023
User: Ange
Spectrometer: FLMT08341
Trigger mode: 0
Integration Time (sec): 1.000000E-2
Scans to average: 400
Electric dark correction enabled: true
Nonlinearity correction enabled: false
Boxcar width: 3
XAxis mode: Wavelengths
Number of Pixels in Spectrum: 3648
>>>>>Begin Spectral Data<<<<<
345.271	-0.01671797
345.487	-0.00507311
345.704	-0.00971385
345.921	-0.00416656
346.137	-0.0100628
346.354	0.00657275
346.571	-0.0062506
346.787	-0.05063471
347.004	0.09176577
347.22	-0.02148795
347.437	0.08448623
347.653	-0.02662144
347.87	-0.01044269
348.086	0.79772535
348.303	-0.86979939
348.519	0.51068768
348.736	0.44158033
348.952	0.44605533
349.169	0.46664373
349.385	0.48651416
349.601	0.48575042
349.818	0.4746516
350.034	0.46972272
350.251	0.46791108
350.467	0.47514103
350.683	0.45695486
350.9	0.45482642
351.116	0.45051931
351.332	0.44806401
351.549	0.4643092
351.765	0.48072141
351.981	0.48852179
352.197	0.50989061
352.414	0.53587795
352.63	0.5475232
352.846	0.56405157
353.062	0.55035444
353.278	0.53505862
353.495	0.55326175
353.711	0.55678111
353.927	0.5609514
354.143	0.55720895
354.359	0.55234725
354.575	0.54748345
354.792	0.56825359
355.008	0.5475334
355.224	0.53954485
355.44	0.52960619
355.656	0.53216041
355.872	0.54177178
356.088	0.58021835
356.304	0.58342027
356.52	0.59387139
356.736	0.60278671
356.952	0.61210755
357.168	0.61253124
357.384	0.61811277
357.6	0.5941862
357.816	0.60153461
358.032	0.61168247
358.248	0.63093944
358.464	0.62968196
358.679	0.64000411
358.895	0.64174937
359.111	0.65476709
359.327	0.64224023
359.543	0.64649577
359.759	0.65140214
359.974	0.65833413
360.19	0.6610438
360.406	0.66256276
360.622	0.65859895
360.838	0.6557639
361.053	0.65964076
361.269	0.66299686
361.485	0.66581186
361.701	0.66705796
361.916	0.65714333
362.132	0.65847555
362.348	0.67024595
362.563	0.67416095
362.779	0.6632343
362.995	0.67013149
363.21	0.68208843
363.426	0.68906128
363.641	0.69307931
363.857	0.69679994
364.073	0.69046425
364.288	0.6870819
364.504	0.69818329
364.719	0.69567171
364.935	0.69558415
365.15	0.70224628
365.366	0.70521833
365.581	0.71731591
365.797	0.72659493
366.012	0.71292719
366.228	0.70639204
366.443	0.72525822
366.658	0.72296915
366.874	0.71709643
367.089	0.72856147
367.305	0.73594093
367.52	0.74397619
367.735	0.74747444
367.951	0.73615772
368.166	0.74523124
368.381	0.76319585
368.597	0.75615981
368.812	0.76149849
369.027	0.76908626
369.243	0.77792672
369.458	0.80625466
369.673	0.81357336
369.888	0.81068523
370.104	0.80635286
370.319	0.80762462
370.534	0.80528917
370.749	0.80733533
370.964	0.8047544
371.179	0.80418367
371.395	0.80278846
371.61	0.81307346
371.825	0.80841693
372.04	0.80987853
372.255	0.8028773
372.47	0.79178724
372.685	0.78054113
372.9	0.78169506
373.115	0.77410871
373.33	0.77984458
373.545	0.78363303
373.76	0.79822453
373.975	0.79952952
374.19	0.80303573
374.405	0.81089343
374.62	0.82932527
374.835	0.84505862
375.05	0.84963939
375.265	0.84778535
375.48	0.85371428
375.695	0.87766705
375.91	0.87475844
376.125	0.85995218
376.339	0.84083163
376.554	0.84151109
376.769	0.84659647
376.984	0.84701264
377.199	0.84957901
377.414	0.84887331
377.628	0.86300799
377.843	0.87632659
378.058	0.87950514
378.273	0.88648815
378.487	0.89390161
378.702	0.89005003
378.917	0.89615981
379.131	0.88982966
379.346	0.88033529
379.561	0.87884492
379.775	0.87160627
379.99	0.86420924
380.205	0.85781859
380.419	0.84949658
380.634	0.83988147
380.848	0.85403086
381.063	0.85838552
381.278	0.87395829
381.492	0.86922569
381.707	0.88384432
381.921	0.88891198
382.136	0.90977052
382.35	0.90352637
382.565	0.89951074
382.779	0.89666002
382.994	0.90540189
383.208	0.89481387
383.422	0.90891061
383.637	0.90640948
383.851	0.91659016
384.066	0.92674413
384.28	0.93390472
384.494	0.94073764
384.709	0.94946428
384.923	0.94623599
385.137	0.94076458
385.352	0.94305195
385.566	0.94662888
385.78	0.9439892
385.995	0.93737775
386.209	0.93330159
386.423	0.94147531
386.637	0.95055206
386.852	0.94366133
387.066	0.94146184
387.28	0.93335127
387.494	0.94753824
387.708	0.95333723
387.923	0.95214099
388.137	0.9585493
388.351	0.96625785
388.565	0.97541318
388.779	0.98618799
388.993	0.99978332
389.207	1.00533601
389.421	1.00886992
389.635	1.00532607
389.85	1.00357988
390.064	1.00592275
390.278	1.00991779
390.492	1.00701119
390.706	1.00799418
390.92	1.00753735
391.134	1.01936467
391.348	1.03722057
391.561	1.03366991
391.775	1.03166363
391.989	1.02096804
392.203	1.0284284
392.417	1.03762278
392.631	1.04474372
392.845	1.0360734
393.059	1.04645374
393.273	1.04583245
393.486	1.04437482
393.7	1.03613965
393.914	1.04257229
394.128	1.03670267
394.342	1.03460625
394.555	1.02346387
394.769	1.02742211
394.983	1.03745209
395.197	1.04668052
395.41	1.04436274
395.624	1.05133528
395.838	1.05468817
396.051	1.07653649
396.265	1.07360415
396.479	1.07653932
396.692	1.07823693
396.906	1.07175204
397.12	1.06771439
397.333	1.07685806
397.547	1.06698774
397.76	1.07815787
397.974	1.08214939
398.187	1.08856774
398.401	1.10033627
398.614	1.10595216
398.828	1.10511385
399.041	1.10943474
399.255	1.10960318
399.468	1.10891979
399.682	1.10863448
399.895	1.1107342
400.109	1.10837998
400.322	1.1072144
400.536	1.09924348
400.749	1.10877326
400.962	1.11484563
401.176	1.11278453
401.389	1.11100757
401.602	1.10015926
401.816	1.10438941
402.029	1.11743596
402.242	1.11073885
402.456	1.10629674
402.669	1.10089674
402.882	1.09120952
403.095	1.1100843
403.309	1.11259345
403.522	1.11490106
403.735	1.11520338
403.948	1.11783689
404.161	1.14103526
404.375	1.15157973
404.588	1.15203878
404.801	1.15429668
405.014	1.14945372
405.227	1.16134878
405.44	1.16897414
405.653	1.16835712
405.866	1.16290101
406.079	1.16105596
406.293	1.15909859
406.506	1.16034608
406.719	1.15459831
406.932	1.15220649
407.145	1.14186605
407.358	1.15989119
407.571	1.15334624
407.784	1.15894833
407.996	1.16434356
408.209	1.15875566
408.422	1.15548932
408.635	1.15909515
408.848	1.15424761
409.061	1.15042982
409.274	1.14595427
409.487	1.14136358
409.7	1.14711904
409.912	1.15237663
410.125	1.15376165
410.338	1.15543116
410.551	1.16021937
410.764	1.16260832
410.976	1.16462367
411.189	1.16428912
411.402	1.15753396
411.615	1.15972122
411.827	1.15797592
412.04	1.15871177
412.253	1.15748899
412.465	1.15633661
412.678	1.1543968
412.891	1.16197029
413.103	1.14890539
413.316	1.14565813
413.529	1.1524612
413.741	1.15847848
413.954	1.16141562
414.166	1.16314802
414.379	1.1593849
414.591	1.1708224
414.804	1.16850229
415.016	1.16516678
415.229	1.15803184
415.441	1.15308732
415.654	1.1550285
415.866	1.15784792
416.079	1.1588561
416.291	1.15917337
416.504	1.16442641
416.716	1.1675986
416.928	1.17158892
417.141	1.16692964
417.353	1.16756421
417.566	1.15823486
417.778	1.160546
417.99	1.14744545
418.203	1.14063824
418.415	1.13846201
418.627	1.14070961
418.839	1.13852425
419.052	1.14852207
419.264	1.14655917
419.476	1.15219351
419.688	1.15697188
419.901	1.15635923
420.113	1.15221598
420.325	1.14858591
420.537	1.13927654
420.749	1.14209612
420.961	1.14350198
421.174	1.14112264
421.386	1.13875361
421.598	1.1378638
421.81	1.13585099
422.022	1.13537895
422.234	1.1324976
422.446	1.12700788
422.658	1.12398362
422.87	1.12355148
423.082	1.12275495
423.294	1.12088888
423.506	1.12143153
423.718	1.11813472
423.93	1.11349438
424.142	1.10997111
424.354	1.10515395
424.566	1.10194689
424.778	1.10223
424.99	1.09786303
425.202	1.09343844
425.414	1.09471594
425.625	1.09759262
425.837	1.09344485
426.049	1.09487625
426.261	1.0901808
426.473	1.0857639
426.684	1.08531135
426.896	1.08424172
427.108	1.07739562
427.32	1.07975887
427.531	1.07331028
427.743	1.07199159
427.955	1.0764489
428.167	1.07265604
428.378	1.06829404
428.59	1.06815266
428.802	1.06456069
429.013	1.06192057
429.225	1.05801436
429.436	1.05145749
429.648	1.05052904
429.86	1.04986909
430.071	1.04726518
430.283	1.04477322
430.494	1.04177219
430.706	1.04053255
430.917	1.03724483
431.129	1.03459467
431.34	1.02993851
431.552	1.02784137
431.763	1.02363741
431.975	1.02399357
432.186	1.0179706
432.398	1.01488288
432.609	1.00671583
432.821	1.00414721
433.032	0.99972449
433.243	0.99612967
433.455	0.9915867
433.666	0.99053862
433.877	0.99015723
434.089	0.98759303
434.3	0.98208177
434.511	0.97602072
434.723	0.97256858
434.934	0.96650151
435.145	0.95933257
435.356	0.95231735
435.568	0.95019969
435.779	0.94676953
435.99	0.94188086
436.201	0.93718757
436.412	0.93380207
436.624	0.93359767
436.835	0.93251948
437.046	0.93108499
437.257	0.92820749
437.468	0.93010341
437.679	0.9293087
437.89	0.92674984
438.101	0.92441421
438.312	0.92069843
438.523	0.91625519
438.734	0.91300782
438.945	0.90797818
439.156	0.90229382
439.367	0.89951615
439.578	0.89641201
439.789	0.89093117
440	0.88733323
440.211	0.88295802
440.422	0.87923673
440.633	0.87764168
440.844	0.87221887
441.055	0.86677252
441.266	0.86448624
441.477	0.85941752
441.687	0.85638346
441.898	0.85308793
442.109	0.84735253
442.32	0.84417878
442.531	0.83866897
442.741	0.83200226
442.952	0.8284702
443.163	0.82474336
443.374	0.8193387
443.584	0.81543071
443.795	0.81182796
444.006	0.80939433
444.216	0.8065126
444.427	0.8011591
444.638	0.79653795
444.848	0.79251267
445.059	0.78828595
445.27	0.78336886
445.48	0.77812636
445.691	0.77439365
445.901	0.77171029
446.112	0.76803362
446.323	0.76332061
446.533	0.75882514
446.744	0.7543939
446.954	0.75025898
447.165	0.74605404
447.375	0.74251893
447.586	0.73907745
447.796	0.73587286
448.006	0.73252546
448.217	0.72970681
448.427	0.7259737
448.638	0.7213929
448.848	0.71589368
449.058	0.7108992
449.269	0.70678513
449.479	0.7026773
449.689	0.69828676
449.9	0.69452254
450.11	0.69105061
450.32	0.68865986
450.531	0.68441213
450.741	0.68006349
450.951	0.67638694
451.161	0.67205539
451.372	0.66823169
451.582	0.66616096
451.792	0.6614189
452.002	0.65765676
452.212	0.65366716
452.422	0.64968321
452.633	0.6456374
452.843	0.64236245
453.053	0.63617071
453.263	0.63283851
453.473	0.62897022
453.683	0.62587633
453.893	0.62144628
454.103	0.61868631
454.313	0.61454045
454.523	0.611163
454.733	0.60740762
454.943	0.60467849
455.153	0.60138716
455.363	0.59808315
455.573	0.59447202
455.783	0.59123566
455.993	0.58774894
456.203	0.58490694
456.413	0.58110547
456.623	0.57721375
456.833	0.57460854
457.042	0.57090563
457.252	0.56768996
457.462	0.56443846
457.672	0.56102121
457.882	0.55789498
458.091	0.55452267
458.301	0.55051626
458.511	0.54731189
458.721	0.54379252
458.931	0.54054936
459.14	0.53726354
459.35	0.53442341
459.56	0.53179553
459.769	0.5294755
459.979	0.52629525
460.189	0.52350135
460.398	0.52035477
460.608	0.51743878
460.817	0.51431303
461.027	0.51104803
461.237	0.50782209
461.446	0.50497809
461.656	0.50244708
461.865	0.49958122
462.075	0.49679209
462.284	0.49413244
462.494	0.49150015
462.703	0.4885155
462.913	0.48614098
463.122	0.48321887
463.332	0.48071967
463.541	0.47842194
463.751	0.47564911
463.96	0.47310972
464.169	0.47077157
464.379	0.46848962
464.588	0.46610294
464.797	0.4636182
465.007	0.46109193
465.216	0.45888889
465.425	0.45680074
465.635	0.45461583
465.844	0.4522455
466.053	0.44995949
466.263	0.44791552
466.472	0.44567854
466.681	0.44364536
466.89	0.44124787
467.099	0.43908865
467.309	0.43700593
467.518	0.43529113
467.727	0.43311848
467.936	0.43097105
468.145	0.42892888
468.354	0.42714611
468.563	0.42509059
468.772	0.42287705
468.982	0.42082276
469.191	0.41922777
469.4	0.41739152
469.609	0.41542761
469.818	0.41381644
470.027	0.41201148
470.236	0.41014546
470.445	0.40830655
470.654	0.40636266
470.863	0.40443918
471.072	0.40280107
471.28	0.40079526
471.489	0.39934632
471.698	0.39790953
471.907	0.39634256
472.116	0.39494668
472.325	0.39353935
472.534	0.39223622
472.743	0.39071752
472.951	0.38954512
473.16	0.38842644
473.369	0.38701614
473.578	0.38579216
473.786	0.3848105
473.995	0.38337972
474.204	0.38243233
474.413	0.38089512
474.621	0.37947585
474.83	0.3786216
475.039	0.37745436
475.247	0.37617785
475.456	0.37527697
475.665	0.37425046
475.873	0.37331962
476.082	0.37222787
476.291	0.37111896
476.499	0.37019712
476.708	0.36912154
476.916	0.36815833
477.125	0.36718705
477.333	0.36636696
477.542	0.36571589
477.75	0.36497818
477.959	0.36434377
478.167	0.36375988
478.376	0.36297257
478.584	0.36232711
478.793	0.36161371
479.001	0.36083635
479.209	0.36003928
479.418	0.35924806
479.626	0.35857488
479.834	0.35810764
480.043	0.35757093
480.251	0.35691041
480.459	0.35641966
480.668	0.35593476
480.876	0.3554362
481.084	0.35508462
481.293	0.35448779
481.501	0.35394482
481.709	0.35378085
481.917	0.35345674
482.125	0.3531707
482.334	0.35285606
482.542	0.35250535
482.75	0.35226002
482.958	0.35210434
483.166	0.35175205
483.374	0.3514852
483.583	0.35128634
483.791	0.35122456
483.999	0.35095111
484.207	0.35079272
484.415	0.35058502
484.623	0.35045155
484.831	0.3503098
485.039	0.35033302
485.247	0.35023795
485.455	0.350335
485.663	0.35038425
485.871	0.35044834
486.079	0.35038899
486.287	0.35047704
486.495	0.35040465
486.702	0.35031073
486.91	0.35030144
487.118	0.3504104
487.326	0.35046538
487.534	0.35067831
487.742	0.3508006
487.95	0.35097268
488.157	0.35129639
488.365	0.35161164
488.573	0.35184054
488.781	0.35211829
488.988	0.35261253
489.196	0.35302078
489.404	0.35332343
489.612	0.35361773
489.819	0.35398902
490.027	0.35432399
490.235	0.35467898
490.442	0.35498984
490.65	0.35528761
490.857	0.35584521
491.065	0.35637879
491.273	0.35685715
491.48	0.35744376
491.688	0.35793535
491.895	0.35838338
492.103	0.35890722
492.31	0.35934668
492.518	0.35988004
492.725	0.360574
492.933	0.36117778
493.14	0.36185914
493.348	0.36246966
493.555	0.36317244
493.763	0.36392119
493.97	0.36462537
494.177	0.36519589
494.385	0.36581814
494.592	0.36657886
494.8	0.36730633
495.007	0.36819488
495.214	0.36896344
495.422	0.36980306
495.629	0.37061173
495.836	0.37142713
496.043	0.37233002
496.251	0.37327813
496.458	0.37401049
496.665	0.37488151
496.872	0.37569982
497.08	0.37656599
497.287	0.37738754
497.494	0.37818067
497.701	0.37904574
497.908	0.38009397
498.115	0.38097881
498.322	0.38187104
498.53	0.38289269
498.737	0.38393037
498.944	0.38491526
499.151	0.38587601
499.358	0.38683465
499.565	0.38786382
499.772	0.38895782
499.979	0.38996197
500.186	0.39110262
500.393	0.39212718
500.6	0.39328994
500.807	0.394342
501.014	0.39546353
501.221	0.39657779
501.427	0.39767069
501.634	0.39873988
501.841	0.39998151
502.048	0.40109209
502.255	0.40219381
502.462	0.40351087
502.669	0.40485332
502.875	0.40615407
503.082	0.40749946
503.289	0.40876455
503.496	0.41005742
503.702	0.41135363
503.909	0.41252729
504.116	0.41375969
504.323	0.41500001
504.529	0.41622025
504.736	0.41752691
504.943	0.41868887
505.149	0.42017398
505.356	0.42164684
505.563	0.42297797
505.769	0.42439732
505.976	0.42572525
506.182	0.42716006
506.389	0.42879286
506.595	0.43019304
506.802	0.43151047
507.008	0.43288271
507.215	0.43436527
507.421	0.43590141
507.628	0.43730728
507.834	0.43869571
508.041	0.44016525
508.247	0.44169402
508.454	0.44333098
508.66	0.4446469
508.866	0.44622594
509.073	0.4478454
509.279	0.44947752
509.486	0.45102242
509.692	0.45261893
509.898	0.45420939
510.105	0.45595128
510.311	0.4573938
510.517	0.45889632
510.723	0.46046498
510.93	0.4619044
511.136	0.46346649
511.342	0.464966
511.548	0.46650538
511.754	0.46829818
511.961	0.47003542
512.167	0.47168175
512.373	0.47339472
512.579	0.47506153
512.785	0.47675743
512.991	0.47851143
513.197	0.48011455
513.404	0.48177618
513.61	0.48345875
513.816	0.48501672
514.022	0.48652521
514.228	0.48815018
514.434	0.48975124
514.64	0.49139428
514.846	0.49319222
515.052	0.49491274
515.258	0.4967515
515.464	0.49860087
515.669	0.50041864
515.875	0.50222956
516.081	0.50407224
516.287	0.50578115
516.493	0.50759142
516.699	0.50933708
516.905	0.51113632
517.111	0.51279534
517.316	0.514642
517.522	0.51649676
517.728	0.51837771
517.934	0.52017287
518.139	0.52204621
518.345	0.52378591
518.551	0.52580451
518.757	0.5275985
518.962	0.52937283
519.168	0.5311878
519.374	0.532904
519.579	0.53483337
519.785	0.5369506
519.991	0.53880954
520.196	0.54071947
520.402	0.5425766
520.607	0.54447323
520.813	0.54659846
521.018	0.54840668
521.224	0.54999443
521.429	0.55186801
521.635	0.55372383
521.84	0.55550615
522.046	0.55744049
522.251	0.55923935
522.457	0.5611701
522.662	0.56328912
522.868	0.56526555
523.073	0.56714767
523.279	0.56911765
523.484	0.5708217
523.689	0.57275424
523.895	0.57479355
524.1	0.57665317
524.305	0.57856692
524.511	0.58063237
524.716	0.5826023
524.921	0.58465455
525.126	0.58669694
525.332	0.58864094
525.537	0.59064184
525.742	0.59276734
525.947	0.59471104
526.153	0.59670306
526.358	0.59877701
526.563	0.60059067
526.768	0.60251091
526.973	0.60449252
527.178	0.60635432
527.383	0.60833829
527.588	0.61040829
527.794	0.61229576
527.999	0.61434152
528.204	0.61623374
528.409	0.61809663
528.614	0.62015651
528.819	0.62215249
529.024	0.62410372
529.229	0.62607112
529.434	0.62819799
529.639	0.63031664
529.843	0.63247605
530.048	0.63444118
530.253	0.63646671
530.458	0.63847297
530.663	0.64056724
530.868	0.64262255
531.073	0.64451788
531.278	0.64643718
531.482	0.64828194
531.687	0.65024203
531.892	0.65225652
532.097	0.65400512
532.302	0.65597126
532.506	0.65805932
532.711	0.66005302
532.916	0.66211901
533.12	0.66420941
533.325	0.66624603
533.53	0.66866358
533.734	0.67062303
533.939	0.67263982
534.144	0.67474086
534.348	0.67686661
534.553	0.67881941
534.757	0.6806795
534.962	0.68254197
535.167	0.68476755
535.371	0.6867531
535.576	0.68892872
535.78	0.69098471
535.985	0.6930498
536.189	0.69516314
536.394	0.69708609
536.598	0.69887981
536.803	0.7009133
537.007	0.70281106
537.211	0.7049137
537.416	0.7069239
537.62	0.70895312
537.825	0.71104883
538.029	0.71337572
538.233	0.71539703
538.438	0.71752476
538.642	0.71929182
538.846	0.72144316
539.05	0.72341938
539.255	0.72537989
539.459	0.72717766
539.663	0.72924841
539.867	0.73131207
540.072	0.73350746
540.276	0.73541725
540.48	0.73752883
540.684	0.73957623
540.888	0.7418586
541.092	0.74388391
541.297	0.74580061
541.501	0.74783544
541.705	0.74991336
541.909	0.7518222
542.113	0.75375685
542.317	0.75572296
542.521	0.75774456
542.725	0.75989853
542.929	0.76189411
543.133	0.7639347
543.337	0.76608287
543.541	0.76821182
543.745	0.77000369
543.949	0.77202122
544.153	0.77380882
544.357	0.77565367
544.56	0.77758552
544.764	0.77960613
544.968	0.78151356
545.172	0.78336959
545.376	0.78544451
545.58	0.787493
545.783	0.78979186
545.987	0.79162924
546.191	0.7935518
546.395	0.79556764
546.598	0.79777663
546.802	0.79966592
547.006	0.80171587
547.21	0.80311735
547.413	0.80517683
547.617	0.80712456
547.821	0.80907319
548.024	0.81103361
548.228	0.81287946
548.431	0.81478631
548.635	0.81697046
548.839	0.81898055
549.042	0.82106485
549.246	0.82290749
549.449	0.82480236
549.653	0.82690682
549.856	0.8286936
550.06	0.83063902
550.263	0.83247756
550.467	0.83417496
550.67	0.83617325
550.874	0.83778807
551.077	0.8396077
551.28	0.84157448
551.484	0.84348501
551.687	0.84535903
551.891	0.84731721
552.094	0.84899512
552.297	0.85110811
552.501	0.85323248
552.704	0.85509836
552.907	0.85692031
553.11	0.85858283
553.314	0.8603851
553.517	0.86199145
553.72	0.8637464
553.923	0.86516282
554.127	0.86698792
554.33	0.86843635
554.533	0.8704139
554.736	0.87212531
554.939	0.87416742
555.142	0.87609876
555.345	0.87811396
555.549	0.88016906
555.752	0.882188
555.955	0.88407461
556.158	0.88611968
556.361	0.88796006
556.564	0.88954642
556.767	0.8912438
556.97	0.89293536
557.173	0.89482232
557.376	0.89674013
557.579	0.89833491
557.782	0.90014095
557.984	0.90217441
558.187	0.90403024
558.39	0.90577668
558.593	0.90767254
558.796	0.90906945
558.999	0.91063574
559.202	0.91224116
559.404	0.91357209
559.607	0.91523613
559.81	0.91658842
560.013	0.91801105
560.216	0.91973035
560.418	0.92168133
560.621	0.92346015
560.824	0.92547379
561.026	0.92703213
561.229	0.92874044
561.432	0.93041852
561.634	0.93211193
561.837	0.93342815
562.04	0.93508836
562.242	0.93658538
562.445	0.9383322
562.647	0.94015627
562.85	0.94170008
563.053	0.94309823
563.255	0.94495479
563.458	0.94654488
563.66	0.94823281
563.863	0.95005385
564.065	0.95180608
564.268	0.95343515
564.47	0.95520785
564.672	0.95656322
564.875	0.95830995
565.077	0.95987853
565.28	0.96111958
565.482	0.96252211
565.684	0.9640664
565.887	0.96579909
566.089	0.96772773
566.291	0.9690644
566.494	0.97058261
566.696	0.97202837
566.898	0.9736616
567.1	0.97535149
567.303	0.976652
567.505	0.97795938
567.707	0.97910443
567.909	0.98036975
568.111	0.98184263
568.314	0.98320466
568.516	0.98455556
568.718	0.98596026
568.92	0.987188
569.122	0.98891655
569.324	0.99044004
569.526	0.99166099
569.728	0.99312332
569.93	0.99428923
570.132	0.99544596
570.334	0.99678276
570.536	0.99797988
570.738	0.99917813
570.94	1.00050054
571.142	1.00193854
571.344	1.0031304
571.546	1.00452519
571.748	1.00612749
571.95	1.0073868
572.152	1.00861546
572.354	1.00992983
572.555	1.01117499
572.757	1.01299766
572.959	1.01437913
573.161	1.0151546
573.363	1.01661833
573.564	1.01827988
573.766	1.01965795
573.968	1.0208571
574.17	1.02142241
574.371	1.02275429
574.573	1.024215
574.775	1.02503586
574.976	1.02591762
575.178	1.02676679
575.38	1.02758965
575.581	1.02878046
575.783	1.02979533
575.985	1.03081507
576.186	1.03233443
576.388	1.03350033
576.589	1.03464369
576.791	1.03583888
576.992	1.03717404
577.194	1.03839209
577.395	1.03932709
577.597	1.04021422
577.798	1.04114351
578	1.04222196
578.201	1.04318572
578.402	1.04418367
578.604	1.04488198
578.805	1.04620429
579.007	1.04712421
579.208	1.04820026
579.409	1.04949004
579.611	1.05033604
579.812	1.05137712
580.013	1.0521637
580.215	1.05252565
580.416	1.05339207
580.617	1.05406638
580.818	1.05483822
581.019	1.0557205
581.221	1.05652088
581.422	1.05754139
581.623	1.05892151
581.824	1.05952348
582.025	1.06048803
582.226	1.06132683
582.428	1.0623062
582.629	1.06321408
582.83	1.06379287
583.031	1.06441829
583.232	1.06582847
583.433	1.06691251
583.634	1.06753809
583.835	1.06826678
584.036	1.06894766
584.237	1.06976589
584.438	1.07049668
584.639	1.07068506
584.84	1.07109073
585.041	1.0715894
585.242	1.07219588
585.442	1.07274709
585.643	1.07385394
585.844	1.07449033
586.045	1.07543402
586.246	1.07581888
586.447	1.07641674
586.647	1.07691257
586.848	1.07736317
587.049	1.07764168
587.25	1.07806492
587.45	1.07834451
587.651	1.07915111
587.852	1.07985959
588.053	1.08066832
588.253	1.08112637
588.454	1.08181233
588.655	1.08220629
588.855	1.08251497
589.056	1.08286148
589.256	1.08318502
589.457	1.0833942
589.658	1.08397088
589.858	1.0839722
590.059	1.08447975
590.259	1.08502978
590.46	1.08514365
590.66	1.08540637
590.861	1.08556254
591.061	1.08582289
591.262	1.08644517
591.462	1.08684161
591.662	1.08722203
591.863	1.08761661
592.063	1.08812853
592.264	1.08852744
592.464	1.08884315
592.664	1.08920449
592.865	1.08936197
593.065	1.08930334
593.265	1.08991715
593.465	1.09000192
593.666	1.09014475
593.866	1.09033861
594.066	1.09022031
594.266	1.09047729
594.467	1.09025894
594.667	1.09016784
594.867	1.09014231
595.067	1.09027126
595.267	1.09021903
595.467	1.09022322
595.668	1.09020883
595.868	1.09077281
596.068	1.09092552
596.268	1.09116213
596.468	1.09119404
596.668	1.09161011
596.868	1.09163227
597.068	1.09177505
597.268	1.09179727
597.468	1.09164746
597.668	1.09167444
597.868	1.09164507
598.068	1.09135621
598.268	1.09151072
598.467	1.0916451
598.667	1.09172457
598.867	1.09146419
599.067	1.09143471
599.267	1.09143535
599.467	1.09120177
599.667	1.09067537
599.866	1.09038314
600.066	1.09023414
600.266	1.09004229
600.466	1.08976083
600.665	1.08946789
600.865	1.08909398
601.065	1.08942223
601.264	1.08895519
601.464	1.08864423
601.664	1.08885023
601.863	1.08884778
602.063	1.08890431
602.263	1.08859117
602.462	1.08823107
602.662	1.08825867
602.861	1.08774874
603.061	1.08732585
603.26	1.08671188
603.46	1.08609437
603.659	1.08593304
603.859	1.08555441
604.058	1.08507884
604.258	1.08486325
604.457	1.08480803
604.657	1.08445614
604.856	1.08409714
605.056	1.0839978
605.255	1.08360022
605.454	1.08308473
605.654	1.0827837
605.853	1.08217038
606.052	1.08150844
606.252	1.08105988
606.451	1.08049905
606.65	1.08027798
606.849	1.07964452
607.049	1.0790478
607.248	1.07821235
607.447	1.07787642
607.646	1.07748349
607.845	1.07682969
608.045	1.07588181
608.244	1.07564083
608.443	1.07497301
608.642	1.07454205
608.841	1.07389893
609.04	1.07315893
609.239	1.07272174
609.438	1.07214855
609.637	1.0714035
609.836	1.07098373
610.035	1.07037804
610.234	1.06990089
610.433	1.06940749
610.632	1.06870508
610.831	1.06816816
611.03	1.06747693
611.229	1.0669033
611.428	1.06636327
611.627	1.0656643
611.826	1.06478325
612.025	1.06413822
612.224	1.06327368
612.422	1.06237613
612.621	1.06124215
612.82	1.06019301
613.019	1.05915042
613.218	1.05833972
613.416	1.05729555
613.615	1.05642484
613.814	1.05541709
614.012	1.05460521
614.211	1.05374817
614.41	1.05293591
614.608	1.05212101
614.807	1.05118815
615.006	1.05034799
615.204	1.04945255
615.403	1.04891303
615.602	1.04813796
615.8	1.04727833
615.999	1.04605796
616.197	1.0451274
616.396	1.04410688
616.594	1.04317897
616.793	1.04204794
616.991	1.04073479
617.19	1.03963
617.388	1.03899935
617.586	1.03797307
617.785	1.03698945
617.983	1.03623191
618.182	1.03501915
618.38	1.03397137
618.578	1.0329036
618.777	1.03192472
618.975	1.03109605
619.173	1.03002492
619.372	1.02901143
619.57	1.02809124
619.768	1.02733246
619.966	1.02617352
620.165	1.02449485
620.363	1.02322162
620.561	1.02199523
620.759	1.02059469
620.957	1.01945492
621.155	1.01813527
621.354	1.0171967
621.552	1.0166965
621.75	1.01547939
621.948	1.01458875
622.146	1.01355009
622.344	1.01218667
622.542	1.011116
622.74	1.00954604
622.938	1.0082021
623.136	1.00715972
623.334	1.00600015
623.532	1.0046981
623.73	1.00370175
623.928	1.00266433
624.126	1.00181745
624.324	1.00066887
624.522	0.99935193
624.719	0.99781508
624.917	0.99665178
625.115	0.99503356
625.313	0.9937082
625.511	0.99239215
625.708	0.99066082
625.906	0.98919328
626.104	0.98790199
626.302	0.98650229
626.499	0.98529973
626.697	0.98387236
626.895	0.98245349
627.093	0.98143209
627.29	0.98016416
627.488	0.978718
627.686	0.97756484
627.883	0.976259
628.081	0.9746302
628.278	0.97327069
628.476	0.97176114
628.673	0.9704269
628.871	0.96910453
629.068	0.96757774
629.266	0.96619273
629.463	0.96495623
629.661	0.96352738
629.858	0.9621078
630.056	0.96061329
630.253	0.9593549
630.451	0.95783416
630.648	0.95618416
630.845	0.9545157
631.043	0.9528942
631.24	0.95143264
631.438	0.94965724
631.635	0.94784128
631.832	0.9460468
632.029	0.94470708
632.227	0.94318317
632.424	0.94169743
632.621	0.94001477
632.818	0.93858769
633.016	0.93705324
633.213	0.93553921
633.41	0.93364585
633.607	0.93213861
633.804	0.93045979
634.001	0.92876509
634.199	0.92709277
634.396	0.92551817
634.593	0.92387548
634.79	0.92259223
634.987	0.92088223
635.184	0.91927973
635.381	0.91779799
635.578	0.9163613
635.775	0.91488756
635.972	0.91348611
636.169	0.91189981
636.366	0.91053209
636.563	0.90898927
636.76	0.90719382
636.957	0.90547416
637.153	0.90339448
637.35	0.90170587
637.547	0.89967919
637.744	0.89759976
637.941	0.89589637
638.138	0.89404411
638.334	0.89229078
638.531	0.89089038
638.728	0.88917261
638.925	0.88775187
639.121	0.88642157
639.318	0.88474041
639.515	0.88329623
639.711	0.88188102
639.908	0.87995297
640.105	0.87820809
640.301	0.87648961
640.498	0.87454782
640.695	0.8729749
640.891	0.87125331
641.088	0.8692822
641.284	0.86769278
641.481	0.86611376
641.677	0.86430253
641.874	0.86249617
642.07	0.86069716
642.267	0.85921161
642.463	0.85745396
642.66	0.85586612
642.856	0.85390512
643.053	0.85200391
643.249	0.85033435
643.445	0.84847766
643.642	0.84643197
643.838	0.8447688
644.034	0.84277548
644.231	0.84105442
644.427	0.83945779
644.623	0.83770397
644.82	0.83602038
645.016	0.8342815
645.212	0.8323849
645.408	0.83063869
645.604	0.82903878
645.801	0.82722039
645.997	0.8253009
646.193	0.82340549
646.389	0.82161622
646.585	0.81987344
646.781	0.81808393
646.977	0.81627905
647.173	0.81441204
647.37	0.81260743
647.566	0.81065931
647.762	0.80879339
647.958	0.80711935
648.154	0.80524783
648.35	0.80334517
648.546	0.80134831
648.742	0.79955184
648.937	0.79784946
649.133	0.79620867
649.329	0.7942673
649.525	0.79255158
649.721	0.79073341
649.917	0.78912002
650.113	0.78729294
650.309	0.78569415
650.504	0.78375038
650.7	0.78194204
650.896	0.78007556
651.092	0.77817413
651.287	0.77632668
651.483	0.77448729
651.679	0.77239748
651.875	0.77055675
652.07	0.76878491
652.266	0.76692126
652.462	0.76519252
652.657	0.76330515
652.853	0.76144701
653.048	0.75976898
653.244	0.75779639
653.44	0.75580341
653.635	0.75376218
653.831	0.75177428
654.026	0.75001473
654.222	0.74808417
654.417	0.74621929
654.613	0.7443281
654.808	0.74232536
655.004	0.74067585
655.199	0.73885349
655.394	0.73705927
655.59	0.73537533
655.785	0.73330529
655.98	0.73142262
656.176	0.72953537
656.371	0.72778318
656.566	0.72607463
656.762	0.72407979
656.957	0.722143
657.152	0.72047583
657.348	0.71876532
657.543	0.71711847
657.738	0.71520501
657.933	0.71330655
658.128	0.71138002
658.324	0.70942806
658.519	0.70753863
658.714	0.70564475
658.909	0.70365612
659.104	0.70179124
659.299	0.69976224
659.494	0.6978991
659.689	0.69614976
659.884	0.69409044
660.079	0.69218375
660.274	0.69031596
660.469	0.68841315
660.664	0.68682118
660.859	0.68509056
661.054	0.68323785
661.249	0.68149899
661.444	0.67963353
661.639	0.67773044
661.834	0.67584084
662.029	0.6738665
662.224	0.67192277
662.418	0.66998759
662.613	0.66822089
662.808	0.66641568
663.003	0.66470636
663.198	0.66291002
663.392	0.66096145
663.587	0.65932663
663.782	0.65746575
663.977	0.65548857
664.171	0.65365186
664.366	0.65171014
664.561	0.64974233
664.755	0.64786327
664.95	0.64586985
665.144	0.64403798
665.339	0.64237841
665.534	0.64059855
665.728	0.63891814
665.923	0.63716139
666.117	0.63540512
666.312	0.63356596
666.506	0.63176616
666.701	0.629737
666.895	0.62781253
667.09	0.62581323
667.284	0.62402206
667.479	0.62205053
667.673	0.62015631
667.867	0.61828968
668.062	0.61653044
668.256	0.61481443
668.45	0.6131702
668.645	0.61129717
668.839	0.60953793
669.033	0.60776225
669.228	0.60593701
669.422	0.60416683
669.616	0.60230014
669.81	0.60055211
670.004	0.59884185
670.199	0.59723315
670.393	0.59550649
670.587	0.59376316
670.781	0.59210206
670.975	0.59027096
671.169	0.58829383
671.363	0.58644203
671.558	0.5844763
671.752	0.58260563
671.946	0.58088247
672.14	0.57901374
672.334	0.57720129
672.528	0.57551508
672.722	0.57360855
672.916	0.57186074
673.11	0.57004645
673.304	0.56840289
673.497	0.56661013
673.691	0.56506793
673.885	0.56332884
674.079	0.56177205
674.273	0.56005762
674.467	0.55847694
674.661	0.55667227
674.854	0.55486126
675.048	0.55293973
675.242	0.5511636
675.436	0.5493415
675.629	0.54756618
675.823	0.54575654
676.017	0.54406197
676.211	0.542269
676.404	0.54053939
676.598	0.53883281
676.792	0.53711181
676.985	0.5353582
677.179	0.53351728
677.372	0.53170566
677.566	0.53013995
677.76	0.52854097
677.953	0.5267561
678.147	0.52514402
678.34	0.52353203
678.534	0.52188964
678.727	0.52019283
678.921	0.5184627
679.114	0.51660885
679.307	0.51498662
679.501	0.51319774
679.694	0.51148337
679.888	0.50977994
680.081	0.50823609
680.274	0.50643506
680.468	0.50482606
680.661	0.50307868
680.854	0.50154329
681.048	0.49996854
681.241	0.49835968
681.434	0.49669191
681.627	0.49512267
681.821	0.49347331
682.014	0.49192184
682.207	0.49011814
682.4	0.48853838
682.593	0.4869697
682.786	0.48547253
682.98	0.48403021
683.173	0.48267957
683.366	0.48126108
683.559	0.47992097
683.752	0.4784523
683.945	0.47697869
684.138	0.4754036
684.331	0.47376295
684.524	0.47226603
684.717	0.47066996
684.91	0.46915307
685.103	0.46748736
685.296	0.46580352
685.489	0.46416492
685.682	0.46256545
685.874	0.46095878
686.067	0.45930571
686.26	0.45758169
686.453	0.45604131
686.646	0.45451505
686.839	0.4530312
687.031	0.45151007
687.224	0.44980488
687.417	0.44839827
687.61	0.44693135
687.802	0.44544415
687.995	0.44401024
688.188	0.44259013
688.38	0.44115751
688.573	0.43981943
688.766	0.43830517
688.958	0.43681924
689.151	0.43520957
689.343	0.43366817
689.536	0.4321057
689.729	0.43062271
689.921	0.42905718
690.114	0.42746458
690.306	0.42600827
690.499	0.4246673
690.691	0.42330494
690.884	0.42189293
691.076	0.4204545
691.268	0.41894954
691.461	0.41752655
691.653	0.41622207
691.846	0.41483313
692.038	0.41340709
692.23	0.41190554
692.423	0.41058595
692.615	0.40935444
692.807	0.40815061
692.999	0.40677632
693.192	0.40542091
693.384	0.40416477
693.576	0.40285315
693.768	0.40141807
693.961	0.39997572
694.153	0.39863456
694.345	0.39720876
694.537	0.39580658
694.729	0.39439016
694.921	0.39296841
695.113	0.3917412
695.305	0.39047388
695.498	0.38905535
695.69	0.38785955
695.882	0.38654887
696.074	0.3853365
696.266	0.38407061
696.458	0.38265076
696.65	0.38132596
696.842	0.38004352
697.033	0.37864135
697.225	0.37727453
697.417	0.37593486
697.609	0.37460457
697.801	0.3732993
697.993	0.37196765
698.185	0.37063562
698.376	0.3693603
698.568	0.36814808
698.76	0.36700299
698.952	0.36593088
699.144	0.36486746
699.335	0.36381522
699.527	0.36271215
699.719	0.36156948
699.91	0.36041956
700.102	0.35911824
700.294	0.35784104
700.485	0.35652805
700.677	0.35521681
700.869	0.35400997
701.06	0.35276515
701.252	0.35158154
701.443	0.35040692
701.635	0.34919521
701.826	0.34800947
702.018	0.34689502
702.209	0.34580401
702.401	0.34471675
702.592	0.34364125
702.784	0.34251587
702.975	0.34144285
703.166	0.34040909
703.358	0.33917962
703.549	0.33798103
703.741	0.33681465
703.932	0.33556402
704.123	0.33434312
704.315	0.33317451
704.506	0.33208445
704.697	0.33104018
704.888	0.33001154
705.08	0.3289822
705.271	0.3279485
705.462	0.32689272
705.653	0.32587592
705.844	0.32474731
706.035	0.32370135
706.227	0.32266015
706.418	0.32163583
706.609	0.3207515
706.8	0.31988679
706.991	0.31888024
707.182	0.31799901
707.373	0.31697028
707.564	0.31602331
707.755	0.31505258
707.946	0.31402533
708.137	0.31304705
708.328	0.31217817
708.519	0.31121898
708.71	0.31033793
708.901	0.3093455
709.092	0.30844225
709.283	0.30748429
709.473	0.3065122
709.664	0.30558487
709.855	0.30455056
710.046	0.30367864
710.237	0.30276521
710.427	0.30166818
710.618	0.30071623
710.809	0.29973354
711	0.29875785
711.19	0.29785277
711.381	0.29693604
711.572	0.29611779
711.762	0.29552771
711.953	0.29477097
712.144	0.29393489
712.334	0.29307702
712.525	0.29241377
712.715	0.29159318
712.906	0.29072342
713.097	0.28969117
713.287	0.28873795
713.478	0.28787989
713.668	0.28698604
713.859	0.28597248
714.049	0.28512337
714.239	0.28438271
714.43	0.28365949
714.62	0.28297289
714.811	0.28222713
715.001	0.28156013
715.191	0.28086079
715.382	0.28000294
715.572	0.27915202
715.762	0.27830263
715.953	0.27746317
716.143	0.27662801
716.333	0.27575109
716.523	0.27488873
716.714	0.27412676
716.904	0.27327068
717.094	0.2725623
717.284	0.27182973
717.474	0.27112759
717.664	0.27054192
717.855	0.26990531
718.045	0.26923222
718.235	0.26851128
718.425	0.26771163
718.615	0.26693318
718.805	0.2661628
718.995	0.26539063
719.185	0.26468975
719.375	0.26399972
719.565	0.26336486
719.755	0.2626936
719.945	0.26212865
720.135	0.26156429
720.325	0.26099381
720.515	0.2603778
720.704	0.25969641
720.894	0.25906513
721.084	0.25839913
721.274	0.2576886
721.464	0.25705485
721.654	0.25643116
721.843	0.25585799
722.033	0.25539702
722.223	0.25481413
722.413	0.25434256
722.602	0.25381957
722.792	0.25325735
722.982	0.2527564
723.171	0.25221431
723.361	0.2516462
723.55	0.25119297
723.74	0.25070875
723.93	0.25020149
724.119	0.24973672
724.309	0.24905346
724.498	0.24842411
724.688	0.24776574
724.877	0.24709023
725.067	0.24637879
725.256	0.24568851
725.446	0.24495365
725.635	0.24429049
725.825	0.24360627
726.014	0.24300236
726.203	0.24245654
726.393	0.24186229
726.582	0.24126375
726.771	0.24073221
726.961	0.2401847
727.15	0.23969597
727.339	0.23919879
727.529	0.23868989
727.718	0.23820297
727.907	0.23775517
728.096	0.23723226
728.286	0.23681735
728.475	0.23646552
728.664	0.23607317
728.853	0.23569517
729.042	0.23530273
729.231	0.23488297
729.42	0.23442779
729.609	0.23394754
729.799	0.23332926
729.988	0.23276508
730.177	0.23205881
730.366	0.23137318
730.555	0.23068372
730.744	0.23016399
730.933	0.22963161
731.122	0.22913214
731.31	0.22864572
731.499	0.22831069
731.688	0.228035
731.877	0.22781299
732.066	0.22747744
732.255	0.22711375
732.444	0.22679327
732.632	0.22643903
732.821	0.22605038
733.01	0.22567533
733.199	0.22535092
733.388	0.22506925
733.576	0.2248775
733.765	0.22461466
733.954	0.22437516
734.142	0.22403929
734.331	0.22369797
734.52	0.22325082
734.708	0.22282017
734.897	0.22233894
735.086	0.2218476
735.274	0.22130383
735.463	0.22089928
735.651	0.22049372
735.84	0.22012595
736.028	0.21973124
736.217	0.21939979
736.405	0.21913358
736.594	0.21891195
736.782	0.21858126
736.971	0.21823648
737.159	0.21784161
737.347	0.2174159
737.536	0.2169403
737.724	0.21646868
737.912	0.21588222
738.101	0.21537632
738.289	0.21486402
738.477	0.21445694
738.666	0.21403104
738.854	0.21370433
739.042	0.21340636
739.23	0.21325578
739.418	0.2131602
739.607	0.21312086
739.795	0.21306292
739.983	0.21305629
740.171	0.21297681
740.359	0.21285723
740.547	0.21269494
740.735	0.21242655
740.923	0.2121379
741.112	0.21187077
741.3	0.21150999
741.488	0.21110408
741.676	0.21072738
741.864	0.21040879
742.052	0.21016126
742.239	0.20987304
742.427	0.20955655
742.615	0.2092626
742.803	0.20900647
742.991	0.20879441
743.179	0.20861548
743.367	0.20843521
743.555	0.20841334
743.742	0.20842269
743.93	0.20849143
744.118	0.20843288
744.306	0.20824862
744.494	0.20797968
744.681	0.20770388
744.869	0.20731742
745.057	0.20691901
745.244	0.20653362
745.432	0.20625272
745.62	0.2060639
745.807	0.20595963
745.995	0.20587607
746.182	0.20572928
746.37	0.20560238
746.558	0.20550361
746.745	0.20540735
746.933	0.20529217
747.12	0.20518037
747.308	0.20500206
747.495	0.20485984
747.683	0.20462868
747.87	0.2043819
748.057	0.20421634
748.245	0.20399296
748.432	0.20371313
748.62	0.20349763
748.807	0.2033622
748.994	0.20327558
749.182	0.20315236
749.369	0.2030166
749.556	0.20288669
749.743	0.20275074
749.931	0.20262867
750.118	0.2025842
750.305	0.20248563
750.492	0.20240967
750.68	0.20240623
750.867	0.20242801
751.054	0.20250381
751.241	0.20253313
751.428	0.2024345
751.615	0.20245193
751.802	0.20254058
751.989	0.20247557
752.176	0.20251183
752.363	0.20244293
752.55	0.20238897
752.737	0.2023338
752.924	0.20213907
753.111	0.20186497
753.298	0.2015977
753.485	0.20125185
753.672	0.20094285
753.859	0.20064299
754.046	0.20038747
754.233	0.20023318
754.42	0.20010111
754.606	0.1999761
754.793	0.19995661
754.98	0.19999011
755.167	0.19999044
755.353	0.20002589
755.54	0.2000205
755.727	0.19993213
755.914	0.19988153
756.1	0.19988881
756.287	0.19977115
756.474	0.19966643
756.66	0.19942697
756.847	0.19919589
757.033	0.19903761
757.22	0.19892791
757.407	0.19868881
757.593	0.19852975
757.78	0.19831128
757.966	0.19825837
758.153	0.19821594
758.339	0.19823193
758.526	0.19819476
758.712	0.19816006
758.898	0.19827251
759.085	0.19839527
759.271	0.19849158
759.458	0.19871126
759.644	0.19898884
759.83	0.19920889
760.017	0.19944695
760.203	0.19950983
760.389	0.19958924
760.576	0.19965912
760.762	0.19953154
760.948	0.19924289
761.134	0.19904034
761.32	0.19880834
761.507	0.19870233
761.693	0.19864103
761.879	0.19846545
762.065	0.19845326
762.251	0.19843057
762.437	0.19843113
762.623	0.19841972
762.809	0.19837723
762.995	0.19831052
763.181	0.19839591
763.367	0.19843216
763.553	0.19859286
763.739	0.19872053
763.925	0.1988249
764.111	0.19894115
764.297	0.19913439
764.483	0.19925339
764.669	0.19933182
764.855	0.19927513
765.041	0.19926459
765.227	0.19925179
765.412	0.19918002
765.598	0.19907213
765.784	0.19911075
765.97	0.19922356
766.156	0.19943538
766.341	0.19956922
766.527	0.19978371
766.713	0.20004678
766.898	0.20028697
767.084	0.20035841
767.27	0.20039674
767.455	0.20048684
767.641	0.20062506
767.827	0.20072471
768.012	0.20088802
768.198	0.2009993
768.383	0.20114865
768.569	0.20126789
768.754	0.20134895
768.94	0.20148656
769.125	0.20165791
769.311	0.20161804
769.496	0.20169738
769.682	0.20183356
769.867	0.20200483
770.052	0.20216771
770.238	0.20218501
770.423	0.20216123
770.608	0.20230613
770.794	0.20241151
770.979	0.20240058
771.164	0.20237729
771.35	0.20230184
771.535	0.20235182
771.72	0.20240271
771.905	0.20241518
772.09	0.20244624
772.276	0.20263514
772.461	0.20282529
772.646	0.20305619
772.831	0.20318048
773.016	0.20339961
773.201	0.20366702
773.386	0.20396115
773.571	0.20403316
773.756	0.20409454
773.941	0.20413284
774.126	0.20421932
774.311	0.20423977
774.496	0.20418759
774.681	0.20412773
774.866	0.20410705
775.051	0.20417346
775.236	0.20429791
775.421	0.20446502
775.606	0.20463634
775.791	0.2048055
775.976	0.20493502
776.16	0.20512077
776.345	0.20520382
776.53	0.20528825
776.715	0.20535773
776.899	0.20540138
777.084	0.20547981
777.269	0.20556482
777.454	0.20571493
777.638	0.20585602
777.823	0.20597496
778.008	0.20596393
778.192	0.20596216
778.377	0.2059229
778.561	0.20585565
778.746	0.20578699
778.931	0.20581349
779.115	0.20576821
779.3	0.20581769
779.484	0.20594864
779.669	0.20616579
779.853	0.20639622
780.037	0.20659023
780.222	0.206683
780.406	0.20677089
780.591	0.20683194
780.775	0.20681598
780.959	0.20675854
781.144	0.20667969
781.328	0.20657411
781.512	0.20639211
781.697	0.20630646
781.881	0.20617433
782.065	0.20603251
782.249	0.20572326
782.434	0.20556289
782.618	0.20535223
782.802	0.20531231
782.986	0.20524256
783.17	0.20521478
783.354	0.20525018
783.539	0.20545219
783.723	0.20558601
783.907	0.20586208
784.091	0.20606542
784.275	0.20632711
784.459	0.20651769
784.643	0.20668498
784.827	0.20673899
785.011	0.20677076
785.195	0.20678638
785.379	0.20684378
785.563	0.20685316
785.747	0.20696428
785.93	0.20699061
786.114	0.20698237
786.298	0.2070124
786.482	0.20700052
786.666	0.20700187
786.85	0.2069719
787.033	0.20694813
787.217	0.20715694
787.401	0.20744827
787.585	0.20772338
787.768	0.2079274
787.952	0.20809913
788.136	0.20827296
788.319	0.20845624
788.503	0.20856971
788.687	0.20868684
788.87	0.20887982
789.054	0.2090877
789.237	0.20927544
789.421	0.20950302
789.605	0.20968442
789.788	0.20977744
789.972	0.2099532
790.155	0.21000805
790.338	0.21010614
790.522	0.21023075
790.705	0.21036453
790.889	0.2105064
791.072	0.21064985
791.256	0.21072246
791.439	0.21085289
791.622	0.21098789
791.806	0.2111657
791.989	0.21129668
792.172	0.21145504
792.355	0.21156864
792.539	0.21174194
792.722	0.21181479
792.905	0.21187384
793.088	0.21188832
793.271	0.2120076
793.455	0.21215707
793.638	0.2123336
793.821	0.21236375
794.004	0.21241313
794.187	0.21253742
794.37	0.21274016
794.553	0.21290959
794.736	0.21295128
794.919	0.21307585
795.102	0.21340111
795.285	0.21385671
795.468	0.21428103
795.651	0.21478017
795.834	0.21538834
796.017	0.21607578
796.2	0.21665126
796.383	0.21711061
796.566	0.21748343
796.749	0.21782264
796.931	0.21807758
797.114	0.21810011
797.297	0.21807052
797.48	0.21798529
797.663	0.21796055
797.845	0.21795668
798.028	0.21793678
798.211	0.21779348
798.393	0.21775885
798.576	0.21779636
798.759	0.21784821
798.941	0.21787425
799.124	0.21789605
799.307	0.21793955
799.489	0.21809748
799.672	0.21825367
799.854	0.21826403
800.037	0.2183093
800.219	0.21833873
800.402	0.21839476
800.584	0.21851572
800.767	0.21860162
800.949	0.21877803
801.132	0.21908568
801.314	0.21945845
801.496	0.21973637
801.679	0.21990063
801.861	0.21997843
802.043	0.22004396
802.226	0.21990229
802.408	0.2198326
802.59	0.21983075
802.772	0.21992631
802.955	0.22013227
803.137	0.22031791
803.319	0.22053739
803.501	0.22083499
803.684	0.22112148
803.866	0.22126335
804.048	0.22141603
804.23	0.2215081
804.412	0.22164263
804.594	0.22170459
804.776	0.22186606
804.958	0.22191146
805.14	0.22197176
805.322	0.22201048
805.504	0.22207553
805.686	0.22212138
805.868	0.22213188
806.05	0.22211247
806.232	0.22216095
806.414	0.22240475
806.596	0.22265595
806.778	0.22280921
806.96	0.22295644
807.141	0.22314239
807.323	0.22323636
807.505	0.22322257
807.687	0.22307843
807.869	0.22287533
808.05	0.22261442
808.232	0.22233001
808.414	0.22205751
808.595	0.22168225
808.777	0.22155402
808.959	0.22144461
809.14	0.22135127
809.322	0.22141519
809.504	0.22149655
809.685	0.22159462
809.867	0.22165674
810.048	0.22152619
810.23	0.2213965
810.411	0.2213166
810.593	0.22126172
810.774	0.22120328
810.956	0.22118626
811.137	0.22135077
811.319	0.22164102
811.5	0.2218346
811.681	0.22209858
811.863	0.22222205
812.044	0.22234454
812.225	0.22247443
812.407	0.22235981
812.588	0.22218135
812.769	0.2220612
812.951	0.22181193
813.132	0.22173204
813.313	0.22170592
813.494	0.2216289
813.675	0.22176477
813.857	0.22199511
814.038	0.22229934
814.219	0.22261201
814.4	0.22285803
814.581	0.22322095
814.762	0.22348442
814.943	0.22376978
815.124	0.2239286
815.305	0.22395824
815.486	0.22400235
815.667	0.22399146
815.848	0.22379778
816.029	0.22367723
816.21	0.22365432
816.391	0.2236767
816.572	0.22368928
816.753	0.2237679
816.934	0.22388816
817.115	0.22405886
817.295	0.22421879
817.476	0.22418667
817.657	0.22411233
817.838	0.22431619
818.019	0.22441667
818.199	0.22454481
818.38	0.22466692
818.561	0.22488345
818.741	0.22514338
818.922	0.22549579
819.103	0.22575817
819.283	0.22605852
819.464	0.22636587
819.645	0.22668958
819.825	0.2269593
820.006	0.22721569
820.186	0.2273983
820.367	0.2275206
820.547	0.22766759
820.728	0.22783491
820.908	0.22783074
821.089	0.22777251
821.269	0.22781064
821.45	0.22789343
821.63	0.2279592
821.81	0.22802065
821.991	0.22799147
822.171	0.22816265
822.351	0.2283357
822.532	0.22842113
822.712	0.22846061
822.892	0.22857329
823.072	0.22869202
823.253	0.22891939
823.433	0.22905277
823.613	0.22922814
823.793	0.2294282
823.973	0.22976094
824.154	0.23000637
824.334	0.23032462
824.514	0.23047408
824.694	0.23071055
824.874	0.23086772
825.054	0.23110916
825.234	0.23119316
825.414	0.23121788
825.594	0.23112639
825.774	0.2310726
825.954	0.23093931
826.134	0.23094039
826.314	0.23077844
826.494	0.23070686
826.674	0.23065897
826.854	0.23062923
827.033	0.23069701
827.213	0.23096349
827.393	0.23115649
827.573	0.23145399
827.753	0.23170779
827.932	0.23202084
828.112	0.23240578
828.292	0.23278139
828.472	0.23278196
828.651	0.23285319
828.831	0.23286925
829.011	0.23281119
829.19	0.23267541
829.37	0.23260671
829.549	0.23255497
829.729	0.23271703
829.909	0.23276905
830.088	0.23292313
830.268	0.23315111
830.447	0.23338262
830.627	0.23366759
830.806	0.23389482
830.986	0.2338988
831.165	0.23398388
831.344	0.23404996
831.524	0.23395683
831.703	0.23391853
831.883	0.23378782
832.062	0.23370437
832.241	0.2338837
832.421	0.23408333
832.6	0.23425657
832.779	0.23457193
832.958	0.23477515
833.138	0.23482648
833.317	0.23495706
833.496	0.23495044
833.675	0.23491401
833.854	0.2349224
834.034	0.23484625
834.213	0.23479907
834.392	0.23497074
834.571	0.23489137
834.75	0.23493922
834.929	0.23491222
835.108	0.23486888
835.287	0.23492575
835.466	0.23497785
835.645	0.2349894
835.824	0.23517385
836.003	0.2352567
836.182	0.23536141
836.361	0.23542786
836.54	0.23545617
836.719	0.2356692
836.897	0.23563299
837.076	0.23564486
837.255	0.23565458
837.434	0.23569355
837.613	0.23577264
837.791	0.23581892
837.97	0.23577265
838.149	0.23576484
838.328	0.23569652
838.506	0.23565277
838.685	0.23555467
838.864	0.23542163
839.042	0.23545362
839.221	0.23548989
839.4	0.23568077
839.578	0.23594451
839.757	0.2360893
839.935	0.23638554
840.114	0.23656881
840.292	0.23656015
840.471	0.23651416
840.649	0.23646346
840.828	0.23628908
841.006	0.23623763
841.185	0.23612281
841.363	0.23625876
841.541	0.23641374
841.72	0.23666119
841.898	0.23689957
842.076	0.23717193
842.255	0.23744045
842.433	0.23779074
842.611	0.23792839
842.789	0.23797403
842.968	0.23806334
843.146	0.23800737
843.324	0.238015
843.502	0.2380488
843.68	0.23802728
843.859	0.23795705
844.037	0.23778845
844.215	0.23751842
844.393	0.23739653
844.571	0.2372031
844.749	0.23702983
844.927	0.23681398
845.105	0.23675338
845.283	0.23688957
845.461	0.23701135
845.639	0.23709235
845.817	0.23705366
845.995	0.23706328
846.173	0.23718692
846.351	0.23705447
846.529	0.23686837
846.706	0.23673954
846.884	0.23672159
847.062	0.23673754
847.24	0.23668222
847.418	0.23656063
847.595	0.23668093
847.773	0.23693585
847.951	0.23699382
848.129	0.23674128
848.306	0.23667094
848.484	0.23657103
848.662	0.23640808
848.839	0.23624174
849.017	0.2359859
849.194	0.23576963
849.372	0.2358125
849.549	0.2357743
849.727	0.23578379
849.905	0.23586097
850.082	0.23598955
850.26	0.2362067
850.437	0.23644923
850.614	0.23670899
850.792	0.23681715
850.969	0.23701395
851.147	0.23706791
851.324	0.23703331
851.501	0.23693276
851.679	0.23690431
851.856	0.23678845
852.033	0.23696164
852.211	0.23699561
852.388	0.23714763
852.565	0.23726607
852.742	0.23748191
852.92	0.23765076
853.097	0.23781849
853.274	0.23781793
853.451	0.23785983
853.628	0.23782089
853.805	0.23770868
853.982	0.23751331
854.159	0.23719372
854.336	0.23697728
854.514	0.23688311
854.691	0.23673947
854.868	0.23672276
855.045	0.23688087
855.221	0.23710339
855.398	0.23725423
855.575	0.23724037
855.752	0.237224
855.929	0.23732079
856.106	0.23719505
856.283	0.23693132
856.46	0.23661341
856.637	0.23653143
856.813	0.23641852
856.99	0.23623875
857.167	0.23596459
857.344	0.23593278
857.52	0.23591728
857.697	0.23584415
857.874	0.23571578
858.05	0.23580701
858.227	0.23587704
858.404	0.2359664
858.58	0.23601041
858.757	0.2360104
858.933	0.23610005
859.11	0.2361776
859.287	0.23598929
859.463	0.23582702
859.64	0.23572795
859.816	0.23552069
859.993	0.23536636
860.169	0.23526177
860.345	0.23506412
860.522	0.23508054
860.698	0.23510964
860.875	0.23511735
861.051	0.23536039
861.227	0.23555545
861.404	0.23576699
861.58	0.2360639
861.756	0.23619002
861.932	0.23624347
862.109	0.23615253
862.285	0.2360059
862.461	0.2358888
862.637	0.2355659
862.813	0.23527188
862.99	0.23504831
863.166	0.23479326
863.342	0.23473257
863.518	0.23444273
863.694	0.234242
863.87	0.23403834
864.046	0.23384549
864.222	0.23370094
864.398	0.23367898
864.574	0.23350827
864.75	0.23349397
864.926	0.23350102
865.102	0.23350902
865.278	0.23343848
865.454	0.23332007
865.63	0.2331672
865.805	0.23309988
865.981	0.23301302
866.157	0.23296744
866.333	0.23295065
866.509	0.23304073
866.684	0.23325917
866.86	0.23346997
867.036	0.23352362
867.212	0.23335688
867.387	0.23319748
867.563	0.23304842
867.739	0.23283557
867.914	0.23252696
868.09	0.23215273
868.265	0.23184253
868.441	0.23173819
868.617	0.23165393
868.792	0.23171622
868.968	0.2317299
869.143	0.2317704
869.319	0.23179807
869.494	0.23177153
869.67	0.23181304
869.845	0.23175582
870.02	0.23163378
870.196	0.2315926
870.371	0.23157574
870.546	0.23155246
870.722	0.23178773
870.897	0.23174562
871.072	0.23172595
871.248	0.2315374
871.423	0.23146785
871.598	0.23126592
871.773	0.23094204
871.949	0.23062426
872.124	0.23052893
872.299	0.23027688
872.474	0.23026466
872.649	0.23015576
872.824	0.2301145
872.999	0.23033585
873.174	0.2304211
873.349	0.23038336
873.524	0.23031014
873.699	0.23013461
873.874	0.22983784
874.049	0.22962379
874.224	0.22914178
874.399	0.22869091
874.574	0.22847626
874.749	0.22824434
874.924	0.22795523
875.099	0.22782237
875.274	0.22762942
875.449	0.22765881
875.623	0.22750574
875.798	0.22702153
875.973	0.22686516
876.148	0.22662266
876.322	0.22645469
876.497	0.22617455
876.672	0.22582376
876.846	0.22566128
877.021	0.2255774
877.196	0.22526674
877.37	0.22539395
877.545	0.22541567
877.72	0.22538244
877.894	0.22537859
878.069	0.2252357
878.243	0.22521758
878.418	0.22527034
878.592	0.22511157
878.767	0.22488447
878.941	0.22485681
879.116	0.22479128
879.29	0.22496026
879.464	0.22493613
879.639	0.22498433
879.813	0.22509093
879.987	0.22520795
880.162	0.22526549
880.336	0.22532243
880.51	0.22521513
880.685	0.22515447
880.859	0.22503325
881.033	0.2247211
881.207	0.22441582
881.381	0.22411685
881.556	0.2237671
881.73	0.22353919
881.904	0.22351529
882.078	0.22334971
882.252	0.22323096
882.426	0.22307045
882.6	0.22292802
882.774	0.22283596
882.948	0.22260422
883.122	0.22231581
883.296	0.2220342
883.47	0.22190155
883.644	0.22180704
883.818	0.22160908
883.992	0.22162044
884.166	0.22168065
884.34	0.22171213
884.514	0.22174806
884.687	0.22168125
884.861	0.22154661
885.035	0.22155309
885.209	0.22128679
885.382	0.22099191
885.556	0.22060175
885.73	0.22034833
885.904	0.22005084
886.077	0.21977018
886.251	0.21944441
886.425	0.21920673
886.598	0.21895688
886.772	0.21864682
886.945	0.21835006
887.119	0.2180807
887.292	0.21797595
887.466	0.21795663
887.64	0.21781084
887.813	0.21775265
887.986	0.21782464
888.16	0.21786045
888.333	0.21769245
888.507	0.2174587
888.68	0.21723952
888.854	0.2171054
889.027	0.21688848
889.2	0.21685252
889.374	0.21666855
889.547	0.21678009
889.72	0.21678271
889.893	0.21663193
890.067	0.21643421
890.24	0.21622417
890.413	0.21583416
890.586	0.21540697
890.759	0.21514706
890.933	0.21494078
891.106	0.21467548
891.279	0.21449886
891.452	0.21428485
891.625	0.21421101
891.798	0.21434861
891.971	0.21416502
892.144	0.21401145
892.317	0.21419127
892.49	0.21420125
892.663	0.21427331
892.836	0.2142623
893.009	0.21413077
893.182	0.2139895
893.355	0.21393666
893.527	0.21380545
893.7	0.21393669
893.873	0.21399716
894.046	0.21384837
894.219	0.2139066
894.391	0.21401609
894.564	0.21395021
894.737	0.21360436
894.91	0.21323579
895.082	0.21281772
895.255	0.21258748
895.428	0.21213753
895.6	0.21156599
895.773	0.2109912
895.945	0.2106817
896.118	0.21036386
896.291	0.21012403
896.463	0.2098508
896.636	0.20952402
896.808	0.20921232
896.981	0.20895767
897.153	0.20855302
897.326	0.20813866
897.498	0.20763825
897.67	0.20716876
897.843	0.20680937
898.015	0.20672282
898.187	0.20664258
898.36	0.20647625
898.532	0.20618682
898.704	0.20617515
898.877	0.20591813
899.049	0.20576
899.221	0.20541777
899.393	0.20510923
899.566	0.20492716
899.738	0.20473708
899.91	0.20434223
900.082	0.20404252
900.254	0.20370811
900.426	0.20335604
900.598	0.20313964
900.77	0.20279932
900.942	0.20268014
901.114	0.20259705
901.286	0.20285894
901.458	0.2030904
901.63	0.20349073
901.802	0.20363153
901.974	0.2038304
902.146	0.20380024
902.318	0.2038274
902.49	0.20360042
902.662	0.20338879
902.834	0.20291726
903.005	0.20258661
903.177	0.20217439
903.349	0.20187158
903.521	0.20149183
903.693	0.20109545
903.864	0.20070776
904.036	0.20046498
904.208	0.20019143
904.379	0.19989475
904.551	0.1997482
904.723	0.19948296
904.894	0.19925283
905.066	0.19901908
905.237	0.19893722
905.409	0.19873639
905.58	0.19873448
905.752	0.1983736
905.923	0.19821973
906.095	0.19803973
906.266	0.19782785
906.438	0.19739106
906.609	0.19705902
906.78	0.19664455
906.952	0.19653886
907.123	0.19633049
907.295	0.19642046
907.466	0.19646734
907.637	0.19653645
907.808	0.1964491
907.98	0.19639559
908.151	0.19625372
908.322	0.19622757
908.493	0.19586207
908.665	0.19566694
908.836	0.19535276
909.007	0.19523008
909.178	0.19498879
909.349	0.19484096
909.52	0.19454151
909.691	0.19417236
909.862	0.19371477
910.033	0.19336962
910.204	0.19308604
910.375	0.19291712
910.546	0.19270912
910.717	0.19243232
910.888	0.19235932
911.059	0.19222624
911.23	0.19207122
911.401	0.19191031
911.572	0.19165344
911.742	0.19128538
911.913	0.19103575
912.084	0.19062449
912.255	0.19037083
912.426	0.18993684
912.596	0.18940309
912.767	0.18905898
912.938	0.1887078
913.108	0.18829159
913.279	0.18806769
913.45	0.18770579
913.62	0.18750846
913.791	0.18736726
913.962	0.18710974
914.132	0.18680771
914.303	0.18657886
914.473	0.18628057
914.644	0.18607358
914.814	0.18599293
914.985	0.18591344
915.155	0.18586765
915.326	0.18586716
915.496	0.1859111
915.666	0.18594602
915.837	0.18594379
916.007	0.18561857
916.177	0.18511602
916.348	0.18471977
916.518	0.18432394
916.688	0.18389619
916.858	0.18350382
917.029	0.18311309
917.199	0.18313127
917.369	0.18328805
917.539	0.18323278
917.709	0.18322282
917.88	0.18320574
918.05	0.18323932
918.22	0.18332445
918.39	0.18301963
918.56	0.1828253
918.73	0.18276625
918.9	0.18269225
919.07	0.18263113
919.24	0.18258035
919.41	0.18240015
919.58	0.18228796
919.75	0.1821236
919.92	0.18177246
920.09	0.18150521
920.26	0.181138
920.429	0.18064216
920.599	0.18018467
920.769	0.17992011
920.939	0.17961155
921.109	0.17936126
921.278	0.17900508
921.448	0.1788759
921.618	0.17874193
921.787	0.17861008
921.957	0.17838808
922.127	0.17809223
922.296	0.17794408
922.466	0.17775238
922.636	0.17748051
922.805	0.17708413
922.975	0.17666829
923.144	0.17631197
923.314	0.17592482
923.483	0.17554967
923.653	0.17529315
923.822	0.17494187
923.992	0.1746907
924.161	0.17446333
924.331	0.17424974
924.5	0.17400802
924.669	0.17367439
924.839	0.17340839
925.008	0.17302811
925.177	0.17256063
925.347	0.17228443
925.516	0.17212166
925.685	0.17202482
925.854	0.17211033
926.023	0.17187666
926.193	0.17205099
926.362	0.17225738
926.531	0.17222607
926.7	0.17203551
926.869	0.17188316
927.038	0.17141393
927.207	0.17112111
927.376	0.170511
927.545	0.17000943
927.715	0.1697434
927.884	0.16929714
928.052	0.16888657
928.221	0.16854107
928.39	0.16821795
928.559	0.16805698
928.728	0.16802472
928.897	0.16791004
929.066	0.16800202
929.235	0.16790803
929.404	0.16782065
929.572	0.16775614
929.741	0.16760689
929.91	0.16727149
930.079	0.16673141
930.247	0.1662556
930.416	0.16603872
930.585	0.16581165
930.753	0.16563232
930.922	0.16542831
931.091	0.16521188
931.259	0.16520154
931.428	0.16515408
931.596	0.16507547
931.765	0.16498929
931.934	0.16488805
932.102	0.16443573
932.27	0.16426216
932.439	0.16378683
932.607	0.16337847
932.776	0.16298528
932.944	0.16261064
933.113	0.16219809
933.281	0.16211977
933.449	0.16185206
933.618	0.16167922
933.786	0.16152163
933.954	0.16124954
934.123	0.16105471
934.291	0.16100821
934.459	0.16084339
934.627	0.16068798
934.795	0.16073891
934.964	0.16063473
935.132	0.16052949
935.3	0.16034649
935.468	0.1599012
935.636	0.15967933
935.804	0.15949189
935.972	0.15936574
936.14	0.15920746
936.308	0.15904272
936.476	0.15916387
936.644	0.15956322
936.812	0.16004004
936.98	0.16054259
937.148	0.1608253
937.316	0.16120519
937.484	0.16167173
937.652	0.16181674
937.82	0.16209604
937.987	0.16160436
938.155	0.16081245
938.323	0.16056065
938.491	0.15995464
938.658	0.16016594
938.826	0.15993655
938.994	0.15947138
939.162	0.16009574
939.329	0.16067582
939.497	0.16091827
939.665	0.16159276
939.832	0.16216094
940	0.16277413
940.167	0.16363673
940.335	0.16364466
940.502	0.164052
940.67	0.16437224
940.837	0.16510068
941.005	0.16433745
941.172	0.16401827
941.34	0.16393177
941.507	0.16443884
941.674	0.16502515
941.842	0.16552229
942.009	0.1655426
942.177	0.1656133
942.344	0.16720677
942.511	0.16721147
942.678	0.16714605
942.846	0.16638574
943.013	0.16631901
943.18	0.16548751
943.347	0.165855
943.514	0.16479653
943.682	0.16561738
943.849	0.16535282
944.016	0.16571888
944.183	0.16541286
944.35	0.16551504
944.517	0.16504847
944.684	0.16601985
944.851	0.16348191
945.018	0.16377137
945.185	0.16328125
945.352	0.16334671
945.519	0.16295972
945.686	0.16239203
945.853	0.16221136
946.02	0.16280188
946.187	0.16203577
946.353	0.1626944
946.52	0.16215095
946.687	0.16187184
946.854	0.16249078
947.021	0.16153648
947.187	0.16127677
947.354	0.16073278
947.521	0.15979458
947.687	0.15867092
947.854	0.15832582
948.021	0.15737653
948.187	0.15608531
948.354	0.15594448
948.52	0.155129
948.687	0.15473684
948.854	0.15426389
949.02	0.15326018
949.187	0.15274
949.353	0.15284558
949.52	0.15175278
949.686	0.15168367
949.852	0.15120692
950.019	0.15102956
950.185	0.15083062
950.352	0.14971122
950.518	0.14794395
950.684	0.14714671
950.851	0.14598351
951.017	0.14524377
951.183	0.14489521
951.349	0.14422592
951.516	0.14311715
951.682	0.1431516
951.848	0.1428939
952.014	0.14218317
952.18	0.1415126
952.346	0.14035235
952.512	0.13993648
952.679	0.14038597
952.845	0.1398419
953.011	0.13926824
953.177	0.13943827
953.343	0.13924043
953.509	0.13970091
953.675	0.13898721
953.841	0.1381161
954.007	0.13792993
954.172	0.13753902
954.338	0.13670223
954.504	0.13527369
954.67	0.13370877
954.836	0.13356897
955.002	0.13357619
955.167	0.13328562
955.333	0.13260185
955.499	0.13235471
955.665	0.13232958
955.83	0.13269283
955.996	0.13239422
956.162	0.13141576
956.327	0.13068509
956.493	0.1301875
956.659	0.13003932
956.824	0.12947133
956.99	0.12847437
957.155	0.12785213
957.321	0.12782009
957.486	0.12779568
957.652	0.12754097
957.817	0.12742569
957.983	0.12732341
958.148	0.12738956
958.314	0.12739826
958.479	0.12681434
958.644	0.12625731
958.81	0.12651647
958.975	0.12612012
959.14	0.12629186
959.306	0.12596238
959.471	0.12544344
959.636	0.12534452
959.801	0.12560741
959.967	0.12532063
960.132	0.12525162
960.297	0.12468731
960.462	0.12495929
960.627	0.12484286
960.792	0.1247667
960.957	0.12458443
961.123	0.12455297
961.288	0.12399641
961.453	0.12431171
961.618	0.12368716
961.783	0.12347731
961.948	0.12315067
962.113	0.12238036
962.277	0.12176994
962.442	0.12146077
962.607	0.12113696
962.772	0.12096941
962.937	0.1207384
963.102	0.12068578
963.267	0.12061881
963.431	0.12057768
963.596	0.12058035
963.761	0.11970872
963.926	0.11945557
964.09	0.11914718
964.255	0.11913758
964.42	0.11880077
964.584	0.11832312
964.749	0.11805963
964.914	0.11777441
965.078	0.11745418
965.243	0.11703721
965.407	0.11627804
965.572	0.11614997
965.736	0.11591172
965.901	0.11549079
966.065	0.11578974
966.23	0.11526798
966.394	0.11532164
966.559	0.11507614
966.723	0.11480145
966.887	0.11463719
967.052	0.11432207
967.216	0.1136817
967.38	0.11361982
967.545	0.11344015
967.709	0.1133726
967.873	0.11340998
968.037	0.11301267
968.202	0.11307312
968.366	0.113254
968.53	0.11324984
968.694	0.11308408
968.858	0.11313226
969.022	0.11255747
969.187	0.11248972
969.351	0.11246426
969.515	0.11231572
969.679	0.11194347
969.843	0.11172681
970.007	0.11132425
970.171	0.11158474
970.335	0.11149311
970.499	0.11112129
970.662	0.1107842
970.826	0.11076534
970.99	0.11046848
971.154	0.11032892
971.318	0.10998024
971.482	0.1095584
971.645	0.10932994
971.809	0.10922438
971.973	0.10905722
972.137	0.10881913
972.3	0.10837753
972.464	0.10809946
972.628	0.10807574
972.791	0.1076624
972.955	0.10702926
973.119	0.10625473
973.282	0.10580522
973.446	0.10561871
973.609	0.10562337
973.773	0.10557931
973.936	0.10552538
974.1	0.10574782
974.263	0.10597624
974.427	0.10614746
974.59	0.10606031
974.754	0.10555818
974.917	0.10512217
975.08	0.1049794
975.244	0.10473898
975.407	0.10447618
975.57	0.10434054
975.734	0.10434404
975.897	0.10417287
976.06	0.10426803
976.223	0.10406388
976.387	0.10384636
976.55	0.10374315
976.713	0.10368977
976.876	0.10335224
977.039	0.10298276
977.202	0.10251883
977.365	0.10215397
977.528	0.10200528
977.692	0.10183319
977.855	0.10122049
978.018	0.10078775
978.181	0.10067798
978.344	0.10062237
978.506	0.10027522
978.669	0.09987965
978.832	0.09960176
978.995	0.09919833
979.158	0.09939465
979.321	0.0992713
979.484	0.09900418
979.646	0.09914758
979.809	0.09933401
979.972	0.09941418
980.135	0.09991259
980.297	0.09982952
980.46	0.09978069
980.623	0.09959725
980.786	0.09974597
980.948	0.09943143
981.111	0.09936613
981.273	0.09866125
981.436	0.09844388
981.599	0.09830151
981.761	0.09792434
981.924	0.09763693
982.086	0.09756399
982.249	0.09741941
982.411	0.09763988
982.573	0.09754806
982.736	0.0980882
982.898	0.09865758
983.061	0.09869736
983.223	0.09900712
983.385	0.09906383
983.548	0.09956165
983.71	0.09988541
983.872	0.09938559
984.034	0.09893867
984.197	0.09874079
984.359	0.09826401
984.521	0.09809242
984.683	0.09763648
984.845	0.09723764
985.008	0.09687204
985.17	0.09689995
985.332	0.09671153
985.494	0.09660549
985.656	0.09645482
985.818	0.09585198
985.98	0.09538266
986.142	0.09479713
986.304	0.09481799
986.466	0.09442681
986.628	0.09414233
986.79	0.09349275
986.952	0.09335611
987.113	0.09292685
987.275	0.09284382
987.437	0.09236934
987.599	0.09207271
987.761	0.09194842
987.922	0.09177172
988.084	0.09169068
988.246	0.09209445
988.408	0.09219828
988.569	0.09248708
988.731	0.09277901
988.893	0.09276243
989.054	0.09322255
989.216	0.09322071
989.377	0.09261684
989.539	0.0923475
989.701	0.09143911
989.862	0.09091613
990.024	0.09009841
990.185	0.08925539
990.347	0.08939176
990.508	0.08945321
990.669	0.08939086
990.831	0.0896134
990.992	0.0899773
991.154	0.08992907
991.315	0.09059549
991.476	0.08991021
991.638	0.08980816
991.799	0.08964058
991.96	0.08934041
992.121	0.08911694
992.283	0.08888479
992.444	0.08815256
992.605	0.0877007
992.766	0.08720421
992.927	0.08713839
993.088	0.08710882
993.249	0.08662467
993.41	0.08673983
993.572	0.08674443
993.733	0.0869254
993.894	0.08677228
994.055	0.08611946
994.216	0.08590582
994.376	0.08542691
994.537	0.08592387
994.698	0.08572842
994.859	0.08556708
995.02	0.085458
995.181	0.08559708
995.342	0.08584061
995.503	0.08601894
995.663	0.08552826
995.824	0.08540595
995.985	0.0856709
996.146	0.08631451
996.306	0.08664279
996.467	0.08618038
996.628	0.0864644
996.788	0.08668504
996.949	0.08716263
997.11	0.08694987
997.27	0.08675915
997.431	0.08668003
997.591	0.08637523
997.752	0.08620593
997.912	0.08576263
998.073	0.08544496
998.233	0.08572277
998.394	0.08555395
998.554	0.08553273
998.714	0.08587601
998.875	0.08552335
999.035	0.08532805
999.196	0.08520926
999.356	0.08462003
999.516	0.08423116
999.676	0.08388178
999.837	0.08371106
999.997	0.08315525
1000.157	0.08295919
1000.317	0.08215073
1000.477	0.08172653
1000.638	0.08174117
1000.798	0.08172373
1000.958	0.08148448
1001.118	0.08181456
1001.278	0.08142207
1001.438	0.08151355
1001.598	0.08155603
1001.758	0.08134121
1001.918	0.08105118
1002.078	0.08032698
1002.238	0.07988891
1002.398	0.08024061
1002.558	0.08063782
1002.718	0.08026703
1002.878	0.08013589
1003.037	0.07937463
1003.197	0.07979193
1003.357	0.07977583
1003.517	0.08022711
1003.677	0.07941514
1003.836	0.07964055
1003.996	0.07950936
1004.156	0.07979486
1004.315	0.07954167
1004.475	0.07921731
1004.635	0.07801249
1004.794	0.07780713
1004.954	0.07807349
1005.114	0.0780361
1005.273	0.07719959
1005.433	0.0766345
1005.592	0.07652324
1005.752	0.0767221
1005.911	0.0768297
1006.071	0.07625742
1006.23	0.07505579
1006.389	0.0754894
1006.549	0.07558302
1006.708	0.0757848
1006.868	0.07449994
1007.027	0.07428861
1007.186	0.07447091
1007.345	0.07585565
1007.505	0.07644439
1007.664	0.07708932
1007.823	0.07731114
1007.982	0.0778453
1008.142	0.07806181
1008.301	0.07774436
1008.46	0.07699617
1008.619	0.07639934
1008.778	0.076118
1008.937	0.07598509
1009.096	0.07613052
1009.255	0.07582391
1009.414	0.07498338
1009.573	0.07583954
1009.732	0.07630346
1009.891	0.07578848
1010.05	0.07583478
1010.209	0.0758718
1010.368	0.0762055
1010.527	0.07689074
1010.686	0.07610813
1010.845	0.0749432
1011.003	0.07470773
1011.162	0.07458456
1011.321	0.073853
1011.48	0.07336072
1011.638	0.0731524
1011.797	0.07282705
1011.956	0.07262988
1012.115	0.07350504
1012.273	0.07362989
1012.432	0.07468438
1012.59	0.07394594
1012.749	0.07302291
1012.908	0.0723753
1013.066	0.07365064
1013.225	0.07254393
1013.383	0.07237182
1013.542	0.07173534
1013.7	0.0719804
1013.859	0.07313055
1014.017	0.07355479
1014.175	0.07315265
1014.334	0.07389109
1014.492	0.07402388
1014.65	0.07452139
1014.809	0.07555593
1014.967	0.07620104
1015.125	0.07639346
1015.284	0.0769009
1015.442	0.07762415
1015.6	0.07795438
1015.758	0.07821123
1015.916	0.07773642
1016.075	0.07708903
1016.233	0.07687082
1016.391	0.07695549
1016.549	0.07695722
1016.707	0.07674064
1016.865	0.07616583
1017.023	0.07500389
1017.181	0.07381372
1017.339	0.0742309
1017.497	0.07420807
1017.655	0.07261431
1017.813	0.07235715
1017.971	0.07317066
1018.129	0.07382389
1018.286	0.07497101
1018.444	0.07473474
1018.602	0.0753085
1018.76	0.07569628
1018.918	0.07462794
1019.075	0.07443971
1019.233	0.07546514
1019.391	0.07500241
1019.549	0.07479416
1019.706	0.07488178
1019.864	0.0759495
1020.022	0.07580881
1020.179	0.07547435
1020.337	0.07581961
1020.494	0.0765611
1020.652	0.07679425
1020.809	0.07592875
1020.967	0.07576994
1021.124	0.07574834
1021.282	0.07699325
1021.439	0.07661863
1021.597	0.07698548
1021.754	0.07661316
1021.911	0.07647145
1022.069	0.07547375
1022.226	0.0767929
1022.384	0.07509849
1022.541	0.07506714
1022.698	0.07506734
1022.855	0.07591358
1023.013	0.07726565
1023.17	0.07758323
1023.327	0.07810971
1023.484	0.08119503
1023.641	0.08116013
1023.798	0.0832514
1023.956	0.08480427
1024.113	0.08418805
1024.27	0.08497313
1024.427	0.08533961
1024.584	0.08382945
1024.741	0.08374922
1024.898	0.08132078
1025.055	0.07961665
1025.212	0.0787973
1025.369	0.07780006
1025.525	0.07777466
1025.682	0.0766278
1025.839	0.07684227
1025.996	0.07748121
1026.153	0.07955416
1026.31	0.08062688
1026.466	0.08210658
1026.623	0.08269167
1026.78	0.0829371
1026.937	0.08330722
1027.093	0.08293374
1027.25	0.0829373
1027.407	0.08359336
1027.563	0.08202466
1027.72	0.08136129
1027.876	0.08317936
1028.033	0.08349982
1028.19	0.08266172
1028.346	0.08006138
1028.503	0.07855327
1028.659	0.08067408
1028.816	0.0807951
1028.972	0.08277461
1029.128	0.08312282
1029.285	0.08591736
1029.441	0.08769294
1029.598	0.08772127
1029.754	0.08803219
1029.91	0.08964034
1030.067	0.08735257
1030.223	0.08636388
1030.379	0.08537901
1030.535	0.08504901
1030.691	0.08590193
1030.848	0.08626402
1031.004	0.08432164
1031.16	0.0836669
1031.316	0.08635418
1031.472	0.08797945
1031.628	0.08923769
1031.784	0.08982616
1031.94	0.09217927
1032.096	0.09321704
1032.252	0.09354014
1032.408	0.09539433
1032.564	0.09717318
1032.72	0.09749533
1032.876	0.09838044
1033.032	0.09712973
1033.188	0.09744584
1033.344	0.10099944
1033.5	0.1012515
1033.655	0.09995842
1033.811	0.10158891
1033.967	0.10378482
