Data from 1_mm_pl_30pc_Absorbance__0__16-13-00-803.txt Node

Date: Wed Mar 08 16:13:00 CET 2023
User: Ange
Spectrometer: FLMT08341
Trigger mode: 0
Integration Time (sec): 1.000000E-2
Scans to average: 400
Electric dark correction enabled: true
Nonlinearity correction enabled: false
Boxcar width: 3
XAxis mode: Wavelengths
Number of Pixels in Spectrum: 3648
>>>>>Begin Spectral Data<<<<<
345.271	-0.0075414
345.487	-0.00725882
345.704	-0.00659029
345.921	-0.00577651
346.137	-0.01075337
346.354	0.00215311
346.571	-0.02593666
346.787	-0.07146091
347.004	0.04421708
347.22	0.04692276
347.437	0.12956742
347.653	0.14038945
347.87	-0.13013247
348.086	0.06937156
348.303	-0.51106622
348.519	0.42989947
348.736	0.42461083
348.952	0.4406739
349.169	0.45813715
349.385	0.48039118
349.601	0.48062729
349.818	0.47798152
350.034	0.47132216
350.251	0.469845
350.467	0.47334623
350.683	0.45694736
350.9	0.45504275
351.116	0.450733
351.332	0.44460383
351.549	0.4626792
351.765	0.47915932
351.981	0.48622119
352.197	0.50614855
352.414	0.52610525
352.63	0.53973243
352.846	0.56076289
353.062	0.54714939
353.278	0.53399809
353.495	0.54883213
353.711	0.55714928
353.927	0.56328624
354.143	0.57052341
354.359	0.55881344
354.575	0.55407563
354.792	0.57120728
355.008	0.55666514
355.224	0.54347276
355.44	0.53154865
355.656	0.52116464
355.872	0.53146263
356.088	0.57271953
356.304	0.57643234
356.52	0.58363395
356.736	0.59276451
356.952	0.60120546
357.168	0.60880534
357.384	0.61881048
357.6	0.59197245
357.816	0.60410206
358.032	0.61779398
358.248	0.64011702
358.464	0.64241882
358.679	0.65231664
358.895	0.65094048
359.111	0.66561318
359.327	0.64792552
359.543	0.64786273
359.759	0.651857
359.974	0.65163277
360.19	0.64771201
360.406	0.65220817
360.622	0.64736973
360.838	0.64829111
361.053	0.65708293
361.269	0.65880879
361.485	0.66901581
361.701	0.68139513
361.916	0.66960934
362.132	0.67230589
362.348	0.6809651
362.563	0.68126982
362.779	0.67608558
362.995	0.67926612
363.21	0.68349511
363.426	0.69460183
363.641	0.69994285
363.857	0.70679224
364.073	0.70382648
364.288	0.69759176
364.504	0.71641896
364.719	0.71586918
364.935	0.71352658
365.15	0.71777637
365.366	0.71889862
365.581	0.73223975
365.797	0.74063439
366.012	0.72497277
366.228	0.72250385
366.443	0.73688667
366.658	0.73471456
366.874	0.72965988
367.089	0.73489491
367.305	0.74282042
367.52	0.75011809
367.735	0.75593218
367.951	0.75040916
368.166	0.76011069
368.381	0.77910452
368.597	0.77787261
368.812	0.78264286
369.027	0.7882658
369.243	0.79305085
369.458	0.81762551
369.673	0.82168874
369.888	0.8225379
370.104	0.81642425
370.319	0.824223
370.534	0.82082322
370.749	0.82003928
370.964	0.81888809
371.179	0.81965555
371.395	0.8124372
371.61	0.82640603
371.825	0.81604843
372.04	0.82083103
372.255	0.81813733
372.47	0.80784396
372.685	0.79783399
372.9	0.80060691
373.115	0.79059696
373.33	0.79962808
373.545	0.80717459
373.76	0.82001281
373.975	0.81711604
374.19	0.82245024
374.405	0.82901702
374.62	0.84802781
374.835	0.86310006
375.05	0.8639994
375.265	0.86497674
375.48	0.87679619
375.695	0.90023337
375.91	0.89633777
376.125	0.87917468
376.339	0.85669547
376.554	0.85713672
376.769	0.85601356
376.984	0.85665276
377.199	0.86046047
377.414	0.86350576
377.628	0.88039368
377.843	0.89783586
378.058	0.90288945
378.273	0.9145093
378.487	0.91881927
378.702	0.91946951
378.917	0.92277079
379.131	0.91751132
379.346	0.90556467
379.561	0.90313053
379.775	0.89654952
379.99	0.8898445
380.205	0.88023264
380.419	0.87268091
380.634	0.86442009
380.848	0.87948015
381.063	0.88101815
381.278	0.89190766
381.492	0.88716293
381.707	0.89735372
381.921	0.9024416
382.136	0.91905483
382.35	0.91236213
382.565	0.90951148
382.779	0.91062518
382.994	0.92090653
383.208	0.91218267
383.422	0.92819381
383.637	0.92799838
383.851	0.94114771
384.066	0.95245415
384.28	0.96076225
384.494	0.96684034
384.709	0.97926917
384.923	0.97674717
385.137	0.9677696
385.352	0.96657832
385.566	0.973574
385.78	0.96828251
385.995	0.96268047
386.209	0.95846043
386.423	0.96796498
386.637	0.97952968
386.852	0.97192349
387.066	0.96760677
387.28	0.96308783
387.494	0.97721894
387.708	0.98047369
387.923	0.97404614
388.137	0.98439519
388.351	0.99380292
388.565	1.00455854
388.779	1.01394709
388.993	1.03028745
389.207	1.03882424
389.421	1.04786131
389.635	1.03861775
389.85	1.03658839
390.064	1.0363178
390.278	1.04100636
390.492	1.03819917
390.706	1.04240196
390.92	1.04387826
391.134	1.0577774
391.348	1.08212741
391.561	1.07750675
391.775	1.07168298
391.989	1.05981942
392.203	1.0678047
392.417	1.0736392
392.631	1.08202689
392.845	1.06746034
393.059	1.08331522
393.273	1.08841007
393.486	1.08516024
393.7	1.07229143
393.914	1.08061005
394.128	1.07546596
394.342	1.07765284
394.555	1.0622925
394.769	1.06621116
394.983	1.07758893
395.197	1.09161903
395.41	1.0871176
395.624	1.09176383
395.838	1.09300913
396.051	1.11632982
396.265	1.11237465
396.479	1.11946259
396.692	1.11960214
396.906	1.11762969
397.12	1.11519803
397.333	1.12608037
397.547	1.11998611
397.76	1.13336947
397.974	1.1327411
398.187	1.13654513
398.401	1.14902613
398.614	1.1549698
398.828	1.15473952
399.041	1.15887501
399.255	1.15631637
399.468	1.15919389
399.682	1.16143618
399.895	1.16566601
400.109	1.1636558
400.322	1.16486073
400.536	1.15596415
400.749	1.16876864
400.962	1.17039077
401.176	1.16898956
401.389	1.16588396
401.602	1.15442887
401.816	1.16097453
402.029	1.17552776
402.242	1.1678534
402.456	1.17306501
402.669	1.16724319
402.882	1.15626215
403.095	1.17894904
403.309	1.17674926
403.522	1.1767874
403.735	1.17502656
403.948	1.17510697
404.161	1.20071707
404.375	1.21137599
404.588	1.20848388
404.801	1.21463133
405.014	1.20868509
405.227	1.22594643
405.44	1.2317726
405.653	1.22979844
405.866	1.22617793
406.079	1.22571677
406.293	1.22288946
406.506	1.22891584
406.719	1.2238464
406.932	1.21996631
407.145	1.21073036
407.358	1.23028723
407.571	1.22132343
407.784	1.22731009
407.996	1.23225505
408.209	1.22391535
408.422	1.22078182
408.635	1.22764871
408.848	1.22330736
409.061	1.22002677
409.274	1.21562485
409.487	1.21160055
409.7	1.21806071
409.912	1.22558377
410.125	1.22411211
410.338	1.22306498
410.551	1.22816314
410.764	1.23207919
410.976	1.23557633
411.189	1.23603678
411.402	1.23085033
411.615	1.23694086
411.827	1.23909783
412.04	1.2468767
412.253	1.24298535
412.465	1.24025078
412.678	1.23889172
412.891	1.24725032
413.103	1.23078822
413.316	1.22525188
413.529	1.2312967
413.741	1.24003888
413.954	1.24587637
414.166	1.24846822
414.379	1.24364578
414.591	1.25728581
414.804	1.25631382
415.016	1.2515393
415.229	1.24600201
415.441	1.23910813
415.654	1.24659166
415.866	1.25168038
416.079	1.25322799
416.291	1.25391514
416.504	1.26318841
416.716	1.26786034
416.928	1.27462585
417.141	1.26518428
417.353	1.26677732
417.566	1.25671927
417.778	1.25762709
417.99	1.2411696
418.203	1.23271608
418.415	1.23182169
418.627	1.23477779
418.839	1.23042528
419.052	1.24352367
419.264	1.2452918
419.476	1.25148199
419.688	1.2572749
419.901	1.25528976
420.113	1.25165551
420.325	1.25004946
420.537	1.23730209
420.749	1.24025023
420.961	1.24207503
421.174	1.23707315
421.386	1.23222251
421.598	1.23076573
421.81	1.22848051
422.022	1.22957859
422.234	1.22724254
422.446	1.2228844
422.658	1.2218147
422.87	1.22462169
423.082	1.2249769
423.294	1.22406872
423.506	1.22359716
423.718	1.2198594
423.93	1.21446824
424.142	1.21002774
424.354	1.20461169
424.566	1.20203057
424.778	1.2008091
424.99	1.19668357
425.202	1.19201878
425.414	1.19352
425.625	1.19858613
425.837	1.19357078
426.049	1.19461003
426.261	1.19062374
426.473	1.18638702
426.684	1.1856834
426.896	1.18756135
427.108	1.18102049
427.32	1.18540405
427.531	1.17932995
427.743	1.17863716
427.955	1.18504137
428.167	1.18244849
428.378	1.17554345
428.59	1.17521636
428.802	1.17013732
429.013	1.16673854
429.225	1.16163789
429.436	1.15468278
429.648	1.15402428
429.86	1.15444541
430.071	1.15288205
430.283	1.15238827
430.494	1.14907141
430.706	1.14869023
430.917	1.14532738
431.129	1.14204199
431.34	1.13670678
431.552	1.13397994
431.763	1.12827711
431.975	1.12956936
432.186	1.12297745
432.398	1.11912717
432.609	1.10877336
432.821	1.10708653
433.032	1.1028415
433.243	1.09963462
433.455	1.09486834
433.666	1.09463935
433.877	1.09552899
434.089	1.0933031
434.3	1.08681712
434.511	1.07879342
434.723	1.07504334
434.934	1.06713054
435.145	1.05871399
435.356	1.05010239
435.568	1.04818819
435.779	1.04400672
435.99	1.03899199
436.201	1.03321705
436.412	1.03018643
436.624	1.02990814
436.835	1.02909586
437.046	1.02731746
437.257	1.02387379
437.468	1.02582144
437.679	1.02517783
437.89	1.02258539
438.101	1.02002248
438.312	1.01553229
438.523	1.01112664
438.734	1.00809412
438.945	1.00321861
439.156	0.99639711
439.367	0.99338867
439.578	0.98981368
439.789	0.98378968
440	0.98057816
440.211	0.9751705
440.422	0.97065599
440.633	0.96944475
440.844	0.96289131
441.055	0.95790925
441.266	0.95654189
441.477	0.95008103
441.687	0.94698814
441.898	0.94319794
442.109	0.93675948
442.32	0.93376261
442.531	0.92690961
442.741	0.9178613
442.952	0.91350167
443.163	0.90937052
443.374	0.90339626
443.584	0.8981257
443.795	0.89402749
444.006	0.89043185
444.216	0.88711691
444.427	0.88124544
444.638	0.87528984
444.848	0.87067682
445.059	0.86684182
445.27	0.86126138
445.48	0.85623578
445.691	0.85258549
445.901	0.84929276
446.112	0.84482271
446.323	0.83909365
446.533	0.83382454
446.744	0.82842942
446.954	0.82309109
447.165	0.8178683
447.375	0.81412056
447.586	0.81070244
447.796	0.80762486
448.006	0.80308196
448.217	0.8000894
448.427	0.79608344
448.638	0.79109537
448.848	0.78507152
449.058	0.7799128
449.269	0.7748247
449.479	0.77041195
449.689	0.7653294
449.9	0.76087691
450.11	0.75690522
450.32	0.75360059
450.531	0.7482213
450.741	0.74314785
450.951	0.73913661
451.161	0.7338439
451.372	0.72968944
451.582	0.72749385
451.792	0.72210932
452.002	0.71768788
452.212	0.71275258
452.422	0.70814442
452.633	0.70368173
452.843	0.6997176
453.053	0.69210382
453.263	0.68828095
453.473	0.6838187
453.683	0.68065987
453.893	0.67531572
454.103	0.67204976
454.313	0.66706912
454.523	0.66372388
454.733	0.6594426
454.943	0.65600812
455.153	0.65220719
455.363	0.6483336
455.573	0.64377769
455.783	0.64013043
455.993	0.63572601
456.203	0.63228338
456.413	0.62810784
456.623	0.62333908
456.833	0.62056017
457.042	0.61644342
457.252	0.61230527
457.462	0.60830034
457.672	0.60422038
457.882	0.60045245
458.091	0.59666758
458.301	0.59176937
458.511	0.58800318
458.721	0.58429408
458.931	0.58048747
459.14	0.57673456
459.35	0.57349423
459.56	0.5703672
459.769	0.56753581
459.979	0.56369473
460.189	0.56028943
460.398	0.556735
460.608	0.55339928
460.817	0.54962027
461.027	0.5459689
461.237	0.54222708
461.446	0.53907417
461.656	0.53613636
461.865	0.53291508
462.075	0.52957458
462.284	0.52653732
462.494	0.52325241
462.703	0.51985434
462.913	0.51706498
463.122	0.51358954
463.332	0.51038367
463.541	0.50764564
463.751	0.50440163
463.96	0.50137449
464.169	0.4986875
464.379	0.49594871
464.588	0.49313545
464.797	0.4905401
465.007	0.4874965
465.216	0.48485358
465.425	0.48222114
465.635	0.4795247
465.844	0.47671419
466.053	0.47397643
466.263	0.47137492
466.472	0.46868538
466.681	0.46619222
466.89	0.46347124
467.099	0.46090693
467.309	0.4583703
467.518	0.45613268
467.727	0.45365173
467.936	0.45127318
468.145	0.4489389
468.354	0.44689385
468.563	0.44449872
468.772	0.44204869
468.982	0.43977985
469.191	0.43774787
469.4	0.43553318
469.609	0.43320684
469.818	0.43113905
470.027	0.42884577
470.236	0.42661181
470.445	0.42433943
470.654	0.42183398
470.863	0.41941708
471.072	0.41748389
471.28	0.41501523
471.489	0.41329818
471.698	0.41132514
471.907	0.40952909
472.116	0.40798142
472.325	0.40624195
472.534	0.40444096
472.743	0.40275082
472.951	0.40126091
473.16	0.39991449
473.369	0.39815937
473.578	0.39657867
473.786	0.39532349
473.995	0.39368955
474.204	0.39242036
474.413	0.39076398
474.621	0.38914602
474.83	0.38807101
475.039	0.38661486
475.247	0.38521217
475.456	0.38401538
475.665	0.38272838
475.873	0.38128253
476.082	0.3798469
476.291	0.37834635
476.499	0.37719924
476.708	0.375767
476.916	0.3746567
477.125	0.37342398
477.333	0.37246933
477.542	0.37167153
477.75	0.37070265
477.959	0.36974288
478.167	0.36901165
478.376	0.36786697
478.584	0.3669806
478.793	0.3659308
479.001	0.3648377
479.209	0.3638565
479.418	0.36300437
479.626	0.36206683
479.834	0.36131668
480.043	0.36054423
480.251	0.359763
480.459	0.3590785
480.668	0.35846131
480.876	0.35774018
481.084	0.35710569
481.293	0.3563844
481.501	0.355699
481.709	0.35522973
481.917	0.35464705
482.125	0.35410787
482.334	0.35357002
482.542	0.35291093
482.75	0.35245778
482.958	0.35206484
483.166	0.35150296
483.374	0.3510478
483.583	0.35062199
483.791	0.35023798
483.999	0.34991593
484.207	0.34955856
484.415	0.34918232
484.623	0.3489345
484.831	0.34865201
485.039	0.34848777
485.247	0.34833462
485.455	0.34829479
485.663	0.34816563
485.871	0.34804488
486.079	0.34783102
486.287	0.34769391
486.495	0.34745093
486.702	0.34718209
486.91	0.34698693
487.118	0.34690713
487.326	0.34680677
487.534	0.34679108
487.742	0.34680858
487.95	0.34692218
488.157	0.34711221
488.365	0.34726507
488.573	0.34739749
488.781	0.3475667
488.988	0.34785742
489.196	0.34811379
489.404	0.34835077
489.612	0.34848447
489.819	0.34867532
490.027	0.34890675
490.235	0.34911763
490.442	0.34936611
490.65	0.34959915
490.857	0.34992121
491.065	0.3503119
491.273	0.35070532
491.48	0.35111169
491.688	0.35147185
491.895	0.35185528
492.103	0.35220133
492.31	0.35249681
492.518	0.35291383
492.725	0.35349019
492.933	0.35396534
493.14	0.35446993
493.348	0.35489679
493.555	0.35545241
493.763	0.35605021
493.97	0.35657063
494.177	0.35704255
494.385	0.35758152
494.592	0.35824757
494.8	0.35893648
495.007	0.35961672
495.214	0.36030574
495.422	0.36098765
495.629	0.3616307
495.836	0.36236671
496.043	0.36309629
496.251	0.36385978
496.458	0.36459758
496.665	0.36532076
496.872	0.3660721
497.08	0.36686886
497.287	0.36754971
497.494	0.36839785
497.701	0.36927403
497.908	0.37020265
498.115	0.37099852
498.322	0.37181839
498.53	0.37263049
498.737	0.37355676
498.944	0.37432049
499.151	0.37509945
499.358	0.37591475
499.565	0.37691794
499.772	0.37798072
499.979	0.37900831
500.186	0.3800858
500.393	0.38106581
500.6	0.38212747
500.807	0.38314096
501.014	0.38416053
501.221	0.38521146
501.427	0.38616272
501.634	0.38714318
501.841	0.38834313
502.048	0.38940025
502.255	0.39043779
502.462	0.39162528
502.669	0.39284662
502.875	0.39406642
503.082	0.39523096
503.289	0.39634561
503.496	0.39748517
503.702	0.39866324
503.909	0.3997872
504.116	0.40088614
504.323	0.40210094
504.529	0.40332222
504.736	0.40457202
504.943	0.40576924
505.149	0.40717848
505.356	0.40852158
505.563	0.40985159
505.769	0.41120617
505.976	0.41254287
506.182	0.41388973
506.389	0.41532508
506.595	0.41661615
506.802	0.41793274
507.008	0.4192362
507.215	0.42056018
507.421	0.42198766
507.628	0.42330495
507.834	0.42473314
508.041	0.42623828
508.247	0.42769247
508.454	0.42916247
508.66	0.43053101
508.866	0.43200328
509.073	0.43358154
509.279	0.4351136
509.486	0.43661985
509.692	0.43815782
509.898	0.43975532
510.105	0.44132396
510.311	0.44268428
510.517	0.44409965
510.723	0.44555753
510.93	0.44687556
511.136	0.44836419
511.342	0.44982035
511.548	0.45133587
511.754	0.45307438
511.961	0.45472622
512.167	0.45638865
512.373	0.45808052
512.579	0.45966886
512.785	0.46131953
512.991	0.46301337
513.197	0.46459526
513.404	0.46627082
513.61	0.46787687
513.816	0.46939958
514.022	0.47102639
514.228	0.47263484
514.434	0.4742247
514.64	0.47591283
514.846	0.47755903
515.052	0.4792781
515.258	0.48105441
515.464	0.48278238
515.669	0.48451044
515.875	0.48635098
516.081	0.48800304
516.287	0.48985678
516.493	0.49156438
516.699	0.49322799
516.905	0.49497234
517.111	0.49670215
517.316	0.49846057
517.522	0.50030425
517.728	0.50215111
517.934	0.50401415
518.139	0.50593029
518.345	0.50761412
518.551	0.50948671
518.757	0.51130885
518.962	0.51311279
519.168	0.51486478
519.374	0.51663418
519.579	0.51860737
519.785	0.52074574
519.991	0.52264768
520.196	0.52453105
520.402	0.52640504
520.607	0.52829766
520.813	0.53030688
521.018	0.5320599
521.224	0.53359667
521.429	0.53544725
521.635	0.53726572
521.84	0.53903339
522.046	0.54088832
522.251	0.54271304
522.457	0.54469288
522.662	0.54696301
522.868	0.54903483
523.073	0.55094338
523.279	0.55300272
523.484	0.55489428
523.689	0.5568896
523.895	0.55895798
524.1	0.56080695
524.305	0.56262776
524.511	0.56468891
524.716	0.56673819
524.921	0.56872551
525.126	0.57070535
525.332	0.57268847
525.537	0.57465093
525.742	0.57690872
525.947	0.57897403
526.153	0.5809275
526.358	0.58308072
526.563	0.58507841
526.768	0.58694051
526.973	0.5889645
527.178	0.59078017
527.383	0.59279429
527.588	0.59489273
527.794	0.59674883
527.999	0.59878185
528.204	0.60076204
528.409	0.60279129
528.614	0.60493238
528.819	0.60702255
529.024	0.60895925
529.229	0.6109953
529.434	0.61324014
529.639	0.61539323
529.843	0.61751794
530.048	0.61962774
530.253	0.62164724
530.458	0.62383224
530.663	0.62600776
530.868	0.6280137
531.073	0.62994645
531.278	0.63195101
531.482	0.63394186
531.687	0.63607202
531.892	0.6380974
532.097	0.64010763
532.302	0.64222282
532.506	0.64446845
532.711	0.64651073
532.916	0.64854126
533.12	0.65056841
533.325	0.65262934
533.53	0.65496825
533.734	0.65699737
533.939	0.65910084
534.144	0.66136908
534.348	0.66362829
534.553	0.66570462
534.757	0.66778469
534.962	0.66982918
535.167	0.67214205
535.371	0.67433537
535.576	0.67665049
535.78	0.67887403
535.985	0.68123166
536.189	0.68346592
536.394	0.68552372
536.598	0.68745009
536.803	0.68954817
537.007	0.69151845
537.211	0.69364421
537.416	0.6956117
537.62	0.69771197
537.825	0.69990446
538.029	0.7025083
538.233	0.70468202
538.438	0.70693445
538.642	0.70894457
538.846	0.71141544
539.05	0.71364203
539.255	0.71576609
539.459	0.7176487
539.663	0.71988236
539.867	0.7220806
540.072	0.72442932
540.276	0.72640023
540.48	0.72872688
540.684	0.73104431
540.888	0.73346527
541.092	0.7355959
541.297	0.73774799
541.501	0.73987484
541.705	0.74213437
541.909	0.74409158
542.113	0.74614141
542.317	0.74833518
542.521	0.75057628
542.725	0.75281588
542.929	0.75492771
543.133	0.75710253
543.337	0.7595382
543.541	0.76174486
543.745	0.7636186
543.949	0.76580046
544.153	0.76785166
544.357	0.76993218
544.56	0.77210714
544.764	0.77431919
544.968	0.77638597
545.172	0.77847535
545.376	0.7808024
545.58	0.78307475
545.783	0.78557421
545.987	0.78761185
546.191	0.78960532
546.395	0.79194915
546.598	0.7943936
546.802	0.79650667
547.006	0.79867574
547.21	0.80030138
547.413	0.80256937
547.617	0.80479365
547.821	0.80688842
548.024	0.80897382
548.228	0.81095061
548.431	0.81316746
548.635	0.81567205
548.839	0.81781761
549.042	0.82011767
549.246	0.8222255
549.449	0.82436058
549.653	0.82659708
549.856	0.82854003
550.06	0.83051239
550.263	0.83259487
550.467	0.83462825
550.67	0.83679998
550.874	0.83869481
551.077	0.84092593
551.28	0.84319374
551.484	0.84541797
551.687	0.84757385
551.891	0.84971224
552.094	0.85162906
552.297	0.85399813
552.501	0.85617532
552.704	0.85831663
552.907	0.86023779
553.11	0.86214577
553.314	0.86405083
553.517	0.86580871
553.72	0.86782287
553.923	0.86958475
554.127	0.87162406
554.33	0.87356426
554.533	0.87575586
554.736	0.8777349
554.939	0.88017352
555.142	0.88234762
555.345	0.88462148
555.549	0.88687837
555.752	0.88920231
555.955	0.89132155
556.158	0.89372074
556.361	0.89580401
556.564	0.89766145
556.767	0.89964652
556.97	0.90153246
557.173	0.90352248
557.376	0.90579629
557.579	0.90754405
557.782	0.90961555
557.984	0.91187387
558.187	0.91402077
558.39	0.91606862
558.593	0.91823884
558.796	0.91989609
558.999	0.92181868
559.202	0.92365476
559.404	0.92521865
559.607	0.92698108
559.81	0.928625
560.013	0.93036655
560.216	0.93229299
560.418	0.93450644
560.621	0.93653034
560.824	0.93886809
561.026	0.94083257
561.229	0.94291989
561.432	0.94490653
561.634	0.94683955
561.837	0.94840072
562.04	0.95041961
562.242	0.95205222
562.445	0.95402651
562.647	0.95593631
562.85	0.95756248
563.053	0.95926378
563.255	0.96136226
563.458	0.96318048
563.66	0.9653261
563.863	0.96747116
564.065	0.96961659
564.268	0.97170191
564.47	0.97386353
564.672	0.97557252
564.875	0.97769747
565.077	0.97948213
565.28	0.98108903
565.482	0.98293603
565.684	0.98475396
565.887	0.98670438
566.089	0.98885947
566.291	0.99041321
566.494	0.99214973
566.696	0.99374073
566.898	0.99561009
567.1	0.99757946
567.303	0.99927257
567.505	1.0010176
567.707	1.00252757
567.909	1.0042245
568.111	1.00610142
568.314	1.00774119
568.516	1.00944338
568.718	1.01108915
568.92	1.01266875
569.122	1.01468058
569.324	1.01643299
569.526	1.0179118
569.728	1.01955425
569.93	1.0210366
570.132	1.02259246
570.334	1.0240776
570.536	1.02547243
570.738	1.02700082
570.94	1.02857946
571.142	1.0304584
571.344	1.03188218
571.546	1.0335182
571.748	1.0355618
571.95	1.03729718
572.152	1.03888876
572.354	1.04057905
572.555	1.04200915
572.757	1.04418488
572.959	1.04575818
573.161	1.04686967
573.363	1.04861537
573.564	1.05062657
573.766	1.05225832
573.968	1.05393915
574.17	1.05504009
574.371	1.05683617
574.573	1.0586257
574.775	1.0596482
574.976	1.06075256
575.178	1.06207513
575.38	1.06309875
575.581	1.06443342
575.783	1.0656831
575.985	1.06696661
576.186	1.06881036
576.388	1.07029315
576.589	1.07170516
576.791	1.0732314
576.992	1.074774
577.194	1.0762348
577.395	1.07744284
577.597	1.07874465
577.798	1.08003724
578	1.08135435
578.201	1.08260836
578.402	1.08399481
578.604	1.08514216
578.805	1.08676443
579.007	1.08785426
579.208	1.08904482
579.409	1.09048047
579.611	1.09173477
579.812	1.09313313
580.013	1.09422339
580.215	1.09485782
580.416	1.09615113
580.617	1.09736921
580.818	1.09861465
581.019	1.09976433
581.221	1.10085795
581.422	1.1021558
581.623	1.1038232
581.824	1.10464011
582.025	1.10578912
582.226	1.10696378
582.428	1.1083647
582.629	1.10961949
582.83	1.11068241
583.031	1.11165898
583.232	1.11356289
583.433	1.11513464
583.634	1.11590489
583.835	1.11687819
584.036	1.11773931
584.237	1.1189025
584.438	1.12008899
584.639	1.12054078
584.84	1.12140232
585.041	1.12248023
585.242	1.12340839
585.442	1.12451703
585.643	1.12573249
585.844	1.12644043
586.045	1.12776488
586.246	1.1283059
586.447	1.12905045
586.647	1.12973003
586.848	1.13031459
587.049	1.13086086
587.25	1.13155831
587.45	1.13203979
587.651	1.13312407
587.852	1.13418553
588.053	1.13551719
588.253	1.13617545
588.454	1.13713641
588.655	1.13788491
588.855	1.13839367
589.056	1.1389907
589.256	1.13970865
589.457	1.13982709
589.658	1.14084609
589.858	1.14121655
590.059	1.14200295
590.259	1.14282566
590.46	1.14315448
590.66	1.14370346
590.861	1.14437363
591.061	1.14465561
591.262	1.14548409
591.462	1.14626372
591.662	1.14706142
591.863	1.14778319
592.063	1.14854306
592.264	1.14910653
592.464	1.14986663
592.664	1.15047801
592.865	1.1509678
593.065	1.15103461
593.265	1.15190271
593.465	1.15211512
593.666	1.15277629
593.866	1.15318972
594.066	1.15338231
594.266	1.15380347
594.467	1.15381936
594.667	1.15385552
594.867	1.15394907
595.067	1.15413757
595.267	1.15428861
595.467	1.15458257
595.668	1.15475532
595.868	1.15560095
596.068	1.15603281
596.268	1.15674245
596.468	1.15696037
596.668	1.15754639
596.868	1.15769008
597.068	1.15801325
597.268	1.15833062
597.468	1.15842748
597.668	1.15846966
597.868	1.15860304
598.068	1.15860764
598.268	1.15909464
598.467	1.15944586
598.667	1.15966374
598.867	1.15971287
599.067	1.16008958
599.267	1.16035331
599.467	1.16046524
599.667	1.16018484
599.866	1.16029513
600.066	1.16032996
600.266	1.16006547
600.466	1.15997429
600.665	1.15979022
600.865	1.15953358
601.065	1.1601258
601.264	1.15989369
601.464	1.15986486
601.664	1.16051774
601.863	1.16073946
602.063	1.16119796
602.263	1.1609404
602.462	1.16068047
602.662	1.16079059
602.861	1.1605051
603.061	1.16038428
603.26	1.16003704
603.46	1.15943535
603.659	1.15955035
603.859	1.15932964
604.058	1.15897936
604.258	1.15893746
604.457	1.15905835
604.657	1.15866293
604.856	1.15849219
605.056	1.15850298
605.255	1.15832711
605.454	1.15800032
605.654	1.15779798
605.853	1.15717058
606.052	1.15669803
606.252	1.15649567
606.451	1.1562687
606.65	1.15609823
606.849	1.1555352
607.049	1.15504782
607.248	1.1544325
607.447	1.15435561
607.646	1.15432763
607.845	1.15381483
608.045	1.15309458
608.244	1.15312121
608.443	1.15279223
608.642	1.15265318
608.841	1.15210926
609.04	1.15128448
609.239	1.1510002
609.438	1.15061794
609.637	1.1501329
609.836	1.14979873
610.035	1.14922912
610.234	1.14890735
610.433	1.14862852
610.632	1.14815243
610.831	1.14762545
611.03	1.14695097
611.229	1.14650528
611.428	1.14600133
611.627	1.14552721
611.826	1.144734
612.025	1.14412697
612.224	1.14338965
612.422	1.14255374
612.621	1.14135108
612.82	1.14052348
613.019	1.13941014
613.218	1.13873545
613.416	1.13768013
613.615	1.1368937
613.814	1.13601132
614.012	1.13548956
614.211	1.13453303
614.41	1.13396512
614.608	1.13321085
614.807	1.13246548
615.006	1.13174892
615.204	1.13093617
615.403	1.13040168
615.602	1.12978823
615.8	1.12881845
615.999	1.12758903
616.197	1.12659404
616.396	1.12566387
616.594	1.12478801
616.793	1.1236672
616.991	1.12258249
617.19	1.12149441
617.388	1.12096894
617.586	1.12003021
617.785	1.11911476
617.983	1.11850293
618.182	1.11736976
618.38	1.11628727
618.578	1.11539659
618.777	1.11445201
618.975	1.1137713
619.173	1.11289526
619.372	1.11191771
619.57	1.11105009
619.768	1.11041986
619.966	1.10933978
620.165	1.10778348
620.363	1.10661054
620.561	1.10526114
620.759	1.10391959
620.957	1.10276805
621.155	1.10140917
621.354	1.10053544
621.552	1.09990119
621.75	1.09854789
621.948	1.09786181
622.146	1.09682781
622.344	1.09558476
622.542	1.0945945
622.74	1.0929625
622.938	1.09171749
623.136	1.09089622
623.334	1.08969206
623.532	1.08834539
623.73	1.0875881
623.928	1.08646823
624.126	1.0857817
624.324	1.08484578
624.522	1.0833208
624.719	1.08180621
624.917	1.08078908
625.115	1.07908274
625.313	1.07780441
625.511	1.07648621
625.708	1.07469398
625.906	1.07337142
626.104	1.07203201
626.302	1.07058131
626.499	1.06920521
626.697	1.06776159
626.895	1.06628633
627.093	1.06518592
627.29	1.06403602
627.488	1.06272371
627.686	1.06157954
627.883	1.06049251
628.081	1.05900179
628.278	1.05783008
628.476	1.05642353
628.673	1.05497019
628.871	1.05354536
629.068	1.05198558
629.266	1.05037388
629.463	1.04919509
629.661	1.0474849
629.858	1.04602205
630.056	1.04440702
630.253	1.04319263
630.451	1.04168419
630.648	1.04010782
630.845	1.03839374
631.043	1.03683459
631.24	1.03540132
631.438	1.03377821
631.635	1.03186253
631.832	1.03003706
632.029	1.02875443
632.227	1.02710036
632.424	1.02571482
632.621	1.02388015
632.818	1.02246682
633.016	1.02089318
633.213	1.01940006
633.41	1.01743441
633.607	1.01573437
633.804	1.01400749
634.001	1.0124066
634.199	1.01053878
634.396	1.00895728
634.593	1.00723439
634.79	1.00586999
634.987	1.00415256
635.184	1.00257113
635.381	1.00088609
635.578	0.99943365
635.775	0.99790961
635.972	0.99651343
636.169	0.99491613
636.366	0.99355234
636.563	0.99181352
636.76	0.9902034
636.957	0.98849767
637.153	0.98634418
637.35	0.98455594
637.547	0.98250982
637.744	0.98035882
637.941	0.97873871
638.138	0.97665213
638.334	0.97487825
638.531	0.97338082
638.728	0.97164779
638.925	0.97016504
639.121	0.96883114
639.318	0.96696319
639.515	0.96547726
639.711	0.96388218
639.908	0.96193183
640.105	0.96002319
640.301	0.95806569
640.498	0.95605679
640.695	0.95447913
640.891	0.95271855
641.088	0.95072054
641.284	0.9490662
641.481	0.94747092
641.677	0.94577071
641.874	0.94392313
642.07	0.94187168
642.267	0.9404022
642.463	0.93851575
642.66	0.93688113
642.856	0.93483397
643.053	0.93267625
643.249	0.93076314
643.445	0.928908
643.642	0.92653286
643.838	0.92482385
644.034	0.92281078
644.231	0.92091856
644.427	0.91923244
644.623	0.91741959
644.82	0.91569732
645.016	0.91389363
645.212	0.91184908
645.408	0.90990404
645.604	0.90827736
645.801	0.90644073
645.997	0.90443482
646.193	0.90225629
646.389	0.90034052
646.585	0.89845065
646.781	0.89650361
646.977	0.89437663
647.173	0.89224909
647.37	0.89033767
647.566	0.88842077
647.762	0.88646284
647.958	0.88469719
648.154	0.88270574
648.35	0.88083457
648.546	0.87881719
648.742	0.87688014
648.937	0.87497967
649.133	0.87322776
649.329	0.87121369
649.525	0.86928656
649.721	0.86723797
649.917	0.86555435
650.113	0.86364988
650.309	0.86178533
650.504	0.85964013
650.7	0.857575
650.896	0.85551899
651.092	0.85347289
651.287	0.85135934
651.483	0.84924792
651.679	0.84712581
651.875	0.84510556
652.07	0.84308753
652.266	0.84114954
652.462	0.83918753
652.657	0.83707032
652.853	0.83496423
653.048	0.83294183
653.244	0.83091186
653.44	0.82888496
653.635	0.82662116
653.831	0.82447997
654.026	0.82263378
654.222	0.82057286
654.417	0.81864904
654.613	0.8164875
654.808	0.81432044
655.004	0.81246678
655.199	0.81055681
655.394	0.80856041
655.59	0.80677607
655.785	0.80454964
655.98	0.80259794
656.176	0.80045473
656.371	0.79854384
656.566	0.79654238
656.762	0.79450509
656.957	0.79244587
657.152	0.79042561
657.348	0.78840801
657.543	0.78665536
657.738	0.78452891
657.933	0.78251829
658.128	0.78026771
658.324	0.77802625
658.519	0.77618743
658.714	0.77425328
658.909	0.77203006
659.104	0.77002886
659.299	0.76793709
659.494	0.76591255
659.689	0.76408569
659.884	0.76175314
660.079	0.75949919
660.274	0.75744212
660.469	0.7553506
660.664	0.75345296
660.859	0.75149548
661.054	0.74934618
661.249	0.74741121
661.444	0.74549286
661.639	0.74340631
661.834	0.74136381
662.029	0.73923684
662.224	0.73707329
662.418	0.73501489
662.613	0.73302867
662.808	0.73078444
663.003	0.72885257
663.198	0.72685
663.392	0.724644
663.587	0.72286132
663.782	0.72073543
663.977	0.71861366
664.171	0.71676688
664.366	0.71459097
664.561	0.71242856
664.755	0.71037721
664.95	0.70822569
665.144	0.7062739
665.339	0.70436945
665.534	0.70234595
665.728	0.70047892
665.923	0.69861457
666.117	0.69670768
666.312	0.69466068
666.506	0.69267564
666.701	0.69054746
666.895	0.68847505
667.09	0.68630408
667.284	0.68414567
667.479	0.68195154
667.673	0.67978024
667.867	0.67761165
668.062	0.67557745
668.256	0.67355658
668.45	0.67178891
668.645	0.66974549
668.839	0.66773879
669.033	0.66578533
669.228	0.66384501
669.422	0.66191516
669.616	0.65984198
669.81	0.65778365
670.004	0.6559049
670.199	0.65410592
670.393	0.65216437
670.587	0.65015722
670.781	0.64819212
670.975	0.64622876
671.169	0.64402571
671.363	0.64192718
671.558	0.63974196
671.752	0.63764224
671.946	0.63571622
672.14	0.63367089
672.334	0.6316098
672.528	0.62978419
672.722	0.62762161
672.916	0.62566639
673.11	0.62359338
673.304	0.6216866
673.497	0.61965126
673.691	0.61785488
673.885	0.61582471
674.079	0.6140053
674.273	0.61209834
674.467	0.61031754
674.661	0.60831052
674.854	0.60629018
675.048	0.60427382
675.242	0.60226246
675.436	0.60025491
675.629	0.59817386
675.823	0.59617689
676.017	0.59427611
676.211	0.59231174
676.404	0.5902327
676.598	0.588314
676.792	0.58639683
676.985	0.58444269
677.179	0.58231795
677.372	0.58024569
677.566	0.57841876
677.76	0.5766147
677.953	0.57463148
678.147	0.57274215
678.34	0.57090022
678.534	0.56899021
678.727	0.56698186
678.921	0.5650617
679.114	0.56296402
679.307	0.56105532
679.501	0.55901603
679.694	0.55710605
679.888	0.55524584
680.081	0.55353093
680.274	0.55144366
680.468	0.54961869
680.661	0.54771072
680.854	0.54592801
681.048	0.54408914
681.241	0.54224668
681.434	0.5403386
681.627	0.53858254
681.821	0.5367263
682.014	0.53491925
682.207	0.53301369
682.4	0.53121932
682.593	0.52952487
682.786	0.52782549
682.98	0.52613264
683.173	0.52457133
683.366	0.52299806
683.559	0.52144592
683.752	0.51977237
683.945	0.51795867
684.138	0.51618115
684.331	0.51431234
684.524	0.51258189
684.717	0.51068611
684.91	0.50891454
685.103	0.50704315
685.296	0.50518019
685.489	0.50331807
685.682	0.50147012
685.874	0.49962821
686.067	0.49781576
686.26	0.49589957
686.453	0.49410837
686.646	0.49229912
686.839	0.49060456
687.031	0.48886633
687.224	0.48692409
687.417	0.48526354
687.61	0.48354133
687.802	0.48182205
687.995	0.48020574
688.188	0.47853944
688.38	0.47683877
688.573	0.47526341
688.766	0.47352731
688.958	0.47177434
689.151	0.46997013
689.343	0.46817851
689.536	0.46636817
689.729	0.46472749
689.921	0.4629386
690.114	0.46112379
690.306	0.45949151
690.499	0.45800873
690.691	0.4564641
690.884	0.45483534
691.076	0.45318866
691.268	0.45156245
691.461	0.44989982
691.653	0.44834942
691.846	0.44666346
692.038	0.44503799
692.23	0.4433854
692.423	0.44179391
692.615	0.44026793
692.807	0.43879525
692.999	0.43716914
693.192	0.43563807
693.384	0.43416539
693.576	0.43262873
693.768	0.43104806
693.961	0.42940426
694.153	0.42786791
694.345	0.4262321
694.537	0.42458695
694.729	0.4228928
694.921	0.42124849
695.113	0.41975173
695.305	0.41825692
695.498	0.41663129
695.69	0.41516893
695.882	0.41357502
696.074	0.41213616
696.266	0.41060316
696.458	0.40893471
696.65	0.4073941
696.842	0.40588975
697.033	0.40434043
697.225	0.40276349
697.417	0.40119841
697.609	0.39964706
697.801	0.3981456
697.993	0.39660797
698.185	0.39507709
698.376	0.39359171
698.568	0.39216423
698.76	0.39084004
698.952	0.38954222
699.144	0.38824013
699.335	0.38694088
699.527	0.38553445
699.719	0.38415872
699.91	0.38279915
700.102	0.38127863
700.294	0.3797516
700.485	0.37825179
700.677	0.37669176
700.869	0.37539938
701.06	0.37396867
701.252	0.37257245
701.443	0.37119101
701.635	0.36987177
701.826	0.36848143
702.018	0.36719685
702.209	0.36586668
702.401	0.36456136
702.592	0.36326648
702.784	0.36195865
702.975	0.36060054
703.166	0.35935384
703.358	0.35790634
703.549	0.35650296
703.741	0.35508667
703.932	0.35364124
704.123	0.352197
704.315	0.35090697
704.506	0.34958904
704.697	0.34826933
704.888	0.34705936
705.08	0.34582893
705.271	0.3446253
705.462	0.34338613
705.653	0.34205184
705.844	0.34073648
706.035	0.33951621
706.227	0.33825181
706.418	0.33698509
706.609	0.33582443
706.8	0.33467137
706.991	0.33354169
707.182	0.33240155
707.373	0.33119122
707.564	0.32995455
707.755	0.32879594
707.946	0.32759052
708.137	0.32641509
708.328	0.32531259
708.519	0.32427433
708.71	0.32321271
708.901	0.32208755
709.092	0.32099084
709.283	0.31987071
709.473	0.31871552
709.664	0.31755858
709.855	0.31629733
710.046	0.31518849
710.237	0.31406307
710.427	0.31284495
710.618	0.31161985
710.809	0.31040183
711	0.30922678
711.19	0.30807475
711.381	0.30699024
711.572	0.30592449
711.762	0.30501731
711.953	0.30403286
712.144	0.30301175
712.334	0.30191904
712.525	0.300951
712.715	0.29982605
712.906	0.29873129
713.097	0.2975281
713.287	0.29643137
713.478	0.29539765
713.668	0.29438248
713.859	0.29329133
714.049	0.29237763
714.239	0.29146977
714.43	0.2906151
714.62	0.2897695
714.811	0.2888534
715.001	0.28800304
715.191	0.28709638
715.382	0.28600149
715.572	0.28494458
715.762	0.28387387
715.953	0.28284896
716.143	0.28178356
716.333	0.28070513
716.523	0.27964648
716.714	0.27869842
716.904	0.27766862
717.094	0.27673353
717.284	0.27583637
717.474	0.27502976
717.664	0.2742973
717.855	0.27347777
718.045	0.27261367
718.235	0.27176136
718.425	0.27084641
718.615	0.2697834
718.805	0.26877407
718.995	0.26770482
719.185	0.26679779
719.375	0.26588034
719.565	0.26499547
719.755	0.26405632
719.945	0.26334215
720.135	0.26257192
720.325	0.26185561
720.515	0.26104404
720.704	0.26032696
720.894	0.25954435
721.084	0.25871465
721.274	0.25779062
721.464	0.25694974
721.654	0.25619203
721.843	0.25543866
722.033	0.25467892
722.223	0.25396754
722.413	0.25336137
722.602	0.25270557
722.792	0.25196509
722.982	0.25121146
723.171	0.25055475
723.361	0.24985296
723.55	0.24918848
723.74	0.24855988
723.93	0.24790811
724.119	0.24729258
724.309	0.24648203
724.498	0.24559797
724.688	0.24468548
724.877	0.24379403
725.067	0.24285292
725.256	0.24194989
725.446	0.24102849
725.635	0.24021989
725.825	0.23942978
726.014	0.23869878
726.203	0.23799727
726.393	0.23726713
726.582	0.23650794
726.771	0.23580659
726.961	0.23500452
727.15	0.23428198
727.339	0.23361847
727.529	0.23295901
727.718	0.23230759
727.907	0.23163887
728.096	0.23098129
728.286	0.23044804
728.475	0.22988681
728.664	0.22930115
728.853	0.22878187
729.042	0.22813038
729.231	0.22760498
729.42	0.22696042
729.609	0.22631696
729.799	0.22557795
729.988	0.22487376
730.177	0.22397844
730.366	0.22325347
730.555	0.22241413
730.744	0.22171766
730.933	0.22094719
731.122	0.22026636
731.31	0.21961716
731.499	0.21908468
731.688	0.2185476
731.877	0.21808919
732.066	0.21761935
732.255	0.21714748
732.444	0.21669623
732.632	0.21615781
732.821	0.21563384
733.01	0.21511506
733.199	0.21461
733.388	0.21413062
733.576	0.21375236
733.765	0.21336636
733.954	0.2130253
734.142	0.21257632
734.331	0.21208221
734.52	0.21157845
734.708	0.21094853
734.897	0.21034319
735.086	0.20966393
735.274	0.20898701
735.463	0.20837288
735.651	0.20777891
735.84	0.20721002
736.028	0.20668071
736.217	0.2061881
736.405	0.20578138
736.594	0.20539087
736.782	0.20491025
736.971	0.20446049
737.159	0.20396141
737.347	0.20345619
737.536	0.20286006
737.724	0.20219889
737.912	0.20145919
738.101	0.20082961
738.289	0.20022424
738.477	0.19957784
738.666	0.19897994
738.854	0.19849365
739.042	0.19810959
739.23	0.19777876
739.418	0.19749705
739.607	0.19726839
739.795	0.19711233
739.983	0.19696366
740.171	0.19673869
740.359	0.19644229
740.547	0.19608736
740.735	0.1956661
740.923	0.19517812
741.112	0.19472521
741.3	0.19422244
741.488	0.19367407
741.676	0.19315374
741.864	0.19275694
742.052	0.19242233
742.239	0.19204912
742.427	0.19161627
742.615	0.19122518
742.803	0.19085929
742.991	0.19053283
743.179	0.19021367
743.367	0.18986732
743.555	0.18968203
743.742	0.18953395
743.93	0.18937608
744.118	0.18910989
744.306	0.18878109
744.494	0.18832192
744.681	0.1879131
744.869	0.18737407
745.057	0.18683356
745.244	0.1862783
745.432	0.18590408
745.62	0.18554424
745.807	0.18535457
745.995	0.18506474
746.182	0.18477403
746.37	0.18448332
746.558	0.18425267
746.745	0.1839659
746.933	0.18370385
747.12	0.18335929
747.308	0.1830829
747.495	0.18277176
747.683	0.18244415
747.87	0.18209911
748.057	0.18176454
748.245	0.18135869
748.432	0.1809503
748.62	0.18058649
748.807	0.18030729
748.994	0.1800737
749.182	0.17983674
749.369	0.17961245
749.556	0.17933295
749.743	0.17906103
749.931	0.17874321
750.118	0.17854488
750.305	0.17829558
750.492	0.17803317
750.68	0.17785233
750.867	0.17778684
751.054	0.17772083
751.241	0.17765521
751.428	0.17747733
751.615	0.17739576
751.802	0.17736118
751.989	0.17722176
752.176	0.17714142
752.363	0.17699317
752.55	0.17686546
752.737	0.17668902
752.924	0.17632978
753.111	0.17590035
753.298	0.17550091
753.485	0.175028
753.672	0.17461182
753.859	0.17417912
754.046	0.17376367
754.233	0.17353948
754.42	0.17333078
754.606	0.1730713
754.793	0.17293588
754.98	0.17279346
755.167	0.17262197
755.353	0.17254429
755.54	0.17237278
755.727	0.17220133
755.914	0.17205108
756.1	0.17187906
756.287	0.17167278
756.474	0.17143184
756.66	0.17110355
756.847	0.17077579
757.033	0.17045917
757.22	0.17019342
757.407	0.16989101
757.593	0.16959302
757.78	0.169324
757.966	0.16914945
758.153	0.16896923
758.339	0.16884781
758.526	0.16873242
758.712	0.16862005
758.898	0.16859474
759.085	0.16860457
759.271	0.16864121
759.458	0.16874622
759.644	0.16893513
759.83	0.1690833
760.017	0.16915794
760.203	0.16915945
760.389	0.16912423
760.576	0.16896971
760.762	0.1687313
760.948	0.16831549
761.134	0.1679498
761.32	0.16759172
761.507	0.1674152
761.693	0.1672174
761.879	0.16699614
762.065	0.16683104
762.251	0.16673133
762.437	0.16656827
762.623	0.16642998
762.809	0.16620381
762.995	0.16608434
763.181	0.1659658
763.367	0.1659421
763.553	0.16594154
763.739	0.16597535
763.925	0.16602161
764.111	0.16604471
764.297	0.16604692
764.483	0.16609858
764.669	0.1660358
764.855	0.16594042
765.041	0.16581659
765.227	0.16565476
765.412	0.16546019
765.598	0.16526322
765.784	0.16517288
765.97	0.16516518
766.156	0.16515405
766.341	0.16518574
766.527	0.1652431
766.713	0.16532725
766.898	0.16537509
767.084	0.16538037
767.27	0.16524517
767.455	0.16522929
767.641	0.16518285
767.827	0.16519268
768.012	0.16518837
768.198	0.16520803
768.383	0.16515664
768.569	0.16518382
768.754	0.16518486
768.94	0.16524148
769.125	0.1652802
769.311	0.1652745
769.496	0.16519354
769.682	0.16525815
769.867	0.16529482
770.052	0.16526709
770.238	0.16514517
770.423	0.16500044
770.608	0.16496048
770.794	0.16494342
770.979	0.16478551
771.164	0.16470703
771.35	0.16460836
771.535	0.16457902
771.72	0.16453617
771.905	0.16445152
772.09	0.16444372
772.276	0.16452271
772.461	0.16457811
772.646	0.16461764
772.831	0.16461796
773.016	0.16472436
773.201	0.16486348
773.386	0.16504498
773.571	0.16502423
773.756	0.16498574
773.941	0.16490679
774.126	0.16490701
774.311	0.1648458
774.496	0.16471411
774.681	0.1645279
774.866	0.16447151
775.051	0.16443117
775.236	0.16457273
775.421	0.16465958
775.606	0.16477758
775.791	0.1648816
775.976	0.1649638
776.16	0.16499333
776.345	0.16499068
776.53	0.16484615
776.715	0.16479575
776.899	0.16471564
777.084	0.1646506
777.269	0.16465004
777.454	0.16469029
777.638	0.1647756
777.823	0.16487303
778.008	0.16481691
778.192	0.16476913
778.377	0.1646947
778.561	0.16458069
778.746	0.16444761
778.931	0.16438741
779.115	0.16428759
779.3	0.16425127
779.484	0.16424237
779.669	0.16437647
779.853	0.16450548
780.037	0.16467886
780.222	0.16474177
780.406	0.16479002
780.591	0.1648088
780.775	0.16474773
780.959	0.16463279
781.144	0.16448909
781.328	0.16428791
781.512	0.16404081
781.697	0.16388056
781.881	0.16365714
782.065	0.16340691
782.249	0.16304415
782.434	0.16270311
782.618	0.16241418
782.802	0.16226166
782.986	0.16206591
783.17	0.16197494
783.354	0.1619666
783.539	0.16209601
783.723	0.16227825
783.907	0.16249377
784.091	0.16262279
784.275	0.16286358
784.459	0.16296364
784.643	0.16303084
784.827	0.16301225
785.011	0.16297726
785.195	0.16288162
785.379	0.16286175
785.563	0.16279548
785.747	0.16277318
785.93	0.16272845
786.114	0.16263701
786.298	0.16256925
786.482	0.16255448
786.666	0.16244651
786.85	0.16233072
787.033	0.16231904
787.217	0.16244587
787.401	0.16262995
787.585	0.16279795
787.768	0.16294485
787.952	0.163099
788.136	0.16322062
788.319	0.16332193
788.503	0.16338514
788.687	0.16353284
788.87	0.16363373
789.054	0.16372807
789.237	0.16383785
789.421	0.16392154
789.605	0.16400509
789.788	0.16405814
789.972	0.16407456
790.155	0.16406452
790.338	0.16405957
790.522	0.16412699
790.705	0.16419547
790.889	0.16424733
791.072	0.16432435
791.256	0.16435234
791.439	0.16442712
791.622	0.16446644
791.806	0.16452544
791.989	0.16457803
792.172	0.16464708
792.355	0.16466453
792.539	0.16473076
792.722	0.16477394
792.905	0.16484214
793.088	0.16484546
793.271	0.16497642
793.455	0.16509047
793.638	0.16526535
793.821	0.16522445
794.004	0.16522502
794.187	0.16521946
794.37	0.16522823
794.553	0.16521939
794.736	0.16520853
794.919	0.16509019
795.102	0.16534604
795.285	0.16562245
795.468	0.16601031
795.651	0.16648851
795.834	0.16703939
796.017	0.16764111
796.2	0.16816524
796.383	0.16856012
796.566	0.16891664
796.749	0.16914521
796.931	0.1692821
797.114	0.16924225
797.297	0.16909946
797.48	0.16903036
797.663	0.16890583
797.845	0.16879771
798.028	0.16871425
798.211	0.16857194
798.393	0.16848846
798.576	0.16844698
798.759	0.16833901
798.941	0.16824295
799.124	0.16820593
799.307	0.16817804
799.489	0.16819913
799.672	0.16820792
799.854	0.16817952
800.037	0.16820531
800.219	0.16821068
800.402	0.16816391
800.584	0.1681691
800.767	0.16824884
800.949	0.16834758
801.132	0.16850357
801.314	0.16876229
801.496	0.16894107
801.679	0.16901401
801.861	0.16896403
802.043	0.16888521
802.226	0.16873424
802.408	0.16867522
802.59	0.16857753
802.772	0.1686342
802.955	0.16886541
803.137	0.16906767
803.319	0.16927625
803.501	0.16953054
803.684	0.16971149
803.866	0.16984946
804.048	0.16997193
804.23	0.16995011
804.412	0.17004329
804.594	0.17002441
804.776	0.17007352
804.958	0.17017189
805.14	0.17022376
805.322	0.17013399
805.504	0.17018691
805.686	0.17015098
805.868	0.17012303
806.05	0.17008651
806.232	0.17005211
806.414	0.17022841
806.596	0.1704873
806.778	0.17058082
806.96	0.17078832
807.141	0.17099306
807.323	0.1711639
807.505	0.17113353
807.687	0.1709343
807.869	0.17066129
808.05	0.17040068
808.232	0.17005908
808.414	0.16969417
808.595	0.1692512
808.777	0.16909238
808.959	0.16900396
809.14	0.16895931
809.322	0.16902674
809.504	0.1691135
809.685	0.16922279
809.867	0.16930446
810.048	0.16916884
810.23	0.16900819
810.411	0.16888264
810.593	0.16875431
810.774	0.16861398
810.956	0.1685605
811.137	0.16866545
811.319	0.16885427
811.5	0.16903602
811.681	0.16929289
811.863	0.16945114
812.044	0.16957194
812.225	0.16966517
812.407	0.16953578
812.588	0.16935348
812.769	0.1691753
812.951	0.16894311
813.132	0.16879365
813.313	0.16871709
813.494	0.16866626
813.675	0.16875523
813.857	0.16900561
814.038	0.16935308
814.219	0.16954111
814.4	0.16978545
814.581	0.17004697
814.762	0.17026656
814.943	0.17040924
815.124	0.17042838
815.305	0.17031572
815.486	0.17038554
815.667	0.17034086
815.848	0.17025776
816.029	0.1701193
816.21	0.17017831
816.391	0.17029227
816.572	0.17035561
816.753	0.17044251
816.934	0.1705328
817.115	0.1705811
817.295	0.17062499
817.476	0.17051448
817.657	0.17036136
817.838	0.17041509
818.019	0.17036477
818.199	0.17034499
818.38	0.17040932
818.561	0.17061502
818.741	0.17082896
818.922	0.17112046
819.103	0.17138058
819.283	0.17165679
819.464	0.17200086
819.645	0.17225649
819.825	0.17252055
820.006	0.17276801
820.186	0.17287222
820.367	0.17296385
820.547	0.173055
820.728	0.17311188
820.908	0.1731431
821.089	0.17308347
821.269	0.17301165
821.45	0.17299187
821.63	0.1729574
821.81	0.17293067
821.991	0.17284537
822.171	0.172907
822.351	0.17293949
822.532	0.17305762
822.712	0.17313947
822.892	0.17322068
823.072	0.17340551
823.253	0.17357809
823.433	0.17366306
823.613	0.17375147
823.793	0.17387297
823.973	0.17415493
824.154	0.17437248
824.334	0.17455058
824.514	0.17472577
824.694	0.17499885
824.874	0.1752557
825.054	0.17539474
825.234	0.17546887
825.414	0.17544667
825.594	0.1753726
825.774	0.1752127
825.954	0.174942
826.134	0.17479696
826.314	0.1746743
826.494	0.17445138
826.674	0.17428991
826.854	0.17420014
827.033	0.17422972
827.213	0.17440111
827.393	0.17451046
827.573	0.1747331
827.753	0.17495586
827.932	0.1752917
828.112	0.17564506
828.292	0.17595029
828.472	0.17605157
828.651	0.17603588
828.831	0.17588462
829.011	0.17586767
829.19	0.17575316
829.37	0.17569557
829.549	0.1756173
829.729	0.17564635
829.909	0.17575442
830.088	0.17594429
830.268	0.17608543
830.447	0.17627456
830.627	0.17644718
830.806	0.17664101
830.986	0.17668729
831.165	0.17674088
831.344	0.17674256
831.524	0.17659315
831.703	0.17656308
831.883	0.17638178
832.062	0.17634515
832.241	0.1764565
832.421	0.17666186
832.6	0.17687589
832.779	0.1772041
832.958	0.17729089
833.138	0.17732489
833.317	0.17737369
833.496	0.17730437
833.675	0.17713293
833.854	0.17704989
834.034	0.17687821
834.213	0.17673378
834.392	0.17679573
834.571	0.17663731
834.75	0.17663856
834.929	0.17661267
835.108	0.17648702
835.287	0.17646221
835.466	0.17661619
835.645	0.17670927
835.824	0.17692582
836.003	0.1770297
836.182	0.17710354
836.361	0.17726361
836.54	0.17737942
836.719	0.17750161
836.897	0.17742328
837.076	0.17739246
837.255	0.17742703
837.434	0.17753705
837.613	0.17755799
837.791	0.17762343
837.97	0.17754704
838.149	0.17751687
838.328	0.17738747
838.506	0.17727477
838.685	0.17710344
838.864	0.17696741
839.042	0.17692696
839.221	0.17698616
839.4	0.1771345
839.578	0.17740548
839.757	0.17757618
839.935	0.17790264
840.114	0.17804387
840.292	0.17792603
840.471	0.1777634
840.649	0.17767432
840.828	0.17748975
841.006	0.17727489
841.185	0.17705826
841.363	0.17718846
841.541	0.17736945
841.72	0.1776591
841.898	0.17787146
842.076	0.17814236
842.255	0.17852838
842.433	0.17886832
842.611	0.17901827
842.789	0.17920899
842.968	0.17930874
843.146	0.17930446
843.324	0.17931081
843.502	0.17936279
843.68	0.17940159
843.859	0.17938395
844.037	0.17919157
844.215	0.17892907
844.393	0.17874159
844.571	0.17852748
844.749	0.17831654
844.927	0.1780815
845.105	0.17794442
845.283	0.17797039
845.461	0.178134
845.639	0.17825751
845.817	0.17830376
845.995	0.17835965
846.173	0.17844406
846.351	0.17829691
846.529	0.17823533
846.706	0.17807046
846.884	0.17797008
847.062	0.17793249
847.24	0.1778633
847.418	0.17779623
847.595	0.17797126
847.773	0.17801267
847.951	0.17801318
848.129	0.17788805
848.306	0.17779667
848.484	0.17761807
848.662	0.17744823
848.839	0.17723817
849.017	0.17705452
849.194	0.17687943
849.372	0.1769327
849.549	0.17693113
849.727	0.17695338
849.905	0.17698734
850.082	0.17715899
850.26	0.17743842
850.437	0.17776377
850.614	0.17793869
850.792	0.17808971
850.969	0.17832176
851.147	0.17840642
851.324	0.17835866
851.501	0.17830386
851.679	0.17822314
851.856	0.17821201
852.033	0.17828741
852.211	0.17829114
852.388	0.17834075
852.565	0.17842034
852.742	0.1785547
852.92	0.17858729
853.097	0.17864044
853.274	0.17870992
853.451	0.17871434
853.628	0.17871918
853.805	0.17859132
853.982	0.1783714
854.159	0.17811484
854.336	0.17789022
854.514	0.17770981
854.691	0.17762501
854.868	0.17764431
855.045	0.17786685
855.221	0.17804075
855.398	0.17833335
855.575	0.1783932
855.752	0.17841308
855.929	0.1783882
856.106	0.17821293
856.283	0.17788599
856.46	0.17758088
856.637	0.17737103
856.813	0.17722173
856.99	0.17700048
857.167	0.17684367
857.344	0.17680563
857.52	0.17683048
857.697	0.17681876
857.874	0.17675179
858.05	0.17685945
858.227	0.17695651
858.404	0.17699521
858.58	0.17707811
858.757	0.17711582
858.933	0.17725297
859.11	0.1772931
859.287	0.17709073
859.463	0.17695745
859.64	0.17689651
859.816	0.17665949
859.993	0.1764959
860.169	0.17631446
860.345	0.17627441
860.522	0.1763497
860.698	0.17642539
860.875	0.1764491
861.051	0.17677013
861.227	0.17703572
861.404	0.17727337
861.58	0.17745272
861.756	0.17752932
861.932	0.17756364
862.109	0.17756696
862.285	0.17741607
862.461	0.17715047
862.637	0.17689613
862.813	0.17657942
862.99	0.1764049
863.166	0.17608205
863.342	0.17596832
863.518	0.17564548
863.694	0.17554308
863.87	0.17534593
864.046	0.17531944
864.222	0.17518764
864.398	0.17518048
864.574	0.17502662
864.75	0.17508347
864.926	0.17503806
865.102	0.1750417
865.278	0.17479075
865.454	0.17472135
865.63	0.17463631
865.805	0.1746076
865.981	0.17461458
866.157	0.17469221
866.333	0.17474551
866.509	0.17499489
866.684	0.1751843
866.86	0.17540017
867.036	0.17544047
867.212	0.17520737
867.387	0.17494511
867.563	0.17472482
867.739	0.17449454
867.914	0.17426322
868.09	0.17402
868.265	0.17376414
868.441	0.17373786
868.617	0.17365958
868.792	0.17378167
868.968	0.1737682
869.143	0.1737987
869.319	0.17382316
869.494	0.17385831
869.67	0.1738441
869.845	0.17387991
870.02	0.17368731
870.196	0.1736566
870.371	0.17359815
870.546	0.17349028
870.722	0.17359491
870.897	0.17360991
871.072	0.1735091
871.248	0.173426
871.423	0.17334032
871.598	0.1731441
871.773	0.17292413
871.949	0.1726634
872.124	0.17254584
872.299	0.17247767
872.474	0.17246452
872.649	0.1724254
872.824	0.17248803
872.999	0.17268547
873.174	0.17279941
873.349	0.1727155
873.524	0.1726048
873.699	0.17244526
873.874	0.17214677
874.049	0.17188939
874.224	0.17156987
874.399	0.171233
874.574	0.17105236
874.749	0.17087283
874.924	0.17074887
875.099	0.17067731
875.274	0.17066705
875.449	0.17067812
875.623	0.17055093
875.798	0.17028256
875.973	0.17014535
876.148	0.16986906
876.322	0.16978707
876.497	0.16950532
876.672	0.16917797
876.846	0.16899624
877.021	0.16882788
877.196	0.16864794
877.37	0.16878078
877.545	0.16882313
877.72	0.16874317
877.894	0.1688156
878.069	0.16879965
878.243	0.16893283
878.418	0.16903582
878.592	0.16894838
878.767	0.16885358
878.941	0.16894248
879.116	0.16894626
879.29	0.16909443
879.464	0.16912259
879.639	0.1691538
879.813	0.16932744
879.987	0.16935745
880.162	0.16938533
880.336	0.16937713
880.51	0.1692516
880.685	0.16927585
880.859	0.16918132
881.033	0.1688563
881.207	0.16851482
881.381	0.1683596
881.556	0.16805747
881.73	0.16788448
881.904	0.16775097
882.078	0.16758684
882.252	0.16752344
882.426	0.16748342
882.6	0.1673071
882.774	0.16721924
882.948	0.16695527
883.122	0.16666974
883.296	0.16641644
883.47	0.1662263
883.644	0.1661742
883.818	0.16604222
883.992	0.16610984
884.166	0.16629025
884.34	0.16629263
884.514	0.16639099
884.687	0.1663551
884.861	0.16626945
885.035	0.16624434
885.209	0.16591267
885.382	0.16563542
885.556	0.16533764
885.73	0.16516168
885.904	0.16500654
886.077	0.16476232
886.251	0.16446566
886.425	0.16432874
886.598	0.16410442
886.772	0.16394634
886.945	0.16364515
887.119	0.16350433
887.292	0.16337359
887.466	0.16342079
887.64	0.16328588
887.813	0.16331439
887.986	0.16344275
888.16	0.16365392
888.333	0.16348222
888.507	0.16338815
888.68	0.16315743
888.854	0.16319712
889.027	0.16296492
889.2	0.16292523
889.374	0.16258746
889.547	0.16257317
889.72	0.1625984
889.893	0.16251881
890.067	0.16230737
890.24	0.16207341
890.413	0.16173213
890.586	0.16151498
890.759	0.16130748
890.933	0.16109547
891.106	0.16083967
891.279	0.16065223
891.452	0.16062091
891.625	0.16052582
891.798	0.16057059
891.971	0.16050973
892.144	0.16048851
892.317	0.16073864
892.49	0.16076667
892.663	0.16088333
892.836	0.16095938
893.009	0.1609502
893.182	0.1609289
893.355	0.16091087
893.527	0.16081984
893.7	0.16095111
893.873	0.16103191
894.046	0.16096555
894.219	0.16099765
894.391	0.16099941
894.564	0.16088872
894.737	0.16067819
894.91	0.16043964
895.082	0.16003344
895.255	0.15975115
895.428	0.1594553
895.6	0.15901985
895.773	0.15861611
895.945	0.15828344
896.118	0.15801255
896.291	0.15781558
896.463	0.15759293
896.636	0.15730749
896.808	0.15711219
896.981	0.15680163
897.153	0.15640766
897.326	0.15593214
897.498	0.15547611
897.67	0.15509472
897.843	0.15477163
898.015	0.15455629
898.187	0.15441177
898.36	0.15422249
898.532	0.15411041
898.704	0.15407195
898.877	0.15381703
899.049	0.15355816
899.221	0.15339884
899.393	0.15320337
899.566	0.15319344
899.738	0.15294684
899.91	0.15271064
900.082	0.15252339
900.254	0.15228939
900.426	0.1519957
900.598	0.15183599
900.77	0.15161045
900.942	0.1516166
901.114	0.15162986
901.286	0.15186773
901.458	0.15217493
901.63	0.15250202
901.802	0.15268548
901.974	0.15285421
902.146	0.1528921
902.318	0.15281363
902.49	0.15267205
902.662	0.15248564
902.834	0.1521465
903.005	0.15185808
903.177	0.15148758
903.349	0.15114417
903.521	0.15080446
903.693	0.15046269
903.864	0.15012966
904.036	0.14993864
904.208	0.14978825
904.379	0.14961362
904.551	0.1495347
904.723	0.14940321
904.894	0.14924876
905.066	0.14915284
905.237	0.14903004
905.409	0.14881917
905.58	0.14875904
905.752	0.14852586
905.923	0.14839987
906.095	0.14824669
906.266	0.14791075
906.438	0.14752604
906.609	0.14728425
906.78	0.14701537
906.952	0.1469052
907.123	0.14680754
907.295	0.14686914
907.466	0.14711086
907.637	0.14727061
907.808	0.14723943
907.98	0.14721273
908.151	0.14721312
908.322	0.14717681
908.493	0.14700679
908.665	0.14676457
908.836	0.14658096
909.007	0.14651653
909.178	0.14630694
909.349	0.14608971
909.52	0.14583862
909.691	0.14547019
909.862	0.14511226
910.033	0.1447751
910.204	0.14440328
910.375	0.14429744
910.546	0.14413694
910.717	0.14398971
910.888	0.14389459
911.059	0.14382945
911.23	0.14372399
911.401	0.14365069
911.572	0.14333494
911.742	0.14316229
911.913	0.14294376
912.084	0.14268144
912.255	0.14239194
912.426	0.14204102
912.596	0.14173531
912.767	0.14152019
912.938	0.14120182
913.108	0.14094149
913.279	0.14073312
913.45	0.14050407
913.62	0.14039759
913.791	0.14022043
913.962	0.13999177
914.132	0.13970429
914.303	0.13942668
914.473	0.13923626
914.644	0.13906667
914.814	0.13896267
914.985	0.13899989
915.155	0.13892262
915.326	0.1389168
915.496	0.13895258
915.666	0.1388988
915.837	0.13893052
916.007	0.13866797
916.177	0.13812188
916.348	0.13785863
916.518	0.13753177
916.688	0.13714888
916.858	0.1369045
917.029	0.13673025
917.199	0.13677245
917.369	0.13707559
917.539	0.13720881
917.709	0.13735465
917.88	0.13741916
918.05	0.1375808
918.22	0.13757112
918.39	0.13739621
918.56	0.13712935
918.73	0.13701506
918.9	0.13687572
919.07	0.13686514
919.24	0.13669986
919.41	0.13659844
919.58	0.13651876
919.75	0.13650179
919.92	0.13633062
920.09	0.13616089
920.26	0.13596653
920.429	0.13577175
920.599	0.13542069
920.769	0.1351547
920.939	0.1348457
921.109	0.13461035
921.278	0.13429831
921.448	0.13409549
921.618	0.13390174
921.787	0.13380273
921.957	0.13376562
922.127	0.13365072
922.296	0.13352122
922.466	0.13342936
922.636	0.13327291
922.805	0.13292674
922.975	0.13262376
923.144	0.13226048
923.314	0.13195957
923.483	0.13166758
923.653	0.13144576
923.822	0.13107662
923.992	0.13091512
924.161	0.13070057
924.331	0.13050086
924.5	0.13020624
924.669	0.12991837
924.839	0.12963658
925.008	0.12939609
925.177	0.12911223
925.347	0.12890547
925.516	0.12886201
925.685	0.12870971
925.854	0.12877739
926.023	0.12868712
926.193	0.12879185
926.362	0.12886508
926.531	0.12894864
926.7	0.12883022
926.869	0.12883171
927.038	0.12844898
927.207	0.12828394
927.376	0.12788482
927.545	0.12744164
927.715	0.12705516
927.884	0.12674766
928.052	0.12647837
928.221	0.12629214
928.39	0.12595155
928.559	0.12588163
928.728	0.12590478
928.897	0.12587947
929.066	0.12591681
929.235	0.12580139
929.404	0.12565053
929.572	0.12566778
929.741	0.12552393
929.91	0.12523103
930.079	0.12460585
930.247	0.12414425
930.416	0.12382087
930.585	0.1235238
930.753	0.12323889
930.922	0.1229617
931.091	0.1228639
931.259	0.12300034
931.428	0.12280817
931.596	0.12271462
931.765	0.12280221
931.934	0.12277758
932.102	0.12241352
932.27	0.12210521
932.439	0.12177024
932.607	0.12161568
932.776	0.12161354
932.944	0.12148108
933.113	0.12145894
933.281	0.12170468
933.449	0.12168688
933.618	0.12175483
933.786	0.12173188
933.954	0.12156337
934.123	0.12119303
934.291	0.12093676
934.459	0.12073703
934.627	0.12050058
934.795	0.12029719
934.964	0.12016102
935.132	0.11981771
935.3	0.11987362
935.468	0.11959901
935.636	0.11934657
935.804	0.11941832
935.972	0.11937027
936.14	0.11944972
936.308	0.11975575
936.476	0.11980134
936.644	0.1201779
936.812	0.12053261
936.98	0.12095872
937.148	0.12138541
937.316	0.12141492
937.484	0.1215999
937.652	0.12197188
937.82	0.12208527
937.987	0.12194669
938.155	0.12151271
938.323	0.12108417
938.491	0.12122582
938.658	0.12143099
938.826	0.1212401
938.994	0.12117563
939.162	0.12182667
939.329	0.12258936
939.497	0.12362234
939.665	0.12412788
939.832	0.12482915
940	0.12542255
940.167	0.12618523
940.335	0.12655983
940.502	0.12652913
940.67	0.12651807
940.837	0.12722808
941.005	0.12713724
941.172	0.12699053
941.34	0.12740216
941.507	0.127983
941.674	0.12922605
941.842	0.12957151
942.009	0.12954026
942.177	0.12932772
942.344	0.13077535
942.511	0.13065566
942.678	0.13011819
942.846	0.12969738
943.013	0.13011899
943.18	0.12997526
943.347	0.13024555
943.514	0.12957507
943.682	0.13023577
943.849	0.1296879
944.016	0.12938029
944.183	0.1289699
944.35	0.12871253
944.517	0.12903882
944.684	0.12933613
944.851	0.12691491
945.018	0.12747719
945.185	0.12674572
945.352	0.12663778
945.519	0.12656419
945.686	0.12576388
945.853	0.12584405
946.02	0.12637815
946.187	0.12604419
946.353	0.12636327
946.52	0.12609962
946.687	0.12570785
946.854	0.12569687
947.021	0.12489453
947.187	0.12444291
947.354	0.12383116
947.521	0.12314481
947.687	0.12214193
947.854	0.12145681
948.021	0.12070445
948.187	0.12028242
948.354	0.12027979
948.52	0.11930618
948.687	0.11912736
948.854	0.11922641
949.02	0.11844995
949.187	0.11785707
949.353	0.11753197
949.52	0.11652176
949.686	0.11621285
949.852	0.11576805
950.019	0.11512508
950.185	0.11510145
950.352	0.114308
950.518	0.11290124
950.684	0.11310721
950.851	0.11294388
951.017	0.11203361
951.183	0.1116572
951.349	0.11103284
951.516	0.11062502
951.682	0.11057488
951.848	0.10958948
952.014	0.10881443
952.18	0.10837525
952.346	0.10752877
952.512	0.10686969
952.679	0.10636161
952.845	0.10572631
953.011	0.10562954
953.177	0.10522736
953.343	0.10473992
953.509	0.10464542
953.675	0.10461314
953.841	0.10426087
954.007	0.10422712
954.172	0.10368461
954.338	0.10316431
954.504	0.10241693
954.67	0.10153349
954.836	0.10083994
955.002	0.10066838
955.167	0.10012545
955.333	0.09958733
955.499	0.09926726
955.665	0.09910543
955.83	0.09946986
955.996	0.09939307
956.162	0.09882694
956.327	0.09858618
956.493	0.09859531
956.659	0.09868417
956.824	0.09818769
956.99	0.09715299
957.155	0.09662886
957.321	0.09661417
957.486	0.09625401
957.652	0.09574206
957.817	0.09578138
957.983	0.09558108
958.148	0.09559033
958.314	0.09547586
958.479	0.09489418
958.644	0.09485695
958.81	0.09460998
958.975	0.0941841
959.14	0.09455281
959.306	0.09428628
959.471	0.09431983
959.636	0.09433296
959.801	0.09432849
959.967	0.09419354
960.132	0.0939954
960.297	0.09368357
960.462	0.09385863
960.627	0.09365146
960.792	0.09335689
960.957	0.09305498
961.123	0.09325522
961.288	0.09300278
961.453	0.09314741
961.618	0.09306563
961.783	0.09302551
961.948	0.09313819
962.113	0.0930319
962.277	0.09271677
962.442	0.09242803
962.607	0.09199689
962.772	0.09152124
962.937	0.09121021
963.102	0.09101162
963.267	0.09046455
963.431	0.09022234
963.596	0.09022929
963.761	0.08992077
963.926	0.08995968
964.09	0.08960894
964.255	0.08925152
964.42	0.08904271
964.584	0.08859464
964.749	0.08813435
964.914	0.08764857
965.078	0.08701207
965.243	0.08662299
965.407	0.08649267
965.572	0.08645754
965.736	0.08628765
965.901	0.08628177
966.065	0.08653491
966.23	0.08633409
966.394	0.08632845
966.559	0.08621538
966.723	0.08631102
966.887	0.0861627
967.052	0.0858484
967.216	0.08570382
967.38	0.08554107
967.545	0.08555894
967.709	0.08518496
967.873	0.08482884
968.037	0.08476568
968.202	0.0847376
968.366	0.08467305
968.53	0.08475265
968.694	0.08460644
968.858	0.08478669
969.022	0.0844091
969.187	0.0842412
969.351	0.08429322
969.515	0.08402062
969.679	0.08381751
969.843	0.08376595
970.007	0.08326475
970.171	0.08345615
970.335	0.08352246
970.499	0.0833953
970.662	0.08316754
970.826	0.083408
970.99	0.08322662
971.154	0.08332035
971.318	0.08300245
971.482	0.08228117
971.645	0.08204497
971.809	0.08205053
971.973	0.08130965
972.137	0.08100301
972.3	0.08061531
972.464	0.08023945
972.628	0.08053186
972.791	0.07990724
972.955	0.07935194
973.119	0.07929858
973.282	0.07875275
973.446	0.07902166
973.609	0.07915054
973.773	0.07907264
973.936	0.07946232
974.1	0.07955852
974.263	0.07977644
974.427	0.07999305
974.59	0.07960791
974.754	0.07920628
974.917	0.07893692
975.08	0.07866003
975.244	0.07872179
975.407	0.07847572
975.57	0.07848886
975.734	0.07828693
975.897	0.0785247
976.06	0.07851239
976.223	0.07845612
976.387	0.07814412
976.55	0.07813582
976.713	0.07798929
976.876	0.07795001
977.039	0.07743395
977.202	0.07710982
977.365	0.0769099
977.528	0.0767212
977.692	0.07633212
977.855	0.07584043
978.018	0.07555493
978.181	0.07552148
978.344	0.07537882
978.506	0.07493328
978.669	0.07476297
978.832	0.07465757
978.995	0.07439045
979.158	0.07443579
979.321	0.07423767
979.484	0.07442222
979.646	0.074499
979.809	0.07438276
979.972	0.07420961
980.135	0.07472353
980.297	0.07475383
980.46	0.07492458
980.623	0.07467261
980.786	0.07480372
980.948	0.07488712
981.111	0.07496612
981.273	0.0747179
981.436	0.07446735
981.599	0.07472687
981.761	0.07438692
981.924	0.07432388
982.086	0.07438463
982.249	0.07447603
982.411	0.07443717
982.573	0.07484409
982.736	0.07486139
982.898	0.07542642
983.061	0.07541143
983.223	0.0753766
983.385	0.07545776
983.548	0.07571648
983.71	0.0757865
983.872	0.07555946
984.034	0.07528345
984.197	0.07505856
984.359	0.07512948
984.521	0.07472297
984.683	0.07441023
984.845	0.07417225
985.008	0.07378749
985.17	0.07363685
985.332	0.07340228
985.494	0.07297416
985.656	0.07297481
985.818	0.07258857
985.98	0.07215376
986.142	0.07183818
986.304	0.07198171
986.466	0.07175073
986.628	0.07163916
986.79	0.07160925
986.952	0.07159496
987.113	0.0709412
987.275	0.07082821
987.437	0.07042084
987.599	0.0704331
987.761	0.07021855
987.922	0.0698204
988.084	0.06968139
988.246	0.07011394
988.408	0.07026093
988.569	0.07046084
988.731	0.07033293
988.893	0.07071116
989.054	0.07111513
989.216	0.07101442
989.377	0.07077329
989.539	0.07061892
989.701	0.06974125
989.862	0.06970364
990.024	0.06882621
990.185	0.06822142
990.347	0.06804093
990.508	0.06797898
990.669	0.06781916
990.831	0.06805915
990.992	0.06823273
991.154	0.06831546
991.315	0.06847482
991.476	0.06823505
991.638	0.06818098
991.799	0.06813491
991.96	0.06800265
992.121	0.06760331
992.283	0.06728796
992.444	0.06704697
992.605	0.06707441
992.766	0.06633598
992.927	0.06615898
993.088	0.06602866
993.249	0.06576419
993.41	0.06602555
993.572	0.0659511
993.733	0.06565773
993.894	0.06563896
994.055	0.06490288
994.216	0.0651358
994.376	0.06484261
994.537	0.06496144
994.698	0.06443699
994.859	0.06456355
995.02	0.06485414
995.181	0.06502727
995.342	0.06479179
995.503	0.06512177
995.663	0.06482589
995.824	0.06499172
995.985	0.06502834
996.146	0.06519997
996.306	0.06582437
996.467	0.06565662
996.628	0.06562611
996.788	0.06636718
996.949	0.06676597
997.11	0.06700756
997.27	0.06660217
997.431	0.06674904
997.591	0.06674865
997.752	0.06680634
997.912	0.06561374
998.073	0.0652266
998.233	0.0654501
998.394	0.06605941
998.554	0.06613627
998.714	0.06626592
998.875	0.06619099
999.035	0.06589836
999.196	0.06594501
999.356	0.065313
999.516	0.06517112
999.676	0.06448823
999.837	0.06399229
999.997	0.06358816
1000.157	0.06380908
1000.317	0.06343051
1000.477	0.06320689
1000.638	0.06283516
1000.798	0.06288078
1000.958	0.06331689
1001.118	0.06353922
1001.278	0.06353605
1001.438	0.0637993
1001.598	0.06360186
1001.758	0.06313202
1001.918	0.06301821
1002.078	0.06254155
1002.238	0.06210587
1002.398	0.06200652
1002.558	0.06228401
1002.718	0.06234527
1002.878	0.06266794
1003.037	0.06225896
1003.197	0.0623692
1003.357	0.06229602
1003.517	0.06280608
1003.677	0.06141788
1003.836	0.0615151
1003.996	0.06071563
1004.156	0.06054784
1004.315	0.06037327
1004.475	0.0598745
1004.635	0.059024
1004.794	0.05950165
1004.954	0.05886193
1005.114	0.05982497
1005.273	0.06004848
1005.433	0.05903038
1005.592	0.0590272
1005.752	0.0589258
1005.911	0.05847073
1006.071	0.05874499
1006.23	0.05743586
1006.389	0.05698666
1006.549	0.05721319
1006.708	0.05715728
1006.868	0.05631492
1007.027	0.05678964
1007.186	0.05712762
1007.345	0.05790142
1007.505	0.05811376
1007.664	0.05817552
1007.823	0.05844508
1007.982	0.05861818
1008.142	0.05864391
1008.301	0.05843434
1008.46	0.05831595
1008.619	0.05782789
1008.778	0.05805212
1008.937	0.05807061
1009.096	0.0590389
1009.255	0.05906922
1009.414	0.05811175
1009.573	0.05863251
1009.732	0.059484
1009.891	0.05944531
1010.05	0.05964523
1010.209	0.05940054
1010.368	0.05930949
1010.527	0.05959372
1010.686	0.05944873
1010.845	0.05923258
1011.003	0.05893989
1011.162	0.05941438
1011.321	0.05951008
1011.48	0.05894094
1011.638	0.0588335
1011.797	0.0579069
1011.956	0.05717916
1012.115	0.05783987
1012.273	0.05701589
1012.432	0.05695391
1012.59	0.05706567
1012.749	0.05670848
1012.908	0.05709918
1013.066	0.05775517
1013.225	0.05703298
1013.383	0.05670548
1013.542	0.05680334
1013.7	0.05619572
1013.859	0.0570663
1014.017	0.05709629
1014.175	0.05736469
1014.334	0.05804472
1014.492	0.05848267
1014.65	0.05772873
1014.809	0.05883474
1014.967	0.05939592
1015.125	0.05969935
1015.284	0.05930257
1015.442	0.05974347
1015.6	0.05991374
1015.758	0.06096905
1015.916	0.06006058
1016.075	0.05973338
1016.233	0.05984552
1016.391	0.0601366
1016.549	0.06052837
1016.707	0.06080334
1016.865	0.06070609
1017.023	0.06181249
1017.181	0.06138684
1017.339	0.06143253
1017.497	0.06047216
1017.655	0.05914176
1017.813	0.05825463
1017.971	0.05881909
1018.129	0.05781775
1018.286	0.05797361
1018.444	0.05776119
1018.602	0.05877386
1018.76	0.05914173
1018.918	0.05983929
1019.075	0.05962607
1019.233	0.06059791
1019.391	0.06113384
1019.549	0.06063469
1019.706	0.06141236
1019.864	0.06237836
1020.022	0.06247072
1020.179	0.06279218
1020.337	0.06305185
1020.494	0.06253163
1020.652	0.06290219
1020.809	0.06322726
1020.967	0.06247869
1021.124	0.0622034
1021.282	0.06325751
1021.439	0.06366645
1021.597	0.06458832
1021.754	0.06435728
1021.911	0.0630575
1022.069	0.0628003
1022.226	0.06283848
1022.384	0.05970254
1022.541	0.05846455
1022.698	0.05884349
1022.855	0.05974704
1023.013	0.06053785
1023.17	0.06094636
1023.327	0.06156894
1023.484	0.06506964
1023.641	0.06647002
1023.798	0.0662851
1023.956	0.06707395
1024.113	0.06697219
1024.27	0.06861448
1024.427	0.06788642
1024.584	0.06577695
1024.741	0.06603147
1024.898	0.06543506
1025.055	0.06499266
1025.212	0.06491364
1025.369	0.06089258
1025.525	0.06086649
1025.682	0.0611592
1025.839	0.06022323
1025.996	0.05935376
1026.153	0.06064817
1026.31	0.06090991
1026.466	0.06418527
1026.623	0.0676795
1026.78	0.06607373
1026.937	0.06789571
1027.093	0.06970181
1027.25	0.06973951
1027.407	0.06912361
1027.563	0.06865501
1027.72	0.06726575
1027.876	0.06987926
1028.033	0.06893226
1028.19	0.06876875
1028.346	0.06765729
1028.503	0.06761767
1028.659	0.06826673
1028.816	0.06750617
1028.972	0.06764876
1029.128	0.06814774
1029.285	0.06748117
1029.441	0.06607698
1029.598	0.06765277
1029.754	0.0702088
1029.91	0.06999292
1030.067	0.07035645
1030.223	0.06966159
1030.379	0.07135192
1030.535	0.07397451
1030.691	0.0722418
1030.848	0.07022293
1031.004	0.06853224
1031.16	0.0696648
1031.316	0.07337408
1031.472	0.07400158
1031.628	0.07178489
1031.784	0.07372162
1031.94	0.0750321
1032.096	0.07801923
1032.252	0.07601993
1032.408	0.07670368
1032.564	0.07813747
1032.72	0.08025794
1032.876	0.08128076
1033.032	0.07810452
1033.188	0.07961864
1033.344	0.07994191
1033.5	0.07650133
1033.655	0.07478816
1033.811	0.07428911
1033.967	0.07227039
