Data from 1_mm_pl_80pc_Absorbance__0__16-15-50-627.txt Node

Date: Wed Mar 08 16:15:50 CET 2023
User: Ange
Spectrometer: FLMT08341
Trigger mode: 0
Integration Time (sec): 1.000000E-2
Scans to average: 400
Electric dark correction enabled: true
Nonlinearity correction enabled: false
Boxcar width: 3
XAxis mode: Wavelengths
Number of Pixels in Spectrum: 3648
>>>>>Begin Spectral Data<<<<<
345.271	0.01720757
345.487	0.01138024
345.704	0.01267177
345.921	0.01764396
346.137	0.01265175
346.354	-0.00055075
346.571	-0.03162044
346.787	0.01091898
347.004	0.05796287
347.22	0.01032144
347.437	0.17693402
347.653	0.61288418
347.87	-0.26235025
348.086	-0.0018653
348.303	0.2552517
348.519	0.36049127
348.736	0.36075939
348.952	0.37695858
349.169	0.39576366
349.385	0.41107784
349.601	0.40586771
349.818	0.40026685
350.034	0.39813524
350.251	0.39422191
350.467	0.39761442
350.683	0.38177953
350.9	0.37982036
351.116	0.37644257
351.332	0.37334632
351.549	0.38315193
351.765	0.39561363
351.981	0.39983052
352.197	0.41590096
352.414	0.42908943
352.63	0.43856167
352.846	0.45000556
353.062	0.4398983
353.278	0.42825967
353.495	0.43706519
353.711	0.43601714
353.927	0.43955596
354.143	0.44073395
354.359	0.43345678
354.575	0.43217857
354.792	0.44331634
355.008	0.43352
355.224	0.42992733
355.44	0.42351043
355.656	0.41679119
355.872	0.42593989
356.088	0.44831491
356.304	0.45021654
356.52	0.45223945
356.736	0.45672222
356.952	0.45966695
357.168	0.46515409
357.384	0.4687342
357.6	0.45433732
357.816	0.45885441
358.032	0.46759207
358.248	0.48138473
358.464	0.48332205
358.679	0.48720938
358.895	0.48520855
359.111	0.4957719
359.327	0.48761044
359.543	0.49005826
359.759	0.49039714
359.974	0.49181513
360.19	0.49028661
360.406	0.49176723
360.622	0.48883228
360.838	0.48991435
361.053	0.49186539
361.269	0.49498303
361.485	0.49788376
361.701	0.49981735
361.916	0.49499373
362.132	0.49328331
362.348	0.49681468
362.563	0.49693496
362.779	0.49083222
362.995	0.49354284
363.21	0.5018643
363.426	0.50578785
363.641	0.50864004
363.857	0.51061976
364.073	0.50889011
364.288	0.50580325
364.504	0.51195696
364.719	0.51065286
364.935	0.51055506
365.15	0.51094696
365.366	0.5147201
365.581	0.52239116
365.797	0.52854087
366.012	0.52061408
366.228	0.51532088
366.443	0.52357952
366.658	0.52703739
366.874	0.52248176
367.089	0.52586469
367.305	0.52818201
367.52	0.53376446
367.735	0.53616432
367.951	0.53278359
368.166	0.53519015
368.381	0.54483514
368.597	0.54164163
368.812	0.54544855
369.027	0.54728267
369.243	0.55191334
369.458	0.56173548
369.673	0.56467708
369.888	0.56232043
370.104	0.55961345
370.319	0.56035364
370.534	0.5582021
370.749	0.55761292
370.964	0.5576125
371.179	0.55426788
371.395	0.55342675
371.61	0.55935205
371.825	0.55458114
372.04	0.5589233
372.255	0.55791947
372.47	0.55184012
372.685	0.54985911
372.9	0.54894501
373.115	0.54414158
373.33	0.54765541
373.545	0.54879974
373.76	0.55211731
373.975	0.55314892
374.19	0.55353916
374.405	0.55610231
374.62	0.56397427
374.835	0.57033711
375.05	0.57031692
375.265	0.57209275
375.48	0.57361232
375.695	0.58474378
375.91	0.58448077
376.125	0.5764206
376.339	0.56842963
376.554	0.56820041
376.769	0.5683886
376.984	0.56865714
377.199	0.56757434
377.414	0.56787275
377.628	0.57648144
377.843	0.58278903
378.058	0.58573297
378.273	0.58888024
378.487	0.59102753
378.702	0.590598
378.917	0.59116665
379.131	0.58683927
379.346	0.58160349
379.561	0.57789424
379.775	0.57432553
379.99	0.57148485
380.205	0.56720252
380.419	0.56320605
380.634	0.55901046
380.848	0.56349145
381.063	0.56405068
381.278	0.56962484
381.492	0.5676426
381.707	0.57361914
381.921	0.57422644
382.136	0.58191331
382.35	0.57918516
382.565	0.57676211
382.779	0.57565305
382.994	0.57698991
383.208	0.57090436
383.422	0.57709656
383.637	0.57486537
383.851	0.57810284
384.066	0.58202504
384.28	0.5826558
384.494	0.58451424
384.709	0.58749784
384.923	0.58734608
385.137	0.58512655
385.352	0.5849026
385.566	0.58598089
385.78	0.58442022
385.995	0.58197863
386.209	0.58004269
386.423	0.58220215
386.637	0.58435607
386.852	0.58141336
387.066	0.58020083
387.28	0.57803433
387.494	0.58289282
387.708	0.58393765
387.923	0.58176869
388.137	0.58468705
388.351	0.58682883
388.565	0.58873079
388.779	0.59057038
388.993	0.59403984
389.207	0.5964787
389.421	0.59692475
389.635	0.59411905
389.85	0.59198316
390.064	0.59171345
390.278	0.59259161
390.492	0.59009552
390.706	0.58921538
390.92	0.5881407
391.134	0.59023454
391.348	0.5967874
391.561	0.59480966
391.775	0.59276835
391.989	0.58925115
392.203	0.59072716
392.417	0.59209768
392.631	0.59397892
392.845	0.58882024
393.059	0.59225752
393.273	0.59140847
393.486	0.59009606
393.7	0.58580246
393.914	0.58788604
394.128	0.58485038
394.342	0.58391809
394.555	0.57886166
394.769	0.57969853
394.983	0.58213455
395.197	0.58482367
395.41	0.58281928
395.624	0.58373584
395.838	0.58457595
396.051	0.59171697
396.265	0.58989739
396.479	0.58993143
396.692	0.59023456
396.906	0.58806796
397.12	0.58713927
397.333	0.5884604
397.547	0.58390903
397.76	0.58605163
397.974	0.58607657
398.187	0.58587116
398.401	0.587333
398.614	0.58799142
398.828	0.58754995
399.041	0.58750643
399.255	0.58623538
399.468	0.58628174
399.682	0.58543476
399.895	0.58579503
400.109	0.58401911
400.322	0.58281582
400.536	0.58035313
400.749	0.58292051
400.962	0.58226817
401.176	0.58087071
401.389	0.5793514
401.602	0.5764191
401.816	0.57722936
402.029	0.57870037
402.242	0.57556815
402.456	0.57515934
402.669	0.57361783
402.882	0.57086363
403.095	0.57437053
403.309	0.57340434
403.522	0.57350351
403.735	0.57278818
403.948	0.57166004
404.161	0.57590551
404.375	0.57687093
404.588	0.57550818
404.801	0.57481255
405.014	0.57261369
405.227	0.57443592
405.44	0.57480106
405.653	0.57357185
405.866	0.57157565
406.079	0.57021919
406.293	0.56916027
406.506	0.56930969
406.719	0.5669155
406.932	0.56560868
407.145	0.56234186
407.358	0.56483432
407.571	0.56260712
407.784	0.56243549
407.996	0.56217381
408.209	0.56041699
408.422	0.55868756
408.635	0.55897845
408.848	0.5580686
409.061	0.55668604
409.274	0.55513619
409.487	0.55355065
409.7	0.55354927
409.912	0.5539071
410.125	0.55294595
410.338	0.55142125
410.551	0.55123778
410.764	0.55106413
410.976	0.55028915
411.189	0.54956656
411.402	0.54750565
411.615	0.54792857
411.827	0.54761192
412.04	0.54762888
412.253	0.54642356
412.465	0.54568694
412.678	0.54445169
412.891	0.5453672
413.103	0.54142631
413.316	0.53967921
413.529	0.54025379
413.741	0.53999746
413.954	0.53985034
414.166	0.53994451
414.379	0.53786606
414.591	0.53899968
414.804	0.53742366
415.016	0.53549188
415.229	0.53422583
415.441	0.53221561
415.654	0.53095645
415.866	0.53129149
416.079	0.53092144
416.291	0.53026441
416.504	0.53054454
416.716	0.52943234
416.928	0.52915165
417.141	0.52769687
417.353	0.52663614
417.566	0.52433399
417.778	0.52375817
417.99	0.52072879
418.203	0.51889412
418.415	0.51765037
418.627	0.51726547
418.839	0.51620063
419.052	0.51693484
419.264	0.51600784
419.476	0.51572368
419.688	0.5157274
419.901	0.51486591
420.113	0.51369085
420.325	0.51200873
420.537	0.50928759
420.749	0.5087003
420.961	0.50789739
421.174	0.50659476
421.386	0.50509065
421.598	0.50371819
421.81	0.50311185
422.022	0.50246921
422.234	0.50131647
422.446	0.49998834
422.658	0.49893441
422.87	0.49832628
423.082	0.49735078
423.294	0.49563687
423.506	0.49477158
423.718	0.49343754
423.93	0.49141721
424.142	0.48946999
424.354	0.48788162
424.566	0.4864596
424.778	0.48598072
424.99	0.48464255
425.202	0.4828964
425.414	0.48250207
425.625	0.48255899
425.837	0.48080134
426.049	0.48044652
426.261	0.4787771
426.473	0.47700757
426.684	0.47623346
426.896	0.47561891
427.108	0.47377601
427.32	0.47347549
427.531	0.47177324
427.743	0.47090315
427.955	0.47089159
428.167	0.46956106
428.378	0.4682656
428.59	0.4673907
428.802	0.46609747
429.013	0.46481003
429.225	0.46355275
429.436	0.46184196
429.648	0.46100714
429.86	0.46003028
430.071	0.45893096
430.283	0.45785928
430.494	0.45667615
430.706	0.45552115
430.917	0.45426775
431.129	0.45311411
431.34	0.45162765
431.552	0.45073852
431.763	0.44938843
431.975	0.4488395
432.186	0.44720428
432.398	0.4461036
432.609	0.44402519
432.821	0.44277039
433.032	0.44127473
433.243	0.44012307
433.455	0.43855337
433.666	0.43784518
433.877	0.43699595
434.089	0.43589738
434.3	0.43447079
434.511	0.4326053
434.723	0.43132268
434.934	0.42940047
435.145	0.42733069
435.356	0.42548353
435.568	0.42420739
435.779	0.4227739
435.99	0.42118784
436.201	0.41968639
436.412	0.4185377
436.624	0.41778438
436.835	0.41702119
437.046	0.41628582
437.257	0.41509722
437.468	0.41490578
437.679	0.41414358
437.89	0.41328904
438.101	0.41240546
438.312	0.41100938
438.523	0.40964472
438.734	0.40858574
438.945	0.40709393
439.156	0.40520732
439.367	0.40407983
439.578	0.40307759
439.789	0.40142794
440	0.40008226
440.211	0.3987431
440.422	0.39763166
440.633	0.39703392
440.844	0.39521356
441.055	0.39348025
441.266	0.39281823
441.477	0.39148852
441.687	0.3902329
441.898	0.38923866
442.109	0.38768526
442.32	0.38677668
442.531	0.38532658
442.741	0.38339508
442.952	0.38213554
443.163	0.38122657
443.374	0.37933858
443.584	0.37786585
443.795	0.37671522
444.006	0.37580889
444.216	0.37485284
444.427	0.37328539
444.638	0.37178782
444.848	0.37078575
445.059	0.36970708
445.27	0.36835146
445.48	0.36675519
445.691	0.36555087
445.901	0.36471184
446.112	0.36363914
446.323	0.36216187
446.533	0.36067474
446.744	0.35908258
446.954	0.35779949
447.165	0.35646565
447.375	0.35544153
447.586	0.35428527
447.796	0.35320238
448.006	0.35240893
448.217	0.35188736
448.427	0.35083038
448.638	0.34957445
448.848	0.34827874
449.058	0.34690765
449.269	0.34606071
449.479	0.34483972
449.689	0.34327971
449.9	0.34226895
450.11	0.34122497
450.32	0.34029485
450.531	0.33910073
450.741	0.33766526
450.951	0.3366806
451.161	0.33561931
451.372	0.33455521
451.582	0.33411902
451.792	0.33274111
452.002	0.33168208
452.212	0.33037009
452.422	0.32930303
452.633	0.32834157
452.843	0.32739805
453.053	0.32552293
453.263	0.32463455
453.473	0.32359183
453.683	0.32299959
453.893	0.32157576
454.103	0.32056041
454.313	0.31949726
454.523	0.318563
454.733	0.31757879
454.943	0.3168278
455.153	0.31600584
455.363	0.31509246
455.573	0.31447303
455.783	0.3135381
455.993	0.31268751
456.203	0.3121917
456.413	0.31136119
456.623	0.31037407
456.833	0.30994075
457.042	0.30876133
457.252	0.30794804
457.462	0.3071388
457.672	0.30613236
457.882	0.3052082
458.091	0.30426216
458.301	0.30311415
458.511	0.30237973
458.721	0.30149512
458.931	0.30068986
459.14	0.29976009
459.35	0.29904144
459.56	0.29826354
459.769	0.29775658
459.979	0.29672604
460.189	0.29619388
460.398	0.29541199
460.608	0.29477042
460.817	0.29409596
461.027	0.29349333
461.237	0.29272356
461.446	0.29218669
461.656	0.29151226
461.865	0.29087342
462.075	0.29025373
462.284	0.28965386
462.494	0.28903746
462.703	0.28832539
462.913	0.28783984
463.122	0.28729773
463.332	0.28673895
463.541	0.28626337
463.751	0.2855672
463.96	0.28493912
464.169	0.28452609
464.379	0.28428923
464.588	0.28373727
464.797	0.28332361
465.007	0.28277882
465.216	0.28244573
465.425	0.282143
465.635	0.28177088
465.844	0.28133666
466.053	0.280956
466.263	0.28060851
466.472	0.28034612
466.681	0.28018935
466.89	0.27985099
467.099	0.27954637
467.309	0.27915331
467.518	0.27899136
467.727	0.27879495
467.936	0.27838849
468.145	0.27798608
468.354	0.27781657
468.563	0.27757577
468.772	0.27728298
468.982	0.2768946
469.191	0.27677851
469.4	0.27672943
469.609	0.27657993
469.818	0.27653978
470.027	0.27634861
470.236	0.27617626
470.445	0.27623385
470.654	0.27598344
470.863	0.27573119
471.072	0.27570048
471.28	0.27548002
471.489	0.27559914
471.698	0.27556915
471.907	0.27545882
472.116	0.27544579
472.325	0.27545944
472.534	0.27550494
472.743	0.2754524
472.951	0.27558681
473.16	0.2759062
473.369	0.27600097
473.578	0.27623859
473.786	0.27663763
473.995	0.27679267
474.204	0.27711566
474.413	0.2771306
474.621	0.27708609
474.83	0.27729162
475.039	0.27739333
475.247	0.27740928
475.456	0.27765494
475.665	0.27782516
475.873	0.27800453
476.082	0.27822944
476.291	0.27848338
476.499	0.27878512
476.708	0.27896754
476.916	0.27924233
477.125	0.27953786
477.333	0.27993266
477.542	0.2803564
477.75	0.2807138
477.959	0.28121505
478.167	0.28169956
478.376	0.28188929
478.584	0.28227976
478.793	0.28260468
479.001	0.28295165
479.209	0.28332317
479.418	0.28366309
479.626	0.28410557
479.834	0.28468715
480.043	0.28524157
480.251	0.28574938
480.459	0.28622081
480.668	0.28672769
480.876	0.28725689
481.084	0.28783863
481.293	0.28840209
481.501	0.28895912
481.709	0.28970804
481.917	0.29040832
482.125	0.29112552
482.334	0.29162971
482.542	0.29223746
482.75	0.2929247
482.958	0.29361612
483.166	0.29422237
483.374	0.29493568
483.583	0.29561904
483.791	0.29647645
483.999	0.29718778
484.207	0.29799814
484.415	0.29867667
484.623	0.29946877
484.831	0.30008829
485.039	0.30086309
485.247	0.30162529
485.455	0.30252432
485.663	0.30325611
485.871	0.30414973
486.079	0.30483337
486.287	0.30586917
486.495	0.30667881
486.702	0.30748052
486.91	0.30835293
487.118	0.30924904
487.326	0.31011072
487.534	0.31107378
487.742	0.3119052
487.95	0.31290586
488.157	0.31407257
488.365	0.31503039
488.573	0.31605445
488.781	0.31711816
488.988	0.31830083
489.196	0.31941082
489.404	0.32041883
489.612	0.32128879
489.819	0.32240609
490.027	0.32350404
490.235	0.32459143
490.442	0.32569274
490.65	0.32675536
490.857	0.327917
491.065	0.329187
491.273	0.33034242
491.48	0.33156891
491.688	0.33257771
491.895	0.33370204
492.103	0.33483757
492.31	0.33599327
492.518	0.337212
492.725	0.33855195
492.933	0.3397326
493.14	0.34111916
493.348	0.34238963
493.555	0.34372584
493.763	0.34507179
493.97	0.34635529
494.177	0.34758177
494.385	0.34891506
494.592	0.35030923
494.8	0.35161466
495.007	0.35308732
495.214	0.35448482
495.422	0.3559307
495.629	0.35726596
495.836	0.35860326
496.043	0.36005931
496.251	0.36160995
496.458	0.36296335
496.665	0.36429959
496.872	0.36569898
497.08	0.3672108
497.287	0.36869745
497.494	0.37015638
497.701	0.37155766
497.908	0.37313105
498.115	0.37457854
498.322	0.37604211
498.53	0.37743337
498.737	0.37880256
498.944	0.38021264
499.151	0.38171254
499.358	0.38315907
499.565	0.38472617
499.772	0.38630469
499.979	0.38787881
500.186	0.38959653
500.393	0.39119884
500.6	0.39286434
500.807	0.39442925
501.014	0.39604987
501.221	0.39767134
501.427	0.39925171
501.634	0.40092166
501.841	0.40254541
502.048	0.40412005
502.255	0.4056596
502.462	0.40738575
502.669	0.40914965
502.875	0.41093877
503.082	0.41262426
503.289	0.41434351
503.496	0.41613425
503.702	0.41793851
503.909	0.41960351
504.116	0.42123522
504.323	0.42302364
504.529	0.4247479
504.736	0.42656654
504.943	0.42815998
505.149	0.43001546
505.356	0.43189794
505.563	0.43378202
505.769	0.4355929
505.976	0.4373501
506.182	0.43915828
506.389	0.44115055
506.595	0.44301973
506.802	0.4448457
507.008	0.44659142
507.215	0.44837709
507.421	0.45028905
507.628	0.45212971
507.834	0.45392562
508.041	0.45583656
508.247	0.45762147
508.454	0.45955769
508.66	0.46134665
508.866	0.46325282
509.073	0.46511912
509.279	0.46705098
509.486	0.46887793
509.692	0.470793
509.898	0.47275416
510.105	0.47475268
510.311	0.47654632
510.517	0.47845131
510.723	0.48035899
510.93	0.48207551
511.136	0.48398428
511.342	0.48590166
511.548	0.48779499
511.754	0.48992511
511.961	0.49200556
512.167	0.4939636
512.373	0.49605331
512.579	0.49801231
512.785	0.49988696
512.991	0.50184965
513.197	0.50369813
513.404	0.50559557
513.61	0.50766758
513.816	0.50946703
514.022	0.5113758
514.228	0.51327325
514.434	0.51514774
514.64	0.5170901
514.846	0.51907235
515.052	0.52090808
515.258	0.52297778
515.464	0.52500218
515.669	0.52698608
515.875	0.52905182
516.081	0.53104196
516.287	0.53305627
516.493	0.53509778
516.699	0.53696143
516.905	0.53886807
517.111	0.54079762
517.316	0.54277164
517.522	0.54478668
517.728	0.54675748
517.934	0.54877407
518.139	0.55087952
518.345	0.55280873
518.551	0.55487923
518.757	0.55682619
518.962	0.55882211
519.168	0.56084014
519.374	0.56267105
519.579	0.5646465
519.785	0.56690289
519.991	0.56899992
520.196	0.57101426
520.402	0.57286103
520.607	0.57484828
520.813	0.57699801
521.018	0.5789336
521.224	0.58058618
521.429	0.58248196
521.635	0.58445356
521.84	0.58628913
522.046	0.58827141
522.251	0.59012559
522.457	0.59208923
522.662	0.59423353
522.868	0.59619037
523.073	0.59809067
523.279	0.60019916
523.484	0.60188411
523.689	0.60378443
523.895	0.60579454
524.1	0.60774562
524.305	0.60971675
524.511	0.61174578
524.716	0.61365452
524.921	0.615715
525.126	0.61774435
525.332	0.6198018
525.537	0.62163159
525.742	0.62376169
525.947	0.62564632
526.153	0.62758789
526.358	0.62967014
526.563	0.63146279
526.768	0.63321598
526.973	0.63520028
527.178	0.6369655
527.383	0.638892
527.588	0.64095218
527.794	0.64264668
527.999	0.64459816
528.204	0.64645262
528.409	0.64825936
528.614	0.65014063
528.819	0.65201948
529.024	0.65369199
529.229	0.6554479
529.434	0.65738718
529.639	0.65921022
529.843	0.66106148
530.048	0.66277987
530.253	0.6645359
530.458	0.6664992
530.663	0.66846313
530.868	0.67027389
531.073	0.67199666
531.278	0.67373194
531.482	0.67548298
531.687	0.67715857
531.892	0.67868781
532.097	0.68018262
532.302	0.68188175
532.506	0.68355164
532.711	0.68516279
532.916	0.6869218
533.12	0.68868566
533.325	0.6903977
533.53	0.6923868
533.734	0.69402317
533.939	0.69587982
534.144	0.69773743
534.348	0.69947383
534.553	0.70122871
534.757	0.70283532
534.962	0.70438424
535.167	0.70611114
535.371	0.70767903
535.576	0.70953917
535.78	0.71126001
535.985	0.71290083
536.189	0.7146706
536.394	0.71631779
536.598	0.71780368
536.803	0.71950936
537.007	0.72091904
537.211	0.72263056
537.416	0.72414836
537.62	0.72569373
537.825	0.72737804
538.029	0.72936936
538.233	0.73087735
538.438	0.7324315
538.642	0.73361673
538.846	0.73532455
539.05	0.73686873
539.255	0.73822869
539.459	0.73950547
539.663	0.74100723
539.867	0.74257009
540.072	0.74417307
540.276	0.74539987
540.48	0.74698474
540.684	0.74856314
540.888	0.75014041
541.092	0.75159319
541.297	0.75296961
541.501	0.75443753
541.705	0.75599026
541.909	0.75725733
542.113	0.75850921
542.317	0.75982903
542.521	0.76120264
542.725	0.76258268
542.929	0.76389075
543.133	0.76527723
543.337	0.76671431
543.541	0.76813117
543.745	0.76932088
543.949	0.77064901
544.153	0.77187158
544.357	0.77301107
544.56	0.77437305
544.764	0.77572448
544.968	0.77690365
545.172	0.7780204
545.376	0.77933145
545.58	0.78071477
545.783	0.78233126
545.987	0.78343769
546.191	0.78447293
546.395	0.78577374
546.598	0.78723016
546.802	0.78842999
547.006	0.78957453
547.21	0.79026089
547.413	0.7914013
547.617	0.79267318
547.821	0.79372309
548.024	0.79485516
548.228	0.79592018
548.431	0.79706398
548.635	0.79849429
548.839	0.79966532
549.042	0.80087941
549.246	0.80199376
549.449	0.8030641
549.653	0.80414331
549.856	0.8051686
550.06	0.80601283
550.263	0.8069941
550.467	0.80793643
550.67	0.80907522
550.874	0.80987069
551.077	0.81100407
551.28	0.81208614
551.484	0.81320898
551.687	0.81421805
551.891	0.81524344
552.094	0.81602075
552.297	0.81718795
552.501	0.81808533
552.704	0.818939
552.907	0.81985943
553.11	0.82059186
553.314	0.8214364
553.517	0.82206262
553.72	0.82289359
553.923	0.82357956
554.127	0.8243831
554.33	0.8249584
554.533	0.82596233
554.736	0.82659706
554.939	0.82765707
555.142	0.82860312
555.345	0.82969256
555.549	0.83079954
555.752	0.83190949
555.955	0.8327937
556.158	0.83398264
556.361	0.8346978
556.564	0.83533849
556.767	0.83588589
556.97	0.83656008
557.173	0.83719819
557.376	0.83799567
557.579	0.83845844
557.782	0.83934939
557.984	0.84019435
558.187	0.84103569
558.39	0.84165054
558.593	0.84240977
558.796	0.84284402
558.999	0.8432734
559.202	0.8437815
559.404	0.84401049
559.607	0.84454689
559.81	0.84489723
560.013	0.84530288
560.216	0.84581286
560.418	0.8466463
560.621	0.84730804
560.824	0.84823655
561.026	0.84886126
561.229	0.84951581
561.432	0.8501968
561.634	0.85080132
561.837	0.85102329
562.04	0.85156855
562.242	0.85197635
562.445	0.8524623
562.647	0.85288474
562.85	0.85327409
563.053	0.85369528
563.255	0.85440207
563.458	0.85492146
563.66	0.85542142
563.863	0.85601918
564.065	0.85668547
564.268	0.85709075
564.47	0.85754471
564.672	0.85787989
564.875	0.8583758
565.077	0.85873334
565.28	0.85896934
565.482	0.85931478
565.684	0.85963461
565.887	0.86019795
566.089	0.86064831
566.291	0.86081281
566.494	0.86113801
566.696	0.86139733
566.898	0.86180257
567.1	0.86224385
567.303	0.86248469
567.505	0.86279998
567.707	0.86284662
567.909	0.86300109
568.111	0.86326175
568.314	0.86335095
568.516	0.86354857
568.718	0.86350766
568.92	0.86354294
569.122	0.86391945
569.324	0.86407729
569.526	0.86405908
569.728	0.86423122
569.93	0.86425996
570.132	0.86446325
570.334	0.8645564
570.536	0.86454486
570.738	0.86452671
570.94	0.86467439
571.142	0.86480411
571.344	0.86480865
571.546	0.86488176
571.748	0.86517366
571.95	0.8651942
572.152	0.86521378
572.354	0.86514139
572.555	0.86509088
572.757	0.86537352
572.959	0.86535082
573.161	0.86500414
573.363	0.86514631
573.564	0.86556047
573.766	0.86572427
573.968	0.86579994
574.17	0.86548759
574.371	0.86552072
574.573	0.86560393
574.775	0.86529325
574.976	0.86485325
575.178	0.86456849
575.38	0.86415609
575.581	0.86396821
575.783	0.863753
575.985	0.86357605
576.186	0.86367907
576.388	0.8636522
576.589	0.86347139
576.791	0.8634215
576.992	0.86338813
577.194	0.86325036
577.395	0.86295226
577.597	0.86268429
577.798	0.8624356
578	0.86231072
578.201	0.86200686
578.402	0.86173923
578.604	0.86141504
578.805	0.86137917
579.007	0.86111024
579.208	0.86079293
579.409	0.86061966
579.611	0.86028508
579.812	0.8599976
580.013	0.85956302
580.215	0.8589087
580.416	0.85843993
580.617	0.85796595
580.818	0.85761986
581.019	0.85727381
581.221	0.85691688
581.422	0.85655342
581.623	0.85646791
581.824	0.85589291
582.025	0.85556513
582.226	0.85512199
582.428	0.85477451
582.629	0.85437192
582.83	0.85398014
583.031	0.85341644
583.232	0.85346545
583.433	0.85325333
583.634	0.85264657
583.835	0.85209858
584.036	0.85135226
584.237	0.85074942
584.438	0.85019034
584.639	0.84920071
584.84	0.84854449
585.041	0.84791464
585.242	0.84735333
585.442	0.8469281
585.643	0.84665941
585.844	0.84600808
586.045	0.84578485
586.246	0.8449152
586.447	0.844264
586.647	0.84356579
586.848	0.84283172
587.049	0.84196542
587.25	0.84130873
587.45	0.8404713
587.651	0.84006617
587.852	0.83956101
588.053	0.83918738
588.253	0.83852048
588.454	0.83796914
588.655	0.83722139
588.855	0.83632662
589.056	0.83558429
589.256	0.83480779
589.457	0.83376266
589.658	0.83308089
589.858	0.83218309
590.059	0.83155691
590.259	0.83091543
590.46	0.82994712
590.66	0.82908273
590.861	0.82848147
591.061	0.82772869
591.262	0.82703366
591.462	0.82619061
591.662	0.82537299
591.863	0.82449693
592.063	0.82380019
592.264	0.8228454
592.464	0.821942
592.664	0.82107827
592.865	0.82035031
593.065	0.81933155
593.265	0.81866489
593.465	0.81758592
593.666	0.81677726
593.866	0.81583352
594.066	0.81495749
594.266	0.81399374
594.467	0.81295269
594.667	0.81195407
594.867	0.81105028
595.067	0.81008025
595.267	0.80916419
595.467	0.80815258
595.668	0.80708062
595.868	0.80644038
596.068	0.80564612
596.268	0.80477161
596.468	0.80394607
596.668	0.80310561
596.868	0.80204689
597.068	0.80128714
597.268	0.80033337
597.468	0.7992849
597.668	0.79833073
597.868	0.79728353
598.068	0.79619231
598.268	0.79531059
598.467	0.7943208
598.667	0.79324234
598.867	0.79199137
599.067	0.79085962
599.267	0.7897668
599.467	0.78865496
599.667	0.78747359
599.866	0.78640145
600.066	0.78536712
600.266	0.78432501
600.466	0.78339178
600.665	0.78233115
600.865	0.78124332
601.065	0.78035862
601.264	0.77918076
601.464	0.77807876
601.664	0.777136
601.863	0.77600676
602.063	0.77501197
602.263	0.77374042
602.462	0.77253131
602.662	0.77137419
602.861	0.77017985
603.061	0.76893414
603.26	0.76770073
603.46	0.76632963
603.659	0.76525631
603.859	0.76411885
604.058	0.76290388
604.258	0.76177053
604.457	0.7608038
604.657	0.75959788
604.856	0.75843954
605.056	0.75737199
605.255	0.75617037
605.454	0.7550092
605.654	0.75372693
605.853	0.75249611
606.052	0.75117061
606.252	0.75008444
606.451	0.74884314
606.65	0.7477478
606.849	0.74634623
607.049	0.74513467
607.248	0.74378752
607.447	0.74270419
607.646	0.74157256
607.845	0.74046257
608.045	0.7390577
608.244	0.73812507
608.443	0.73692875
608.642	0.73588274
608.841	0.73451733
609.04	0.73309262
609.239	0.73179529
609.438	0.73050175
609.637	0.72909833
609.836	0.72786833
610.035	0.7265375
610.234	0.72541392
610.433	0.72422912
610.632	0.72292051
610.831	0.72174061
611.03	0.72056779
611.229	0.71934619
611.428	0.71805697
611.627	0.71669227
611.826	0.71533474
612.025	0.71406369
612.224	0.71252582
612.422	0.71098318
612.621	0.7094473
612.82	0.70804621
613.019	0.70670908
613.218	0.70535636
613.416	0.70384587
613.615	0.70263798
613.814	0.70131805
614.012	0.70004173
614.211	0.69868076
614.41	0.6973619
614.608	0.6961647
614.807	0.69494165
615.006	0.69362182
615.204	0.69228714
615.403	0.69111965
615.602	0.68985376
615.8	0.68856566
615.999	0.68692485
616.197	0.68551769
616.396	0.68406357
616.594	0.68260499
616.793	0.68115795
616.991	0.67961762
617.19	0.67802591
617.388	0.67689879
617.586	0.67551347
617.785	0.67426549
617.983	0.67312253
618.182	0.67171159
618.38	0.67031061
618.578	0.66915659
618.777	0.66780247
618.975	0.6665963
619.173	0.66529474
619.372	0.66396203
619.57	0.66255867
619.768	0.66137032
619.966	0.65981309
620.165	0.65814278
620.363	0.65657117
620.561	0.654973
620.759	0.65343556
620.957	0.65206406
621.155	0.65055149
621.354	0.64915837
621.552	0.64806377
621.75	0.64666896
621.948	0.64550174
622.146	0.64420862
622.344	0.64280138
622.542	0.64150583
622.74	0.64007796
622.938	0.638541
623.136	0.63725553
623.334	0.63588238
623.532	0.63436749
623.73	0.63307033
623.928	0.6316948
624.126	0.63047361
624.324	0.62928768
624.522	0.62785494
624.719	0.62631329
624.917	0.62503108
625.115	0.6234365
625.313	0.62206718
625.511	0.62063123
625.708	0.61891783
625.906	0.61734301
626.104	0.6159263
626.302	0.61442537
626.499	0.61307671
626.697	0.61159748
626.895	0.61006511
627.093	0.60880633
627.29	0.6074987
627.488	0.60602818
627.686	0.60468599
627.883	0.60327219
628.081	0.60173374
628.278	0.6004022
628.476	0.59883314
628.673	0.59737465
628.871	0.59599486
629.068	0.59445531
629.266	0.59300046
629.463	0.59162772
629.661	0.59015367
629.858	0.58875771
630.056	0.58728017
630.253	0.58588824
630.451	0.58451857
630.648	0.58291561
630.845	0.58136367
631.043	0.57982724
631.24	0.57831961
631.438	0.57674703
631.635	0.57511719
631.832	0.57341447
632.029	0.57208603
632.227	0.57062665
632.424	0.5692784
632.621	0.56781756
632.818	0.56646771
633.016	0.56508351
633.213	0.56368943
633.41	0.56218054
633.607	0.56068878
633.804	0.55917802
634.001	0.55769877
634.199	0.55623707
634.396	0.55486785
634.593	0.55347691
634.79	0.55218984
634.987	0.55079923
635.184	0.5494692
635.381	0.54818343
635.578	0.5469018
635.775	0.54546021
635.972	0.54410384
636.169	0.54270629
636.366	0.54141153
636.563	0.53996912
636.76	0.53840986
636.957	0.53688927
637.153	0.53527583
637.35	0.53386394
637.547	0.53223354
637.744	0.53056027
637.941	0.5291122
638.138	0.52773416
638.334	0.52632392
638.531	0.52502769
638.728	0.5236265
638.925	0.52245055
639.121	0.52131819
639.318	0.51998472
639.515	0.51865011
639.711	0.51742524
639.908	0.51603169
640.105	0.51464076
640.301	0.51319014
640.498	0.51170339
640.695	0.5103941
640.891	0.50903914
641.088	0.50765664
641.284	0.50637464
641.481	0.50523914
641.677	0.50398887
641.874	0.50268628
642.07	0.50146276
642.267	0.50032136
642.463	0.4989324
642.66	0.49768043
642.856	0.49616109
643.053	0.49469507
643.249	0.49327622
643.445	0.49177593
643.642	0.4901459
643.838	0.48876458
644.034	0.4872658
644.231	0.48583343
644.427	0.48455052
644.623	0.48334518
644.82	0.48213021
645.016	0.48088994
645.212	0.47953661
645.408	0.47833217
645.604	0.47720677
645.801	0.47601062
645.997	0.47466235
646.193	0.4733051
646.389	0.47218235
646.585	0.47102223
646.781	0.46983173
646.977	0.46864311
647.173	0.46723687
647.37	0.46592443
647.566	0.46463452
647.762	0.46329842
647.958	0.46215611
648.154	0.46082951
648.35	0.4595017
648.546	0.45823272
648.742	0.45708639
648.937	0.45587224
649.133	0.45476689
649.329	0.45349867
649.525	0.45233237
649.721	0.45109644
649.917	0.45000689
650.113	0.44867854
650.309	0.44748911
650.504	0.44618246
650.7	0.44493571
650.896	0.44375282
651.092	0.44255317
651.287	0.44138111
651.483	0.44028269
651.679	0.43907269
651.875	0.43793607
652.07	0.43674255
652.266	0.43546578
652.462	0.43426458
652.657	0.43297587
652.853	0.43176138
653.048	0.43058019
653.244	0.42927132
653.44	0.4280055
653.635	0.42665204
653.831	0.42538507
654.026	0.42422888
654.222	0.42293549
654.417	0.42181483
654.613	0.42064013
654.808	0.41948856
655.004	0.4185373
655.199	0.41747253
655.394	0.41638953
655.59	0.415442
655.785	0.41415845
655.98	0.41294459
656.176	0.41170506
656.371	0.41061014
656.566	0.4095216
656.762	0.40828599
656.957	0.40708821
657.152	0.40605294
657.348	0.40497462
657.543	0.40403774
657.738	0.40283485
657.933	0.40173317
658.128	0.40062105
658.324	0.39943008
658.519	0.39829357
658.714	0.39726076
658.909	0.39603982
659.104	0.3949636
659.299	0.39385118
659.494	0.39277132
659.689	0.39181752
659.884	0.39075391
660.079	0.38968783
660.274	0.38866924
660.469	0.38762384
660.664	0.3866404
660.859	0.38566934
661.054	0.38457068
661.249	0.38349475
661.444	0.38238405
661.639	0.38126337
661.834	0.38007059
662.029	0.37894554
662.224	0.37780031
662.418	0.37673273
662.613	0.37577581
662.808	0.37478072
663.003	0.37382016
663.198	0.37292528
663.392	0.37189095
663.587	0.37105718
663.782	0.37004319
663.977	0.36895927
664.171	0.36794081
664.366	0.36683372
664.561	0.36577269
664.755	0.36472685
664.95	0.36363357
665.144	0.36264632
665.339	0.36178143
665.534	0.36088733
665.728	0.36011252
665.923	0.35927526
666.117	0.358455
666.312	0.35752777
666.506	0.3566875
666.701	0.35562626
666.895	0.354583
667.09	0.35351137
667.284	0.35247337
667.479	0.35132435
667.673	0.3503165
667.867	0.34926313
668.062	0.34835896
668.256	0.34749686
668.45	0.34671113
668.645	0.34582436
668.839	0.34505207
669.033	0.34421006
669.228	0.34338457
669.422	0.34254932
669.616	0.34164621
669.81	0.34076368
670.004	0.33992661
670.199	0.33905483
670.393	0.33812271
670.587	0.33723132
670.781	0.3363314
670.975	0.33542921
671.169	0.33441579
671.363	0.33337119
671.558	0.33240089
671.752	0.3315084
671.946	0.33058502
672.14	0.3296749
672.334	0.32873134
672.528	0.32796907
672.722	0.32712766
672.916	0.32631116
673.11	0.3254321
673.304	0.32471415
673.497	0.32387744
673.691	0.32319819
673.885	0.32228117
674.079	0.32157611
674.273	0.32079252
674.467	0.32006257
674.661	0.3192033
674.854	0.31833312
675.048	0.31747996
675.242	0.31673015
675.436	0.31590361
675.629	0.31512124
675.823	0.31436014
676.017	0.31360983
676.211	0.31278856
676.404	0.31198087
676.598	0.31120001
676.792	0.31041203
676.985	0.3095709
677.179	0.30864154
677.372	0.30789535
677.566	0.30727205
677.76	0.30660719
677.953	0.30583942
678.147	0.30517749
678.34	0.30452211
678.534	0.3038724
678.727	0.30304971
678.921	0.30230063
679.114	0.30144762
679.307	0.30078941
679.501	0.29998741
679.694	0.29922686
679.888	0.29846349
680.081	0.297864
680.274	0.29703885
680.468	0.29637217
680.661	0.29558911
680.854	0.29500781
681.048	0.29443405
681.241	0.29388397
681.434	0.29320933
681.627	0.29268969
681.821	0.29203984
682.014	0.29150272
682.207	0.29071215
682.4	0.29002807
682.593	0.28950163
682.786	0.28899989
682.98	0.28851068
683.173	0.28812292
683.366	0.28757662
683.559	0.28717577
683.752	0.2867569
683.945	0.28617314
684.138	0.28556426
684.331	0.2849287
684.524	0.28438391
684.717	0.2838286
684.91	0.28331408
685.103	0.28261091
685.296	0.28187843
685.489	0.28118201
685.682	0.28047076
685.874	0.27976002
686.067	0.27903555
686.26	0.27825792
686.453	0.27764606
686.646	0.2770397
686.839	0.27647707
687.031	0.27594301
687.224	0.27522462
687.417	0.27474773
687.61	0.27419383
687.802	0.2736292
687.995	0.27312201
688.188	0.2726392
688.38	0.27213671
688.573	0.27176852
688.766	0.27126285
688.958	0.2707332
689.151	0.27017995
689.343	0.26966428
689.536	0.26901871
689.729	0.26841727
689.921	0.26772442
690.114	0.26694907
690.306	0.26640602
690.499	0.26587286
690.691	0.26532573
690.884	0.26486888
691.076	0.26444168
691.268	0.2640094
691.461	0.26359871
691.653	0.26317771
691.846	0.262747
692.038	0.26234015
692.23	0.2619025
692.423	0.26150785
692.615	0.26119703
692.807	0.26094647
692.999	0.26062936
693.192	0.26024759
693.384	0.25991818
693.576	0.25949196
693.768	0.25900068
693.961	0.2584967
694.153	0.25810871
694.345	0.25766659
694.537	0.25730762
694.729	0.25682803
694.921	0.25638871
695.113	0.25609096
695.305	0.25573915
695.498	0.25524707
695.69	0.25483418
695.882	0.25436833
696.074	0.25410308
696.266	0.25382824
696.458	0.25345073
696.65	0.25306799
696.842	0.25276056
697.033	0.25241745
697.225	0.25205578
697.417	0.25157599
697.609	0.25108682
697.801	0.25062536
697.993	0.2502444
698.185	0.24982591
698.376	0.24950669
698.568	0.24921491
698.76	0.24900659
698.952	0.24886157
699.144	0.24876445
699.335	0.24867677
699.527	0.24854547
699.719	0.24826378
699.91	0.2480065
700.102	0.24766002
700.294	0.2472734
700.485	0.246884
700.677	0.24642077
700.869	0.2461528
701.06	0.24594576
701.252	0.24573091
701.443	0.24552347
701.635	0.2453532
701.826	0.24509157
702.018	0.24493515
702.209	0.24470093
702.401	0.2444711
702.592	0.24428726
702.784	0.24406092
702.975	0.24376254
703.166	0.24352771
703.358	0.24321093
703.549	0.24288227
703.741	0.24257069
703.932	0.24219952
704.123	0.24187659
704.315	0.24166909
704.506	0.24146398
704.697	0.24126232
704.888	0.24110002
705.08	0.24096676
705.271	0.24089829
705.462	0.24073353
705.653	0.24052404
705.844	0.24035265
706.035	0.24023457
706.227	0.24011262
706.418	0.2399409
706.609	0.23979691
706.8	0.23976893
706.991	0.23965215
707.182	0.23961465
707.373	0.23951618
707.564	0.23941515
707.755	0.23940386
707.946	0.23936862
708.137	0.23931024
708.328	0.23943105
708.519	0.23938786
708.71	0.23938681
708.901	0.2393418
709.092	0.23930879
709.283	0.23918461
709.473	0.23903318
709.664	0.2389055
709.855	0.2387323
710.046	0.23864142
710.237	0.23854299
710.427	0.23836046
710.618	0.23822064
710.809	0.23812379
711	0.23808828
711.19	0.23815174
711.381	0.23821009
711.572	0.23829798
711.762	0.23846545
711.953	0.23861907
712.144	0.23869593
712.334	0.23858609
712.525	0.23853038
712.715	0.23840139
712.906	0.23822742
713.097	0.23796707
713.287	0.23776488
713.478	0.23771562
713.668	0.23775019
713.859	0.23775552
714.049	0.23777838
714.239	0.23792386
714.43	0.23809387
714.62	0.23826154
714.811	0.23835425
715.001	0.23841283
715.191	0.23842474
715.382	0.23829741
715.572	0.23812151
715.762	0.23788418
715.953	0.23771567
716.143	0.23760283
716.333	0.23752666
716.523	0.23745229
716.714	0.23755805
716.904	0.23762752
717.094	0.23784854
717.284	0.23798764
717.474	0.23812824
717.664	0.23833094
717.855	0.23853739
718.045	0.23868931
718.235	0.23882305
718.425	0.23884699
718.615	0.23890998
718.805	0.23897122
718.995	0.23903211
719.185	0.23915018
719.375	0.2392448
719.565	0.23938588
719.755	0.23958815
719.945	0.23984716
720.135	0.24005285
720.325	0.24021949
720.515	0.24037595
720.704	0.24054017
720.894	0.24071869
721.084	0.24085755
721.274	0.24095462
721.464	0.24119513
721.654	0.24150733
721.843	0.24173806
722.033	0.24202289
722.223	0.2423108
722.413	0.24257275
722.602	0.24281666
722.792	0.24304147
722.982	0.24318644
723.171	0.2434792
723.361	0.24369134
723.55	0.24393658
723.74	0.24416848
723.93	0.24437267
724.119	0.24457435
724.309	0.24466354
724.498	0.24464733
724.688	0.2446767
724.877	0.24468189
725.067	0.2447491
725.256	0.24484203
725.446	0.24484238
725.635	0.24486712
725.825	0.24496287
726.014	0.24508003
726.203	0.24524307
726.393	0.24539619
726.582	0.24550119
726.771	0.24575561
726.961	0.24605673
727.15	0.24637332
727.339	0.24672761
727.529	0.24708909
727.718	0.24734631
727.907	0.24765108
728.096	0.24782982
728.286	0.2480658
728.475	0.24834224
728.664	0.24855784
728.853	0.24874754
729.042	0.24901319
729.231	0.2493201
729.42	0.24957794
729.609	0.24985297
729.799	0.24998515
729.988	0.25013496
730.177	0.2502154
730.366	0.25028613
730.555	0.25033991
730.744	0.25050851
730.933	0.25066857
731.122	0.2509122
731.31	0.25123925
731.499	0.25157456
731.688	0.25203327
731.877	0.25243969
732.066	0.25280132
732.255	0.25310848
732.444	0.25338353
732.632	0.25359014
732.821	0.253827
733.01	0.2540333
733.199	0.25433645
733.388	0.25471003
733.576	0.25509246
733.765	0.25550166
733.954	0.25590203
734.142	0.25630775
734.331	0.2567008
734.52	0.25701069
734.708	0.25726771
734.897	0.25753389
735.086	0.25771942
735.274	0.25796335
735.463	0.25820411
735.651	0.25844859
735.84	0.25871071
736.028	0.25900368
736.217	0.25939592
736.405	0.25981256
736.594	0.2601796
736.782	0.26055247
736.971	0.26090359
737.159	0.26122477
737.347	0.26151802
737.536	0.2617348
737.724	0.2620276
737.912	0.26223451
738.101	0.26245156
738.289	0.26263143
738.477	0.26287179
738.666	0.26296699
738.854	0.26316428
739.042	0.26343654
739.23	0.26373247
739.418	0.26408588
739.607	0.2645663
739.795	0.26507753
739.983	0.26581367
740.171	0.26651006
740.359	0.26706502
740.547	0.26765716
740.735	0.26813227
740.923	0.26856295
741.112	0.268922
741.3	0.26915071
741.488	0.26928113
741.676	0.26941839
741.864	0.26961351
742.052	0.26993336
742.239	0.27016102
742.427	0.27046618
742.615	0.27080983
742.803	0.27119559
742.991	0.2717672
743.179	0.272323
743.367	0.27283288
743.555	0.2735817
743.742	0.274277
743.93	0.27497471
744.118	0.27557712
744.306	0.27596886
744.494	0.27629198
744.681	0.2766764
744.869	0.27695243
745.057	0.27719086
745.244	0.27746614
745.432	0.2778344
745.62	0.27822794
745.807	0.27882493
745.995	0.27934393
746.182	0.27967832
746.37	0.28009252
746.558	0.28048714
746.745	0.28090065
746.933	0.28139099
747.12	0.28174701
747.308	0.28208683
747.495	0.2824892
747.683	0.28280987
747.87	0.28313107
748.057	0.28345493
748.245	0.28374324
748.432	0.28408461
748.62	0.28437609
748.807	0.28476834
748.994	0.28524218
749.182	0.28571943
749.369	0.28623291
749.556	0.28672176
749.743	0.28712207
749.931	0.28764883
750.118	0.28823952
750.305	0.28874087
750.492	0.28930044
750.68	0.28983017
750.867	0.2904667
751.054	0.29114801
751.241	0.29175553
751.428	0.29228736
751.615	0.29296633
751.802	0.2935797
751.989	0.29411982
752.176	0.29464886
752.363	0.29513618
752.55	0.29560875
752.737	0.29602646
752.924	0.29633504
753.111	0.29666557
753.298	0.29697639
753.485	0.29722605
753.672	0.29741893
753.859	0.29767122
754.046	0.29792662
754.233	0.29819433
754.42	0.29858116
754.606	0.29893071
754.793	0.29931548
754.98	0.29982349
755.167	0.30032331
755.353	0.3009461
755.54	0.30153704
755.727	0.30189955
755.914	0.30238552
756.1	0.30292431
756.287	0.30337162
756.474	0.30379658
756.66	0.30413403
756.847	0.30444333
757.033	0.30479618
757.22	0.30519845
757.407	0.30553707
757.593	0.30591426
757.78	0.30626993
757.966	0.3067197
758.153	0.3072225
758.339	0.30776832
758.526	0.30830435
758.712	0.30877147
758.898	0.3094004
759.085	0.31001685
759.271	0.31059312
759.458	0.31124299
759.644	0.31199846
759.83	0.31268404
760.017	0.31348129
760.203	0.31406397
760.389	0.31469383
760.576	0.31528365
760.762	0.31571667
760.948	0.3159307
761.134	0.31617923
761.32	0.31643557
761.507	0.31679981
761.693	0.31723665
761.879	0.31755644
762.065	0.31801097
762.251	0.31860916
762.437	0.31915738
762.623	0.31961731
762.809	0.32011965
762.995	0.3205583
763.181	0.32110992
763.367	0.32169787
763.553	0.32225315
763.739	0.3228775
763.925	0.32349257
764.111	0.32404612
764.297	0.32463771
764.483	0.32517107
764.669	0.32559937
764.855	0.32605137
765.041	0.32653924
765.227	0.32699267
765.412	0.32742567
765.598	0.32773012
765.784	0.3282709
765.97	0.32889571
766.156	0.32959429
766.341	0.33017754
766.527	0.33083086
766.713	0.33154775
766.898	0.33234134
767.084	0.3329142
767.27	0.33341663
767.455	0.33387583
767.641	0.33450016
767.827	0.33514295
768.012	0.33573133
768.198	0.33633908
768.383	0.33706073
768.569	0.33773864
768.754	0.33850272
768.94	0.3391685
769.125	0.33979634
769.311	0.34028838
769.496	0.3407932
769.682	0.34134472
769.867	0.34198621
770.052	0.34257709
770.238	0.34304581
770.423	0.34350797
770.608	0.34409825
770.794	0.34461696
770.979	0.34498719
771.164	0.34536984
771.35	0.34573542
771.535	0.34618339
771.72	0.3466537
771.905	0.34719733
772.09	0.34785015
772.276	0.34849593
772.461	0.34915656
772.646	0.34972913
772.831	0.3502697
773.016	0.35094984
773.201	0.3515137
773.386	0.35212623
773.571	0.35265326
773.756	0.35305387
773.941	0.35349336
774.126	0.35400121
774.311	0.35434715
774.496	0.35475962
774.681	0.35515902
774.866	0.35564375
775.051	0.35614058
775.236	0.35668764
775.421	0.35722709
775.606	0.3578295
775.791	0.35834536
775.976	0.35885413
776.16	0.35934716
776.345	0.35992148
776.53	0.36047093
776.715	0.36096701
776.899	0.36143691
777.084	0.36195817
777.269	0.36249398
777.454	0.36302547
777.638	0.36349824
777.823	0.36392303
778.008	0.36431396
778.192	0.36466936
778.377	0.36492075
778.561	0.36514076
778.746	0.36538681
778.931	0.36570572
779.115	0.36606592
779.3	0.36647118
779.484	0.36690369
779.669	0.36751777
779.853	0.36803871
780.037	0.36860879
780.222	0.36906079
780.406	0.36940415
780.591	0.36973261
780.775	0.37000873
780.959	0.37016661
781.144	0.37036199
781.328	0.37045366
781.512	0.37049959
781.697	0.37074714
781.881	0.37082792
782.065	0.37098066
782.249	0.37099727
782.434	0.37113063
782.618	0.37126646
782.802	0.37157604
782.986	0.37167058
783.17	0.371973
783.354	0.37224388
783.539	0.37264882
783.723	0.37296467
783.907	0.37348368
784.091	0.37394496
784.275	0.37453748
784.459	0.37502213
784.643	0.37552227
784.827	0.37592983
785.011	0.37634148
785.195	0.37673647
785.379	0.37706308
785.563	0.37733296
785.747	0.37761462
785.93	0.37804119
786.114	0.37831503
786.298	0.37862123
786.482	0.37879673
786.666	0.37910383
786.85	0.37937186
787.033	0.37971613
787.217	0.38003677
787.401	0.38055293
787.585	0.38100835
787.768	0.38154521
787.952	0.38197683
788.136	0.38243387
788.319	0.3829362
788.503	0.38338228
788.687	0.38390014
788.87	0.38451822
789.054	0.38510381
789.237	0.38575877
789.421	0.38638993
789.605	0.38689502
789.788	0.38732499
789.972	0.38777745
790.155	0.38808608
790.338	0.38847433
790.522	0.38884367
790.705	0.38920769
790.889	0.38961739
791.072	0.39012468
791.256	0.39055654
791.439	0.39102857
791.622	0.39138118
791.806	0.39180777
791.989	0.39220356
792.172	0.39272299
792.355	0.39313863
792.539	0.39366944
792.722	0.39408926
792.905	0.39452546
793.088	0.39490661
793.271	0.39556035
793.455	0.39614789
793.638	0.39675651
793.821	0.39705379
794.004	0.39756377
794.187	0.39809077
794.37	0.39868805
794.553	0.39907535
794.736	0.399425
794.919	0.39979099
795.102	0.40054073
795.285	0.40133865
795.468	0.40206759
795.651	0.40286131
795.834	0.40385923
796.017	0.40489309
796.2	0.40584246
796.383	0.4066358
796.566	0.40726725
796.749	0.40797475
796.931	0.40857045
797.114	0.4088866
797.297	0.40910307
797.48	0.40934924
797.663	0.40959951
797.845	0.40994115
798.028	0.41032603
798.211	0.41052633
798.393	0.41094053
798.576	0.41136404
798.759	0.41167101
798.941	0.41210176
799.124	0.41247589
799.307	0.41279531
799.489	0.41338829
799.672	0.41380304
799.854	0.41417698
800.037	0.41471299
800.219	0.41509638
800.402	0.41549547
800.584	0.41580253
800.767	0.41611155
800.949	0.41653171
801.132	0.41712822
801.314	0.41769237
801.496	0.41825984
801.679	0.41870036
801.861	0.41914816
802.043	0.41935209
802.226	0.41961854
802.408	0.41971072
802.59	0.41988841
802.772	0.42013278
802.955	0.42051773
803.137	0.4208666
803.319	0.42137392
803.501	0.42178202
803.684	0.42226845
803.866	0.42260919
804.048	0.42303085
804.23	0.42331564
804.412	0.42372107
804.594	0.42393305
804.776	0.42436757
804.958	0.4247255
805.14	0.42518017
805.322	0.42541216
805.504	0.42571538
805.686	0.42585807
805.868	0.42605404
806.05	0.42603416
806.232	0.42615689
806.414	0.42642124
806.596	0.42667679
806.778	0.42682396
806.96	0.42715495
807.141	0.42745523
807.323	0.42777762
807.505	0.42785465
807.687	0.42770286
807.869	0.42758001
808.05	0.42745558
808.232	0.42723184
808.414	0.42719495
808.595	0.42694606
808.777	0.42701466
808.959	0.42717315
809.14	0.42736588
809.322	0.42768091
809.504	0.42791492
809.685	0.42799895
809.867	0.42815911
810.048	0.42804874
810.23	0.42797843
810.411	0.42787257
810.593	0.42780924
810.774	0.42784169
810.956	0.4280219
811.137	0.4283046
811.319	0.42874292
811.5	0.42910129
811.681	0.42947418
811.863	0.42966636
812.044	0.42983869
812.225	0.43008591
812.407	0.43004277
812.588	0.42993683
812.769	0.42984139
812.951	0.42975171
813.132	0.42986462
813.313	0.43011891
813.494	0.43008167
813.675	0.43031108
813.857	0.43061819
814.038	0.43107266
814.219	0.43141797
814.4	0.43167541
814.581	0.43192537
814.762	0.43217325
814.943	0.43253847
815.124	0.43276415
815.305	0.43285769
815.486	0.43308195
815.667	0.43332198
815.848	0.43344688
816.029	0.43362443
816.21	0.43380114
816.391	0.43423157
816.572	0.43448773
816.753	0.43486761
816.934	0.43517596
817.115	0.43550647
817.295	0.43594233
817.476	0.436131
817.657	0.43629114
817.838	0.43670857
818.019	0.43709834
818.199	0.43748203
818.38	0.43783392
818.561	0.43833502
818.741	0.43886941
818.922	0.43927515
819.103	0.43980169
819.283	0.44029248
819.464	0.44083415
819.645	0.44138337
819.825	0.44178354
820.006	0.44228325
820.186	0.44272867
820.367	0.443139
820.547	0.44333973
820.728	0.44361654
820.908	0.44377507
821.089	0.44404198
821.269	0.44414491
821.45	0.44445702
821.63	0.44439359
821.81	0.44457771
821.991	0.4447455
822.171	0.44514145
822.351	0.44536786
822.532	0.44565019
822.712	0.44579657
822.892	0.4462463
823.072	0.44664054
823.253	0.44708265
823.433	0.44741661
823.613	0.44775572
823.793	0.44817342
823.973	0.44877356
824.154	0.44932954
824.334	0.44984365
824.514	0.45031084
824.694	0.45092367
824.874	0.45131356
825.054	0.45191917
825.234	0.45221096
825.414	0.45227724
825.594	0.45249592
825.774	0.45263809
825.954	0.45252841
826.134	0.45273175
826.314	0.45262444
826.494	0.45272738
826.674	0.45283961
826.854	0.45285838
827.033	0.45285036
827.213	0.45334919
827.393	0.45364621
827.573	0.4542073
827.753	0.45450693
827.932	0.45513887
828.112	0.45578169
828.292	0.45647547
828.472	0.45648312
828.651	0.45682071
828.831	0.45683125
829.011	0.45705733
829.19	0.45685326
829.37	0.45692828
829.549	0.45710369
829.729	0.45730247
829.909	0.45742573
830.088	0.45767856
830.268	0.45774029
830.447	0.45818924
830.627	0.4585523
830.806	0.45881895
830.986	0.45912473
831.165	0.45932415
831.344	0.45958742
831.524	0.45983968
831.703	0.45997995
831.883	0.45979566
832.062	0.45977181
832.241	0.45992391
832.421	0.4601774
832.6	0.46036361
832.779	0.46076333
832.958	0.46096371
833.138	0.46115507
833.317	0.46150055
833.496	0.46168692
833.675	0.46190855
833.854	0.46218354
834.034	0.46222554
834.213	0.4623136
834.392	0.46278403
834.571	0.46273956
834.75	0.46296094
834.929	0.4628833
835.108	0.46285197
835.287	0.46306022
835.466	0.4632938
835.645	0.46343342
835.824	0.463568
836.003	0.46366978
836.182	0.46403436
836.361	0.46432262
836.54	0.46437072
836.719	0.46464439
836.897	0.4645889
837.076	0.46481688
837.255	0.46494846
837.434	0.46500557
837.613	0.46503596
837.791	0.46509167
837.97	0.46502797
838.149	0.46494863
838.328	0.46488112
838.506	0.46472546
838.685	0.46464591
838.864	0.4646187
839.042	0.46469265
839.221	0.46496312
839.4	0.46541956
839.578	0.46585965
839.757	0.46626634
839.935	0.46664417
840.114	0.46693403
840.292	0.46704476
840.471	0.46703958
840.649	0.46698768
840.828	0.46677025
841.006	0.46681124
841.185	0.46667443
841.363	0.46684942
841.541	0.46705501
841.72	0.46745105
841.898	0.46795713
842.076	0.46841538
842.255	0.46881184
842.433	0.46938072
842.611	0.46961061
842.789	0.469979
842.968	0.47019969
843.146	0.47015184
843.324	0.47026693
843.502	0.47030833
843.68	0.47047974
843.859	0.47055547
844.037	0.4704369
844.215	0.47009517
844.393	0.47004375
844.571	0.46984836
844.749	0.46979743
844.927	0.46943517
845.105	0.46924432
845.283	0.4692347
845.461	0.46943111
845.639	0.4695885
845.817	0.46968213
845.995	0.46971135
846.173	0.47003345
846.351	0.46991908
846.529	0.46974671
846.706	0.46957748
846.884	0.46944625
847.062	0.46931228
847.24	0.46921905
847.418	0.46898483
847.595	0.46916685
847.773	0.46950513
847.951	0.46970984
848.129	0.46952025
848.306	0.46967405
848.484	0.46946082
848.662	0.46936526
848.839	0.469274
849.017	0.46904178
849.194	0.46871556
849.372	0.46878666
849.549	0.46866575
849.727	0.46881523
849.905	0.4687331
850.082	0.46879497
850.26	0.46901381
850.437	0.46923089
850.614	0.46948948
850.792	0.46961007
850.969	0.46993682
851.147	0.47024085
851.324	0.47028017
851.501	0.47023731
851.679	0.47023147
851.856	0.47009539
852.033	0.47039068
852.211	0.47046414
852.388	0.47040705
852.565	0.47083314
852.742	0.47118969
852.92	0.47138537
853.097	0.47152006
853.274	0.47152632
853.451	0.47135213
853.628	0.47132162
853.805	0.47093481
853.982	0.47054297
854.159	0.47030159
854.336	0.47012841
854.514	0.46988671
854.691	0.46975451
854.868	0.46982379
855.045	0.46985796
855.221	0.47008634
855.398	0.47012267
855.575	0.47003538
855.752	0.47001927
855.929	0.47016971
856.106	0.46992312
856.283	0.4698849
856.46	0.46955432
856.637	0.46953353
856.813	0.46949366
856.99	0.46924522
857.167	0.46893098
857.344	0.46875656
857.52	0.46854084
857.697	0.46822608
857.874	0.46795419
858.05	0.46788157
858.227	0.46784893
858.404	0.46780673
858.58	0.46797827
858.757	0.46785591
858.933	0.46813959
859.11	0.46822815
859.287	0.4678817
859.463	0.46762861
859.64	0.46754678
859.816	0.46729535
859.993	0.4673797
860.169	0.4674628
860.345	0.46735023
860.522	0.46764742
860.698	0.46774103
860.875	0.46773757
861.051	0.46801108
861.227	0.46772827
861.404	0.46751349
861.58	0.46762411
861.756	0.46743525
861.932	0.46748613
862.109	0.46728544
862.285	0.46712501
862.461	0.46735168
862.637	0.46710796
862.813	0.46683068
862.99	0.46660742
863.166	0.4661726
863.342	0.46623507
863.518	0.46560856
863.694	0.46512777
863.87	0.46484585
864.046	0.46448949
864.222	0.46424987
864.398	0.46414443
864.574	0.46362834
864.75	0.46369894
864.926	0.46365903
865.102	0.46370098
865.278	0.46352812
865.454	0.46336465
865.63	0.46309637
865.805	0.46302718
865.981	0.46299507
866.157	0.46300492
866.333	0.4626868
866.509	0.46276816
866.684	0.46296107
866.86	0.46333814
867.036	0.46342467
867.212	0.46296442
867.387	0.46276063
867.563	0.46275413
867.739	0.46254263
867.914	0.46224247
868.09	0.46184139
868.265	0.46146802
868.441	0.46145575
868.617	0.46117413
868.792	0.46101847
868.968	0.46087
869.143	0.46081032
869.319	0.46062064
869.494	0.46033055
869.67	0.46013502
869.845	0.4599595
870.02	0.45975471
870.196	0.45963017
870.371	0.45939231
870.546	0.45927493
870.722	0.45958595
870.897	0.4595028
871.072	0.45939176
871.248	0.45916046
871.423	0.45884797
871.598	0.45863898
871.773	0.45812108
871.949	0.45768478
872.124	0.45774927
872.299	0.4573243
872.474	0.45698492
872.649	0.45677894
872.824	0.45645339
872.999	0.45650818
873.174	0.45632432
873.349	0.45593494
873.524	0.45589031
873.699	0.45588798
873.874	0.45558314
874.049	0.45532855
874.224	0.45474113
874.399	0.45412797
874.574	0.45364267
874.749	0.45321446
874.924	0.45260067
875.099	0.4521915
875.274	0.45185855
875.449	0.45188054
875.623	0.45155382
875.798	0.45117235
875.973	0.45087654
876.148	0.45059257
876.322	0.45047804
876.497	0.45006229
876.672	0.44955203
876.846	0.44937833
877.021	0.44911385
877.196	0.44853848
877.37	0.44863374
877.545	0.44867187
877.72	0.44836974
877.894	0.44833392
878.069	0.44804002
878.243	0.4476034
878.418	0.44759036
878.592	0.44696761
878.767	0.44645182
878.941	0.44655812
879.116	0.44627789
879.29	0.44631067
879.464	0.44640683
879.639	0.44638243
879.813	0.44665791
879.987	0.44647228
880.162	0.4463103
880.336	0.44614665
880.51	0.44598527
880.685	0.44596086
880.859	0.44587038
881.033	0.44548235
881.207	0.44516523
881.381	0.44504933
881.556	0.44474824
881.73	0.44434377
881.904	0.44410177
882.078	0.44370307
882.252	0.44340671
882.426	0.44308642
882.6	0.44260101
882.774	0.44243438
882.948	0.44211373
883.122	0.44136708
883.296	0.4408287
883.47	0.44042366
883.644	0.44021369
883.818	0.43952379
883.992	0.43924066
884.166	0.43930296
884.34	0.43949081
884.514	0.4397164
884.687	0.43965045
884.861	0.43924049
885.035	0.43942997
885.209	0.4390049
885.382	0.43832345
885.556	0.43789493
885.73	0.43746183
885.904	0.43704315
886.077	0.43688129
886.251	0.43642649
886.425	0.43623874
886.598	0.43617026
886.772	0.43573082
886.945	0.43509404
887.119	0.43462009
887.292	0.4342793
887.466	0.43419331
887.64	0.43375083
887.813	0.43324752
887.986	0.43299999
888.16	0.43292087
888.333	0.43244483
888.507	0.43202602
888.68	0.43145602
888.854	0.4312262
889.027	0.43095129
889.2	0.43089354
889.374	0.4304124
889.547	0.43058245
889.72	0.43063509
889.893	0.43039982
890.067	0.42993256
890.24	0.42942428
890.413	0.42864995
890.586	0.42814615
890.759	0.42747855
890.933	0.42684311
891.106	0.42628684
891.279	0.42591543
891.452	0.42579977
891.625	0.42544111
891.798	0.42528271
891.971	0.42494954
892.144	0.42467575
892.317	0.42474961
892.49	0.42456737
892.663	0.4242754
892.836	0.42443889
893.009	0.42428474
893.182	0.42402096
893.355	0.4238994
893.527	0.42352637
893.7	0.42353961
893.873	0.42336048
894.046	0.4226872
894.219	0.42249184
894.391	0.42232008
894.564	0.42204192
894.737	0.42154609
894.91	0.42090276
895.082	0.42025409
895.255	0.4198364
895.428	0.41923124
895.6	0.41855951
895.773	0.41763517
895.945	0.41708087
896.118	0.41659398
896.291	0.41623033
896.463	0.41577249
896.636	0.41519321
896.808	0.41474387
896.981	0.4143593
897.153	0.41380343
897.326	0.41323111
897.498	0.41267536
897.67	0.41237417
897.843	0.41215175
898.015	0.41208744
898.187	0.41195689
898.36	0.41159574
898.532	0.41121924
898.704	0.41102272
898.877	0.41042309
899.049	0.409872
899.221	0.40930885
899.393	0.40877617
899.566	0.40857318
899.738	0.40829755
899.91	0.40787014
900.082	0.40739227
900.254	0.40680534
900.426	0.40622566
900.598	0.40590298
900.77	0.40529526
900.942	0.40490901
901.114	0.40445909
901.286	0.4044341
901.458	0.40447925
901.63	0.4044871
901.802	0.40440992
901.974	0.40435513
902.146	0.40411802
902.318	0.40393353
902.49	0.40359568
902.662	0.40311417
902.834	0.40246793
903.005	0.40192952
903.177	0.401438
903.349	0.40095768
903.521	0.40036547
903.693	0.39980854
903.864	0.39927991
904.036	0.39897229
904.208	0.39821209
904.379	0.3976693
904.551	0.39741177
904.723	0.39695997
904.894	0.39630782
905.066	0.39605879
905.237	0.39580386
905.409	0.39550059
905.58	0.39535181
905.752	0.39463015
905.923	0.39411586
906.095	0.3937322
906.266	0.39300821
906.438	0.39227346
906.609	0.39178201
906.78	0.39116301
906.952	0.39088407
907.123	0.3904597
907.295	0.39062331
907.466	0.3907125
907.637	0.39077476
907.808	0.39052742
907.98	0.39030605
908.151	0.38997019
908.322	0.38993659
908.493	0.38919701
908.665	0.38863057
908.836	0.38781722
909.007	0.38748563
909.178	0.38675579
909.349	0.38636015
909.52	0.38597275
909.691	0.38545876
909.862	0.38504949
910.033	0.38456397
910.204	0.38416626
910.375	0.38401399
910.546	0.38352274
910.717	0.38281563
910.888	0.38253899
911.059	0.38196782
911.23	0.38156186
911.401	0.3809549
911.572	0.38039093
911.742	0.37982984
911.913	0.379523
912.084	0.37879828
912.255	0.37841382
912.426	0.37774964
912.596	0.37720054
912.767	0.37669622
912.938	0.37619418
913.108	0.37543725
913.279	0.374914
913.45	0.37418004
913.62	0.37388726
913.791	0.37351113
913.962	0.37302692
914.132	0.37257948
914.303	0.37226238
914.473	0.37193391
914.644	0.37164786
914.814	0.3713182
914.985	0.37115251
915.155	0.3707083
915.326	0.37032262
915.496	0.36993047
915.666	0.36952232
915.837	0.36942044
916.007	0.36869193
916.177	0.36772021
916.348	0.36727443
916.518	0.36680647
916.688	0.36616287
916.858	0.36571557
917.029	0.36493981
917.199	0.36471325
917.369	0.36484009
917.539	0.36468819
917.709	0.3644617
917.88	0.3642672
918.05	0.36390002
918.22	0.3637417
918.39	0.36347443
918.56	0.36312144
918.73	0.36302623
918.9	0.36274431
919.07	0.36246973
919.24	0.36238658
919.41	0.36219099
919.58	0.36173764
919.75	0.36127836
919.92	0.36032987
920.09	0.35993509
920.26	0.35944275
920.429	0.35906197
920.599	0.35850868
920.769	0.3582207
920.939	0.3576256
921.109	0.35740187
921.278	0.35672919
921.448	0.35650395
921.618	0.35607586
921.787	0.35551464
921.957	0.3551359
922.127	0.35459468
922.296	0.35419474
922.466	0.35368602
922.636	0.35301213
922.805	0.35234234
922.975	0.35165514
923.144	0.35100977
923.314	0.35051853
923.483	0.34996515
923.653	0.34969269
923.822	0.34933778
923.992	0.34885343
924.161	0.348618
924.331	0.34809143
924.5	0.34766102
924.669	0.34688736
924.839	0.34637607
925.008	0.34568888
925.177	0.34487488
925.347	0.34424244
925.516	0.3439462
925.685	0.34350134
925.854	0.34333121
926.023	0.34277226
926.193	0.34259977
926.362	0.34229326
926.531	0.34207579
926.7	0.34141235
926.869	0.34115934
927.038	0.34037534
927.207	0.33980532
927.376	0.33895208
927.545	0.33839604
927.715	0.33758335
927.884	0.33711652
928.052	0.33658571
928.221	0.3360596
928.39	0.33548317
928.559	0.33505567
928.728	0.33491361
928.897	0.33501701
929.066	0.33471717
929.235	0.33398099
929.404	0.33365198
929.572	0.33327593
929.741	0.33305802
929.91	0.33240917
930.079	0.33136269
930.247	0.33072936
930.416	0.33042512
930.585	0.32997724
930.753	0.32952275
930.922	0.32897275
931.091	0.32867897
931.259	0.32837819
931.428	0.32803742
931.596	0.32761305
931.765	0.32742784
931.934	0.32722284
932.102	0.32626003
932.27	0.3254028
932.439	0.32478646
932.607	0.32427426
932.776	0.32397462
932.944	0.32334981
933.113	0.32286549
933.281	0.32282249
933.449	0.32243973
933.618	0.32188957
933.786	0.3214543
933.954	0.32063863
934.123	0.32005457
934.291	0.31965869
934.459	0.31925022
934.627	0.31895148
934.795	0.31875832
934.964	0.31834103
935.132	0.31768758
935.3	0.31715339
935.468	0.31624113
935.636	0.3158369
935.804	0.31537014
935.972	0.31490692
936.14	0.3146039
936.308	0.3145426
936.476	0.31451584
936.644	0.31453074
936.812	0.31413145
936.98	0.31379971
937.148	0.3130674
937.316	0.3121666
937.484	0.31244593
937.652	0.31149474
937.82	0.31145928
937.987	0.31089816
938.155	0.31013319
938.323	0.31006852
938.491	0.30904891
938.658	0.30888768
938.826	0.30884409
938.994	0.30820456
939.162	0.30778751
939.329	0.30834079
939.497	0.30920036
939.665	0.3098374
939.832	0.30989323
940	0.31037611
940.167	0.30999921
940.335	0.30986098
940.502	0.30875576
940.67	0.3071625
940.837	0.30751439
941.005	0.30551268
941.172	0.30436214
941.34	0.30421321
941.507	0.30492195
941.674	0.3059283
941.842	0.30658562
942.009	0.30698228
942.177	0.30535533
942.344	0.30661626
942.511	0.30575347
942.678	0.30554776
942.846	0.30388877
943.013	0.30285169
943.18	0.30174513
943.347	0.30373235
943.514	0.30226073
943.682	0.30384899
943.849	0.30209532
944.016	0.30228127
944.183	0.30247144
944.35	0.30240456
944.517	0.3015307
944.684	0.30214605
944.851	0.29738836
945.018	0.29732605
945.185	0.29605239
945.352	0.29483567
945.519	0.29342504
945.686	0.29193871
945.853	0.29271921
946.02	0.29353687
946.187	0.29367032
946.353	0.29499787
946.52	0.29444905
946.687	0.29406608
946.854	0.29468314
947.021	0.29293096
947.187	0.29183377
947.354	0.28920884
947.521	0.28797245
947.687	0.28665557
947.854	0.28576795
948.021	0.28444667
948.187	0.28346354
948.354	0.28360532
948.52	0.28413718
948.687	0.28429002
948.854	0.2852841
949.02	0.28330632
949.187	0.28307529
949.353	0.28222222
949.52	0.28076249
949.686	0.2803459
949.852	0.27976573
950.019	0.27878583
950.185	0.28029434
950.352	0.27891481
950.518	0.2780742
950.684	0.27817508
950.851	0.27782891
951.017	0.27564519
951.183	0.27549555
951.349	0.27431758
951.516	0.27282427
951.682	0.27213532
951.848	0.27110522
952.014	0.26988383
952.18	0.2702453
952.346	0.26869329
952.512	0.26816169
952.679	0.26878598
952.845	0.26816034
953.011	0.26752234
953.177	0.26689643
953.343	0.2657532
953.509	0.26610189
953.675	0.26502633
953.841	0.2637126
954.007	0.2640535
954.172	0.26455444
954.338	0.2634836
954.504	0.26260001
954.67	0.26042881
954.836	0.2606659
955.002	0.26067368
955.167	0.25974289
955.333	0.2581841
955.499	0.25822832
955.665	0.25717931
955.83	0.25803367
955.996	0.25711985
956.162	0.25606632
956.327	0.25516675
956.493	0.25475588
956.659	0.2550576
956.824	0.25429045
956.99	0.25262575
957.155	0.25164674
957.321	0.25167089
957.486	0.25124244
957.652	0.25058578
957.817	0.24978197
957.983	0.24951139
958.148	0.2493968
958.314	0.24965589
958.479	0.24847689
958.644	0.24774727
958.81	0.24755816
958.975	0.24712045
959.14	0.24749379
959.306	0.2470999
959.471	0.24615713
959.636	0.24566232
959.801	0.24634468
959.967	0.24585325
960.132	0.24548548
960.297	0.24478195
960.462	0.24496122
960.627	0.24422514
960.792	0.24365013
960.957	0.24295289
961.123	0.24314046
961.288	0.24217204
961.453	0.2424895
961.618	0.24230743
961.783	0.24259802
961.948	0.24244249
962.113	0.24135014
962.277	0.24064356
962.442	0.2402238
962.607	0.23952273
962.772	0.23823331
962.937	0.23712334
963.102	0.23700393
963.267	0.23664717
963.431	0.23611422
963.596	0.23586422
963.761	0.23444873
963.926	0.23381109
964.09	0.23379336
964.255	0.23331793
964.42	0.23316583
964.584	0.23281534
964.749	0.23214194
964.914	0.23196067
965.078	0.23173518
965.243	0.23093445
965.407	0.23051643
965.572	0.22988795
965.736	0.22950022
965.901	0.22948922
966.065	0.23001134
966.23	0.2296514
966.394	0.22980448
966.559	0.22932993
966.723	0.22905598
966.887	0.22867894
967.052	0.22754601
967.216	0.22630788
967.38	0.22547392
967.545	0.22496515
967.709	0.22487459
967.873	0.22459299
968.037	0.22390592
968.202	0.2243125
968.366	0.22447276
968.53	0.22464795
968.694	0.22410645
968.858	0.22329692
969.022	0.22238981
969.187	0.22185941
969.351	0.22135755
969.515	0.22100491
969.679	0.22008561
969.843	0.21973109
970.007	0.21955503
970.171	0.21980104
970.335	0.21989196
970.499	0.2195204
970.662	0.21891169
970.826	0.21891143
970.99	0.21871989
971.154	0.21832202
971.318	0.21760667
971.482	0.21636449
971.645	0.21580212
971.809	0.21583438
971.973	0.21546221
972.137	0.21444353
972.3	0.21381604
972.464	0.21330171
972.628	0.21378847
972.791	0.21335988
972.955	0.21256977
973.119	0.21186068
973.282	0.21166437
973.446	0.21131206
973.609	0.21107497
973.773	0.21054506
973.936	0.21000635
974.1	0.20934172
974.263	0.20922709
974.427	0.20887663
974.59	0.20828125
974.754	0.20767763
974.917	0.20694149
975.08	0.20668842
975.244	0.20645683
975.407	0.20619861
975.57	0.20633012
975.734	0.20589769
975.897	0.20573006
976.06	0.20552848
976.223	0.20518998
976.387	0.20521965
976.55	0.20481115
976.713	0.20401254
976.876	0.20408566
977.039	0.20340615
977.202	0.20292384
977.365	0.2021932
977.528	0.20153168
977.692	0.20079467
977.855	0.20024639
978.018	0.19924467
978.181	0.19888975
978.344	0.19874068
978.506	0.19804373
978.669	0.19727092
978.832	0.19693368
978.995	0.1965842
979.158	0.19684831
979.321	0.19612857
979.484	0.19513917
979.646	0.19510862
979.809	0.19505758
979.972	0.19441709
980.135	0.19432834
980.297	0.19446066
980.46	0.1942545
980.623	0.19464332
980.786	0.19443814
980.948	0.19392492
981.111	0.19378145
981.273	0.19322242
981.436	0.19239993
981.599	0.19232878
981.761	0.19124333
981.924	0.19171363
982.086	0.19171418
982.249	0.19161916
982.411	0.1913924
982.573	0.19088098
982.736	0.19169712
982.898	0.19188998
983.061	0.19093
983.223	0.19061569
983.385	0.19024578
983.548	0.19073418
983.71	0.19064463
983.872	0.18970994
984.034	0.18945453
984.197	0.188974
984.359	0.18867954
984.521	0.18863621
984.683	0.1881139
984.845	0.18807341
985.008	0.18715521
985.17	0.18750834
985.332	0.18736281
985.494	0.18658201
985.656	0.18615881
985.818	0.18555566
985.98	0.18522408
986.142	0.18458399
986.304	0.18363255
986.466	0.18293181
986.628	0.18257352
986.79	0.18230658
986.952	0.1810892
987.113	0.18026653
987.275	0.18000429
987.437	0.17937414
987.599	0.17917872
987.761	0.17889872
987.922	0.17805059
988.084	0.17817215
988.246	0.17793827
988.408	0.17747844
988.569	0.17772214
988.731	0.1782317
988.893	0.17866547
989.054	0.1790712
989.216	0.1787802
989.377	0.17820482
989.539	0.17811907
989.701	0.17679919
989.862	0.1757396
990.024	0.17449758
990.185	0.17345438
990.347	0.1733421
990.508	0.1728955
990.669	0.17286141
990.831	0.17325414
990.992	0.17346591
991.154	0.17308167
991.315	0.17386039
991.476	0.17335306
991.638	0.17294406
991.799	0.17272843
991.96	0.17233202
992.121	0.17195447
992.283	0.1719144
992.444	0.17071948
992.605	0.17049302
992.766	0.17028756
992.927	0.16980209
993.088	0.16945404
993.249	0.16910455
993.41	0.16870208
993.572	0.1688377
993.733	0.16803819
993.894	0.16743881
994.055	0.16627631
994.216	0.16599576
994.376	0.16484071
994.537	0.1653051
994.698	0.16439372
994.859	0.16433032
995.02	0.16444583
995.181	0.16371496
995.342	0.16347602
995.503	0.16334699
995.663	0.16246647
995.824	0.16226811
995.985	0.16277014
996.146	0.16280972
996.306	0.16377476
996.467	0.16349924
996.628	0.16368693
996.788	0.16348106
996.949	0.16404056
997.11	0.16289356
997.27	0.16267105
997.431	0.16257402
997.591	0.16171111
997.752	0.16073863
997.912	0.16044121
998.073	0.15978333
998.233	0.16049777
998.394	0.15996584
998.554	0.16060513
998.714	0.16110119
998.875	0.16127183
999.035	0.16057768
999.196	0.160368
999.356	0.1592694
999.516	0.15941809
999.676	0.1582331
999.837	0.15787897
999.997	0.15706006
1000.157	0.15699613
1000.317	0.1554908
1000.477	0.15508644
1000.638	0.15411745
1000.798	0.15406981
1000.958	0.15374342
1001.118	0.15399831
1001.278	0.15364804
1001.438	0.15446142
1001.598	0.15435558
1001.758	0.1545127
1001.918	0.15348783
1002.078	0.15270938
1002.238	0.15207737
1002.398	0.15192963
1002.558	0.15122531
1002.718	0.1502776
1002.878	0.15003374
1003.037	0.14903537
1003.197	0.14913342
1003.357	0.14832861
1003.517	0.14886902
1003.677	0.14775306
1003.836	0.14795016
1003.996	0.14691678
1004.156	0.14732686
1004.315	0.14693023
1004.475	0.14744803
1004.635	0.14646946
1004.794	0.14682565
1004.954	0.14643078
1005.114	0.14602788
1005.273	0.14527854
1005.433	0.14438587
1005.592	0.14397874
1005.752	0.14327151
1005.911	0.14348412
1006.071	0.14381158
1006.23	0.14356083
1006.389	0.14380736
1006.549	0.14319263
1006.708	0.14277789
1006.868	0.14181784
1007.027	0.1412707
1007.186	0.14081577
1007.345	0.14241853
1007.505	0.1427135
1007.664	0.14324788
1007.823	0.1433045
1007.982	0.1443418
1008.142	0.14477945
1008.301	0.1443291
1008.46	0.14235599
1008.619	0.14120679
1008.778	0.14131391
1008.937	0.14075605
1009.096	0.13970975
1009.255	0.13902385
1009.414	0.13736863
1009.573	0.1381223
1009.732	0.13937618
1009.891	0.13893165
1010.05	0.1392125
1010.209	0.13884732
1010.368	0.13861263
1010.527	0.13934212
1010.686	0.13933345
1010.845	0.13832864
1011.003	0.13790479
1011.162	0.13747429
1011.321	0.13675001
1011.48	0.13707453
1011.638	0.13777665
1011.797	0.13667197
1011.956	0.1362689
1012.115	0.13628539
1012.273	0.13606703
1012.432	0.13684218
1012.59	0.1354318
1012.749	0.13506085
1012.908	0.134832
1013.066	0.13483255
1013.225	0.13337387
1013.383	0.13410342
1013.542	0.13395072
1013.7	0.13397808
1013.859	0.13413213
1014.017	0.13448091
1014.175	0.13300099
1014.334	0.13518501
1014.492	0.13494858
1014.65	0.13504139
1014.809	0.13585659
1014.967	0.13529404
1015.125	0.13625767
1015.284	0.13879761
1015.442	0.13886223
1015.6	0.13898315
1015.758	0.13855119
1015.916	0.13793427
1016.075	0.13806157
1016.233	0.13663453
1016.391	0.13605809
1016.549	0.13513913
1016.707	0.13425308
1016.865	0.13490952
1017.023	0.13297783
1017.181	0.13230002
1017.339	0.13225693
1017.497	0.13157071
1017.655	0.1303119
1017.813	0.12964919
1017.971	0.12937409
1018.129	0.13035684
1018.286	0.12981481
1018.444	0.12920006
1018.602	0.12985327
1018.76	0.13015494
1018.918	0.12980297
1019.075	0.12882401
1019.233	0.12920808
1019.391	0.12915679
1019.549	0.12854498
1019.706	0.12824506
1019.864	0.12895751
1020.022	0.12898357
1020.179	0.12964877
1020.337	0.12879319
1020.494	0.12880856
1020.652	0.12963175
1020.809	0.12945614
1020.967	0.12934071
1021.124	0.12991953
1021.282	0.13059747
1021.439	0.132287
1021.597	0.13437511
1021.754	0.1340843
1021.911	0.13487563
1022.069	0.13294666
1022.226	0.13273572
1022.384	0.12992718
1022.541	0.12927445
1022.698	0.12920721
1022.855	0.12870123
1023.013	0.12790946
1023.17	0.12858366
1023.327	0.12954362
1023.484	0.13399509
1023.641	0.13301883
1023.798	0.134833
1023.956	0.13740727
1024.113	0.13594888
1024.27	0.13573463
1024.427	0.136482
1024.584	0.13549663
1024.741	0.13555512
1024.898	0.13300762
1025.055	0.1294631
1025.212	0.12994761
1025.369	0.12770182
1025.525	0.12672936
1025.682	0.12661955
1025.839	0.12625045
1025.996	0.12532534
1026.153	0.12820748
1026.31	0.12851233
1026.466	0.13077589
1026.623	0.13088976
1026.78	0.12887139
1026.937	0.12970677
1027.093	0.13036404
1027.25	0.13303157
1027.407	0.1324967
1027.563	0.13162809
1027.72	0.13129619
1027.876	0.13124566
1028.033	0.13220868
1028.19	0.130455
1028.346	0.12572923
1028.503	0.12644634
1028.659	0.12877478
1028.816	0.12826487
1028.972	0.13231365
1029.128	0.13318243
1029.285	0.13289409
1029.441	0.13404357
1029.598	0.13306805
1029.754	0.13650167
1029.91	0.1370909
1030.067	0.13339331
1030.223	0.13188009
1030.379	0.1339165
1030.535	0.13531878
1030.691	0.13378099
1030.848	0.13140795
1031.004	0.12940538
1031.16	0.12989125
1031.316	0.13447162
1031.472	0.13673929
1031.628	0.13444607
1031.784	0.13678394
1031.94	0.13975277
1032.096	0.14298559
1032.252	0.14306632
1032.408	0.1433425
1032.564	0.14262679
1032.72	0.14597035
1032.876	0.1410188
1033.032	0.13556268
1033.188	0.13513217
1033.344	0.13623339
1033.5	0.13372778
1033.655	0.13155174
1033.811	0.12895259
1033.967	0.13697045
