Data from 1_mm_pl_90pc_Absorbance__0__16-17-35-324.txt Node

Date: Wed Mar 08 16:17:35 CET 2023
User: Ange
Spectrometer: FLMT08341
Trigger mode: 0
Integration Time (sec): 1.000000E-2
Scans to average: 400
Electric dark correction enabled: true
Nonlinearity correction enabled: false
Boxcar width: 3
XAxis mode: Wavelengths
Number of Pixels in Spectrum: 3648
>>>>>Begin Spectral Data<<<<<
345.271	0.01333887
345.487	0.02168723
345.704	0.01943317
345.921	0.01340798
346.137	0.00407206
346.354	0.00532032
346.571	-0.02645373
346.787	-0.09834242
347.004	0.21319854
347.22	0.15424617
347.437	0.16268819
347.653	0.10367485
347.87	0.20132249
348.086	-0
348.303	-0.83693584
348.519	0.37405619
348.736	0.33678298
348.952	0.33437812
349.169	0.33874966
349.385	0.34662086
349.601	0.34681387
349.818	0.34180893
350.034	0.33695133
350.251	0.33614474
350.467	0.33777428
350.683	0.32866294
350.9	0.3269324
351.116	0.32102838
351.332	0.32101872
351.549	0.33167938
351.765	0.33675233
351.981	0.34126697
352.197	0.35075562
352.414	0.36041653
352.63	0.36590073
352.846	0.36905046
353.062	0.35930273
353.278	0.35456139
353.495	0.3605789
353.711	0.36225413
353.927	0.36843763
354.143	0.36991856
354.359	0.36494794
354.575	0.36447957
354.792	0.37367968
355.008	0.36663909
355.224	0.36122967
355.44	0.35462384
355.656	0.35293502
355.872	0.36009626
356.088	0.37814135
356.304	0.37914722
356.52	0.38197807
356.736	0.38634327
356.952	0.38976984
357.168	0.38882242
357.384	0.38950314
357.6	0.37880546
357.816	0.379844
358.032	0.38518512
358.248	0.39308995
358.464	0.39054532
358.679	0.39528247
358.895	0.39618012
359.111	0.40259196
359.327	0.39602934
359.543	0.39446317
359.759	0.39480186
359.974	0.39595874
360.19	0.39459029
360.406	0.39418697
360.622	0.3905308
360.838	0.3927331
361.053	0.39497131
361.269	0.39628286
361.485	0.39719883
361.701	0.39961506
361.916	0.39664922
362.132	0.39584852
362.348	0.39800943
362.563	0.39740906
362.779	0.39473521
362.995	0.39639989
363.21	0.40036857
363.426	0.40266981
363.641	0.40406046
363.857	0.40597654
364.073	0.40573297
364.288	0.40282049
364.504	0.40824034
364.719	0.40752437
364.935	0.40722099
365.15	0.408039
365.366	0.40745658
365.581	0.41205148
365.797	0.41569171
366.012	0.41099002
366.228	0.40770579
366.443	0.4122549
366.658	0.41316412
366.874	0.41194156
367.089	0.41421403
367.305	0.41531483
367.52	0.41776087
367.735	0.41757418
367.951	0.41469092
368.166	0.41707807
368.381	0.42278832
368.597	0.41938796
368.812	0.42217231
369.027	0.42260137
369.243	0.42678992
369.458	0.43600955
369.673	0.43758824
369.888	0.43575054
370.104	0.43484465
370.319	0.43592591
370.534	0.43439625
370.749	0.43421907
370.964	0.43259689
371.179	0.43101099
371.395	0.43059123
371.61	0.43348361
371.825	0.42932046
372.04	0.43123816
372.255	0.42887923
372.47	0.42514768
372.685	0.4215688
372.9	0.41868504
373.115	0.41478877
373.33	0.41626488
373.545	0.41659017
373.76	0.41855309
373.975	0.41769447
374.19	0.41840284
374.405	0.42154784
374.62	0.42628355
374.835	0.43000294
375.05	0.42878849
375.265	0.43019352
375.48	0.43126033
375.695	0.43602146
375.91	0.43421137
376.125	0.43023076
376.339	0.42435998
376.554	0.42601701
376.769	0.42537265
376.984	0.42485135
377.199	0.42643063
377.414	0.42586743
377.628	0.4296913
377.843	0.43386968
378.058	0.43471756
378.273	0.43603215
378.487	0.43668423
378.702	0.43548325
378.917	0.43625112
379.131	0.43237986
379.346	0.42816845
379.561	0.42514749
379.775	0.42172794
379.99	0.41848187
380.205	0.41485792
380.419	0.41150263
380.634	0.40917668
380.848	0.41157753
381.063	0.41116504
381.278	0.4141953
381.492	0.41295319
381.707	0.41484342
381.921	0.41519864
382.136	0.41859145
382.35	0.41583602
382.565	0.41506815
382.779	0.41395195
382.994	0.41444379
383.208	0.41134178
383.422	0.41434583
383.637	0.41275521
383.851	0.41561961
384.066	0.41611113
384.28	0.4148687
384.494	0.41582782
384.709	0.41740974
384.923	0.4156557
385.137	0.41325258
385.352	0.41060103
385.566	0.41145329
385.78	0.41044891
385.995	0.40869942
386.209	0.4074198
386.423	0.40766663
386.637	0.40795737
386.852	0.40562103
387.066	0.40349744
387.28	0.40208908
387.494	0.40300421
387.708	0.40228176
387.923	0.40020448
388.137	0.40127632
388.351	0.40200933
388.565	0.4024627
388.779	0.40213732
388.993	0.40310612
389.207	0.40208094
389.421	0.40161987
389.635	0.39944281
389.85	0.39786839
390.064	0.39665955
390.278	0.39623561
390.492	0.39408353
390.706	0.39329221
390.92	0.39218824
391.134	0.39232347
391.348	0.39482495
391.561	0.39257143
391.775	0.39128956
391.989	0.38909171
392.203	0.38962063
392.417	0.38926299
392.631	0.38929134
392.845	0.38591196
393.059	0.38670005
393.273	0.38537024
393.486	0.38336777
393.7	0.38015261
393.914	0.38005531
394.128	0.37855366
394.342	0.37762532
394.555	0.37418179
394.769	0.37374387
394.983	0.37435367
395.197	0.3755664
395.41	0.37451911
395.624	0.37353043
395.838	0.37258731
396.051	0.37526775
396.265	0.37391357
396.479	0.3735269
396.692	0.37213066
396.906	0.37009423
397.12	0.36899277
397.333	0.36878015
397.547	0.3664712
397.76	0.36642907
397.974	0.36568884
398.187	0.36497887
398.401	0.36552696
398.614	0.3651231
398.828	0.36408639
399.041	0.36331061
399.255	0.36233083
399.468	0.36123701
399.682	0.36028279
399.895	0.35929233
400.109	0.35784137
400.322	0.3568203
400.536	0.35499142
400.749	0.35506691
400.962	0.35438735
401.176	0.35254694
401.389	0.35141744
401.602	0.34928555
401.816	0.34863437
402.029	0.34864152
402.242	0.34658079
402.456	0.345233
402.669	0.34413566
402.882	0.3418401
403.095	0.34259992
403.309	0.34127324
403.522	0.34067621
403.735	0.33921469
403.948	0.33864943
404.161	0.33950485
404.375	0.3393801
404.588	0.337986
404.801	0.3371218
405.014	0.33508804
405.227	0.33565724
405.44	0.33492275
405.653	0.33405366
405.866	0.33283968
406.079	0.33138448
406.293	0.33062006
406.506	0.33008465
406.719	0.32838025
406.932	0.32705986
407.145	0.3248465
407.358	0.32524525
407.571	0.32393228
407.784	0.32307995
407.996	0.32246213
408.209	0.32102657
408.422	0.31984002
408.635	0.31939369
408.848	0.31811929
409.061	0.31731977
409.274	0.31632928
409.487	0.31509619
409.7	0.31438256
409.912	0.31382993
410.125	0.31301412
410.338	0.31196686
410.551	0.31105105
410.764	0.309915
410.976	0.30912869
411.189	0.30844103
411.402	0.30717607
411.615	0.3065232
411.827	0.30561261
412.04	0.30503813
412.253	0.30442495
412.465	0.30342565
412.678	0.30247215
412.891	0.30229883
413.103	0.30044271
413.316	0.29964969
413.529	0.29946457
413.741	0.2987487
413.954	0.29842568
414.166	0.2978311
414.379	0.29668576
414.591	0.29660306
414.804	0.29538579
415.016	0.29443711
415.229	0.29336412
415.441	0.29207635
415.654	0.29163159
415.866	0.29132506
416.079	0.290994
416.291	0.29041548
416.504	0.29013147
416.716	0.28956806
416.928	0.28922668
417.141	0.28801881
417.353	0.28709554
417.566	0.28561687
417.778	0.28491051
417.99	0.28323022
418.203	0.28226199
418.415	0.28119398
418.627	0.28060384
418.839	0.28020658
419.052	0.28051555
419.264	0.27988979
419.476	0.27972718
419.688	0.27941992
419.901	0.27916753
420.113	0.278417
420.325	0.27730653
420.537	0.27582759
420.749	0.27531528
420.961	0.27466834
421.174	0.27379306
421.386	0.27263369
421.598	0.2720631
421.81	0.27150877
422.022	0.27086955
422.234	0.27010905
422.446	0.26923167
422.658	0.26865627
422.87	0.26801629
423.082	0.26747813
423.294	0.26651523
423.506	0.26593918
423.718	0.26523662
423.93	0.26454559
424.142	0.26353411
424.354	0.2631144
424.566	0.26238977
424.778	0.26222261
424.99	0.26148217
425.202	0.2608767
425.414	0.26044329
425.625	0.26063006
425.837	0.25983914
426.049	0.25955539
426.261	0.25877853
426.473	0.25816441
426.684	0.25768238
426.896	0.25720013
427.108	0.25616625
427.32	0.25567457
427.531	0.2549036
427.743	0.25429773
427.955	0.25436413
428.167	0.253631
428.378	0.25314429
428.59	0.25272103
428.802	0.25245901
429.013	0.25215597
429.225	0.25168277
429.436	0.25082878
429.648	0.25066393
429.86	0.25041062
430.071	0.2500723
430.283	0.24955267
430.494	0.24889487
430.706	0.24856124
430.917	0.24815353
431.129	0.24760216
431.34	0.24699021
431.552	0.24670736
431.763	0.24606722
431.975	0.24576692
432.186	0.24497342
432.398	0.24448556
432.609	0.24370644
432.821	0.24311224
433.032	0.24252514
433.243	0.24218385
433.455	0.24153493
433.666	0.24133516
433.877	0.24102625
434.089	0.24063699
434.3	0.24007116
434.511	0.23918203
434.723	0.23863696
434.934	0.23793533
435.145	0.23730801
435.356	0.23664566
435.568	0.23617183
435.779	0.23564198
435.99	0.23524431
436.201	0.23467036
436.412	0.23429629
436.624	0.23401471
436.835	0.2338268
437.046	0.23348779
437.257	0.23312424
437.468	0.23293264
437.679	0.23268541
437.89	0.23237306
438.101	0.23198808
438.312	0.2314487
438.523	0.23113663
438.734	0.23074034
438.945	0.2302424
439.156	0.22968133
439.367	0.22949824
439.578	0.22938446
439.789	0.22868698
440	0.22834197
440.211	0.22803088
440.422	0.22768708
440.633	0.22761191
440.844	0.22704594
441.055	0.2264578
441.266	0.22646716
441.477	0.22591124
441.687	0.22548543
441.898	0.225244
442.109	0.22476335
442.32	0.22438941
442.531	0.22379145
442.741	0.22309474
442.952	0.22276183
443.163	0.22255241
443.374	0.22200121
443.584	0.22157914
443.795	0.22142466
444.006	0.22134206
444.216	0.22109417
444.427	0.22070571
444.638	0.22026511
444.848	0.21994936
445.059	0.21962373
445.27	0.21911738
445.48	0.21869338
445.691	0.21854401
445.901	0.21821987
446.112	0.21796529
446.323	0.21765811
446.533	0.21727505
446.744	0.21697314
446.954	0.21653908
447.165	0.21604139
447.375	0.21602201
447.586	0.21569375
447.796	0.21552316
448.006	0.21527209
448.217	0.21520762
448.427	0.21504662
448.638	0.21457799
448.848	0.21407004
449.058	0.21376824
449.269	0.21351416
449.479	0.21313141
449.689	0.21265616
449.9	0.212472
450.11	0.21258442
450.32	0.21257467
450.531	0.21234181
450.741	0.21189496
450.951	0.21193975
451.161	0.2116
451.372	0.21128056
451.582	0.21122543
451.792	0.21069002
452.002	0.21046626
452.212	0.21014946
452.422	0.20978895
452.633	0.20956331
452.843	0.2094809
453.053	0.2089794
453.263	0.2089103
453.473	0.20857437
453.683	0.20862292
453.893	0.20831181
454.103	0.20829458
454.313	0.20785849
454.523	0.20763845
454.733	0.20753416
454.943	0.20762231
455.153	0.20739864
455.363	0.20731663
455.573	0.20725714
455.783	0.20734365
455.993	0.20716605
456.203	0.20701564
456.413	0.20674293
456.623	0.20661268
456.833	0.20671259
457.042	0.20636708
457.252	0.20620485
457.462	0.20625497
457.672	0.20624394
457.882	0.20636448
458.091	0.20629747
458.301	0.20607184
458.511	0.2061012
458.721	0.20608836
458.931	0.20603144
459.14	0.20586363
459.35	0.20588824
459.56	0.20599499
459.769	0.20625321
459.979	0.20627974
460.189	0.20639207
460.398	0.20640987
460.608	0.20658134
460.817	0.20659007
461.027	0.20652105
461.237	0.2064869
461.446	0.20655073
461.656	0.20657348
461.865	0.20660625
462.075	0.20657768
462.284	0.20667698
462.494	0.20695714
462.703	0.20687548
462.913	0.20715512
463.122	0.20734771
463.332	0.20730161
463.541	0.20757688
463.751	0.20757675
463.96	0.20756617
464.169	0.20772782
464.379	0.20793851
464.588	0.20806121
464.797	0.20847911
465.007	0.20863013
465.216	0.20883235
465.425	0.20909872
465.635	0.20944563
465.844	0.20964397
466.053	0.20986411
466.263	0.21010944
466.472	0.2103123
466.681	0.21063532
466.89	0.21079224
467.099	0.21098941
467.309	0.21121681
467.518	0.21158162
467.727	0.21194153
467.936	0.21222803
468.145	0.21239393
468.354	0.21289804
468.563	0.21319437
468.772	0.21334017
468.982	0.21352231
469.191	0.21391589
469.4	0.21436387
469.609	0.21479482
469.818	0.2151472
470.027	0.21546819
470.236	0.21585272
470.445	0.21627423
470.654	0.21646566
470.863	0.21671473
471.072	0.21716785
471.28	0.21743157
471.489	0.21807521
471.698	0.21856139
471.907	0.21899694
472.116	0.21960756
472.325	0.22007747
472.534	0.22060078
472.743	0.22110628
472.951	0.22167594
473.16	0.22242914
473.369	0.22305008
473.578	0.22353605
473.786	0.22433055
473.995	0.22488091
474.204	0.22559534
474.413	0.2259832
474.621	0.2264424
474.83	0.22700839
475.039	0.22760006
475.247	0.2280909
475.456	0.22873475
475.665	0.22935642
475.873	0.2300967
476.082	0.23061469
476.291	0.23117676
476.499	0.23179699
476.708	0.23226106
476.916	0.23293232
477.125	0.23355702
477.333	0.23422333
477.542	0.23507696
477.75	0.23586271
477.959	0.23675935
478.167	0.2377375
478.376	0.23838898
478.584	0.23919285
478.793	0.23989205
479.001	0.24060159
479.209	0.2413057
479.418	0.24200511
479.626	0.24274938
479.834	0.24371595
480.043	0.2446181
480.251	0.24546649
480.459	0.24644018
480.668	0.2473683
480.876	0.24819906
481.084	0.24912179
481.293	0.24991657
481.501	0.25082095
481.709	0.25190061
481.917	0.25283271
482.125	0.25380855
482.334	0.25488015
482.542	0.25576591
482.75	0.25688028
482.958	0.25787439
483.166	0.25883543
483.374	0.25980403
483.583	0.26086597
483.791	0.26189565
483.999	0.26298704
484.207	0.26407242
484.415	0.26504934
484.623	0.26613761
484.831	0.26724359
485.039	0.26828603
485.247	0.26941372
485.455	0.27058688
485.663	0.27162089
485.871	0.27280181
486.079	0.27375687
486.287	0.27485761
486.495	0.27590959
486.702	0.27691647
486.91	0.27806436
487.118	0.27929253
487.326	0.2804756
487.534	0.28178796
487.742	0.28301697
487.95	0.28426917
488.157	0.28556888
488.365	0.28684836
488.573	0.28803208
488.781	0.28926091
488.988	0.29069688
489.196	0.29202955
489.404	0.29334605
489.612	0.29464436
489.819	0.29597414
490.027	0.29734302
490.235	0.29874344
490.442	0.30009072
490.65	0.30148202
490.857	0.30288127
491.065	0.3043152
491.273	0.30571127
491.48	0.30716525
491.688	0.30848368
491.895	0.30979293
492.103	0.3111278
492.31	0.31255167
492.518	0.31406054
492.725	0.31565354
492.933	0.31710543
493.14	0.31865524
493.348	0.32012346
493.555	0.321711
493.763	0.32327995
493.97	0.32475828
494.177	0.32615181
494.385	0.32763391
494.592	0.32919251
494.8	0.33078085
495.007	0.33231333
495.214	0.33392453
495.422	0.33557222
495.629	0.33716071
495.836	0.33881006
496.043	0.34041634
496.251	0.34211835
496.458	0.34382712
496.665	0.34538515
496.872	0.34701495
497.08	0.34867047
497.287	0.3502104
497.494	0.35199718
497.701	0.35364806
497.908	0.3553423
498.115	0.35693283
498.322	0.35852184
498.53	0.36020749
498.737	0.36190778
498.944	0.36341862
499.151	0.36508036
499.358	0.36675243
499.565	0.36848262
499.772	0.37031294
499.979	0.37199211
500.186	0.37388461
500.393	0.37567294
500.6	0.37753862
500.807	0.37925253
501.014	0.38100682
501.221	0.38281065
501.427	0.38462621
501.634	0.38637291
501.841	0.3882916
502.048	0.39005779
502.255	0.39174453
502.462	0.39363066
502.669	0.3955305
502.875	0.39746615
503.082	0.39941727
503.289	0.40125361
503.496	0.40322038
503.702	0.4052273
503.909	0.40715708
504.116	0.40910771
504.323	0.4110293
504.529	0.41290331
504.736	0.4148407
504.943	0.41661227
505.149	0.41859221
505.356	0.42060741
505.563	0.42242362
505.769	0.42435681
505.976	0.42632333
506.182	0.42837121
506.389	0.43053308
506.595	0.43258433
506.802	0.4345195
507.008	0.43659856
507.215	0.43869691
507.421	0.4407447
507.628	0.44267768
507.834	0.44454569
508.041	0.44664868
508.247	0.44863422
508.454	0.45071328
508.66	0.45253769
508.866	0.45461225
509.073	0.45673165
509.279	0.45877492
509.486	0.46066823
509.692	0.46285288
509.898	0.46493208
510.105	0.46706756
510.311	0.46891999
510.517	0.47088637
510.723	0.47291378
510.93	0.47480604
511.136	0.47675724
511.342	0.47871308
511.548	0.48074174
511.754	0.48297262
511.961	0.48517494
512.167	0.48731937
512.373	0.48945631
512.579	0.49151463
512.785	0.49358926
512.991	0.49568122
513.197	0.49770109
513.404	0.4997558
513.61	0.50193309
513.816	0.50390927
514.022	0.50586906
514.228	0.50784251
514.434	0.50984482
514.64	0.51190334
514.846	0.51391958
515.052	0.51590706
515.258	0.51808626
515.464	0.52027609
515.669	0.52240743
515.875	0.52455364
516.081	0.52660723
516.287	0.528732
516.493	0.53078612
516.699	0.53272575
516.905	0.53472617
517.111	0.53670843
517.316	0.53871798
517.522	0.5408008
517.728	0.54293119
517.934	0.54510171
518.139	0.5472029
518.345	0.54925714
518.551	0.55152674
518.757	0.55360163
518.962	0.55565255
519.168	0.55765229
519.374	0.55947138
519.579	0.56164139
519.785	0.56391144
519.991	0.56600186
520.196	0.56804749
520.402	0.57005178
520.607	0.57201908
520.813	0.57436559
521.018	0.57629545
521.224	0.57801236
521.429	0.57997297
521.635	0.58200106
521.84	0.58390992
522.046	0.58603801
522.251	0.58791651
522.457	0.59001675
522.662	0.59231928
522.868	0.59439416
523.073	0.59631603
523.279	0.59842954
523.484	0.6001439
523.689	0.60217872
523.895	0.60422946
524.1	0.60614236
524.305	0.60801194
524.511	0.61019348
524.716	0.61216615
524.921	0.61429754
525.126	0.61618831
525.332	0.61814696
525.537	0.6199941
525.742	0.6221454
525.947	0.62414379
526.153	0.62607943
526.358	0.6281765
526.563	0.63012033
526.768	0.63196466
526.973	0.63396422
527.178	0.63571763
527.383	0.63745788
527.588	0.63942822
527.794	0.64118875
527.999	0.64309402
528.204	0.64486974
528.409	0.64658007
528.614	0.64852995
528.819	0.65040068
529.024	0.65209906
529.229	0.65382117
529.434	0.65578266
529.639	0.65766602
529.843	0.65958635
530.048	0.66137157
530.253	0.66321333
530.458	0.66501119
530.663	0.66682681
530.868	0.66858675
531.073	0.6703179
531.278	0.67199034
531.482	0.67356941
531.687	0.67526668
531.892	0.67700969
532.097	0.67859017
532.302	0.68015876
532.506	0.68178079
532.711	0.68327725
532.916	0.68493784
533.12	0.68647663
533.325	0.68812637
533.53	0.69001716
533.734	0.69154605
533.939	0.69324779
534.144	0.69506703
534.348	0.69681685
534.553	0.69844725
534.757	0.69982116
534.962	0.70133633
535.167	0.70306869
535.371	0.70459277
535.576	0.70640061
535.78	0.70795044
535.985	0.70960772
536.189	0.71130866
536.394	0.71279753
536.598	0.71416271
536.803	0.71579735
537.007	0.71708223
537.211	0.71865562
537.416	0.72010404
537.62	0.72157386
537.825	0.72306212
538.029	0.72495637
538.233	0.72628392
538.438	0.72779174
538.642	0.72901061
538.846	0.73052335
539.05	0.73195978
539.255	0.73334554
539.459	0.73449418
539.663	0.73588586
539.867	0.73730434
540.072	0.73876522
540.276	0.73990776
540.48	0.7413716
540.684	0.74263918
540.888	0.74408323
541.092	0.74538227
541.297	0.74656858
541.501	0.74785324
541.705	0.7493112
541.909	0.75037872
542.113	0.75153761
542.317	0.75279724
542.521	0.75397163
542.725	0.75522775
542.929	0.75636925
543.133	0.7575255
543.337	0.75891003
543.541	0.76014351
543.745	0.76105155
543.949	0.76235044
544.153	0.76339947
544.357	0.76438203
544.56	0.76545479
544.764	0.76656201
544.968	0.76762979
545.172	0.76860676
545.376	0.76964413
545.58	0.77080613
545.783	0.77218795
545.987	0.77321556
546.191	0.77415782
546.395	0.77529371
546.598	0.77648965
546.802	0.77753299
547.006	0.77851844
547.21	0.77910953
547.413	0.78009689
547.617	0.7809858
547.821	0.78191011
548.024	0.78283807
548.228	0.7836306
548.431	0.78458453
548.635	0.78559946
548.839	0.78651196
549.042	0.7875926
549.246	0.78839299
549.449	0.78927212
549.653	0.79024799
549.856	0.7909316
550.06	0.7917592
550.263	0.79258581
550.467	0.79328652
550.67	0.79415316
550.874	0.79471113
551.077	0.79549645
551.28	0.7964672
551.484	0.79729964
551.687	0.79796225
551.891	0.79880732
552.094	0.79946223
552.297	0.80038603
552.501	0.80118263
552.704	0.80172514
552.907	0.80229065
553.11	0.80279656
553.314	0.80328853
553.517	0.80357274
553.72	0.80403585
553.923	0.80439709
554.127	0.80491959
554.33	0.8053234
554.533	0.80604453
554.736	0.80650381
554.939	0.80736078
555.142	0.80814142
555.345	0.80882372
555.549	0.80969117
555.752	0.81048798
555.955	0.81112052
556.158	0.81188172
556.361	0.81236071
556.564	0.81261994
556.767	0.81307391
556.97	0.81336147
557.173	0.8138817
557.376	0.81445844
557.579	0.81473732
557.782	0.81517743
557.984	0.81580976
558.187	0.81622426
558.39	0.81654948
558.593	0.81690544
558.796	0.81692702
558.999	0.81707913
559.202	0.81737258
559.404	0.81736665
559.607	0.81758581
559.81	0.81776466
560.013	0.81796681
560.216	0.81821326
560.418	0.818704
560.621	0.81903358
560.824	0.81970047
561.026	0.82010416
561.229	0.82041689
561.432	0.82074583
561.634	0.82113032
561.837	0.82119665
562.04	0.82145376
562.242	0.82142781
562.445	0.82156908
562.647	0.82173017
562.85	0.82171643
563.053	0.82175298
563.255	0.82198456
563.458	0.82217289
563.66	0.82239308
563.863	0.82272188
564.065	0.82285517
564.268	0.82292376
564.47	0.82305607
564.672	0.82302907
564.875	0.82317665
565.077	0.82324759
565.28	0.82303816
565.482	0.82319783
565.684	0.82318829
565.887	0.82333697
566.089	0.82352152
566.291	0.82337259
566.494	0.82326972
566.696	0.82323137
566.898	0.82320433
567.1	0.82333324
567.303	0.8232091
567.505	0.82310233
567.707	0.82288789
567.909	0.82271512
568.111	0.82258698
568.314	0.8223628
568.516	0.82219478
568.718	0.82197792
568.92	0.82175566
569.122	0.82161133
569.324	0.82146602
569.526	0.82120271
569.728	0.82104139
569.93	0.82077352
570.132	0.82049693
570.334	0.82028945
570.536	0.82007631
570.738	0.81975087
570.94	0.81941643
571.142	0.81918976
571.344	0.81880834
571.546	0.81855889
571.748	0.8183623
571.95	0.8179875
572.152	0.81762199
572.354	0.81740341
572.555	0.81705511
572.757	0.81691745
572.959	0.81648235
573.161	0.8157488
573.363	0.81546279
573.564	0.8153509
573.766	0.81508559
573.968	0.81466655
574.17	0.81394612
574.371	0.81364253
574.573	0.81341261
574.775	0.81272101
574.976	0.81206797
575.178	0.81143217
575.38	0.81075845
575.581	0.81030986
575.783	0.80980698
575.985	0.80925942
576.186	0.80903265
576.388	0.80843794
576.589	0.80786066
576.791	0.80749855
576.992	0.80707056
577.194	0.8064578
577.395	0.80584691
577.597	0.80511074
577.798	0.80456333
578	0.80394218
578.201	0.80323811
578.402	0.80263261
578.604	0.80195058
578.805	0.80144465
579.007	0.80093935
579.208	0.80036389
579.409	0.79981706
579.611	0.79907287
579.812	0.79844122
580.013	0.79769099
580.215	0.79668856
580.416	0.79590354
580.617	0.79502503
580.818	0.7943282
581.019	0.79363845
581.221	0.79273816
581.422	0.79203767
581.623	0.79146418
581.824	0.7903761
582.025	0.78963684
582.226	0.78883293
582.428	0.78813917
582.629	0.78754306
582.83	0.78676475
583.031	0.78600731
583.232	0.78573013
583.433	0.78508571
583.634	0.78416423
583.835	0.78323005
584.036	0.782125
584.237	0.78118292
584.438	0.78027426
584.639	0.77893384
584.84	0.77795406
585.041	0.7769555
585.242	0.77605383
585.442	0.77517897
585.643	0.77451308
585.844	0.7735698
586.045	0.77287353
586.246	0.77182053
586.447	0.77084073
586.647	0.7697221
586.848	0.76861458
587.049	0.76735324
587.25	0.76625428
587.45	0.76517551
587.651	0.76431327
587.852	0.76344405
588.053	0.7626645
588.253	0.76161925
588.454	0.7606967
588.655	0.7596372
588.855	0.75853671
589.056	0.75742049
589.256	0.75634789
589.457	0.75517138
589.658	0.7542544
589.858	0.75299011
590.059	0.75190053
590.259	0.75082592
590.46	0.74960453
590.66	0.74840341
590.861	0.74731533
591.061	0.74614042
591.262	0.74528359
591.462	0.74423177
591.662	0.74304347
591.863	0.74186788
592.063	0.7408468
592.264	0.7396736
592.464	0.73852306
592.664	0.73728796
592.865	0.73621761
593.065	0.73487271
593.265	0.73389302
593.465	0.732474
593.666	0.73124228
593.866	0.73003382
594.066	0.72873315
594.266	0.72753731
594.467	0.72634514
594.667	0.72499156
594.867	0.72384113
595.067	0.7226214
595.267	0.72122847
595.467	0.71995825
595.668	0.71854042
595.868	0.71750734
596.068	0.71636794
596.268	0.71518866
596.468	0.71408161
596.668	0.71303875
596.868	0.71183239
597.068	0.71068814
597.268	0.70940861
597.468	0.7081154
597.668	0.70682187
597.868	0.70545984
598.068	0.70408932
598.268	0.70287443
598.467	0.70165868
598.667	0.70031901
598.867	0.6988045
599.067	0.69745818
599.267	0.69612772
599.467	0.69481104
599.667	0.69335591
599.866	0.69205148
600.066	0.69065629
600.266	0.68937596
600.466	0.68807509
600.665	0.68680625
600.865	0.68539322
601.065	0.6842261
601.264	0.682688
601.464	0.68144692
601.664	0.6801847
601.863	0.67883249
602.063	0.67747726
602.263	0.67593989
602.462	0.67447268
602.662	0.67309102
602.861	0.67160482
603.061	0.67018153
603.26	0.6687242
603.46	0.66715176
603.659	0.66586911
603.859	0.66442464
604.058	0.66298241
604.258	0.66155633
604.457	0.66021238
604.657	0.65863897
604.856	0.65715402
605.056	0.65590223
605.255	0.65451142
605.454	0.65310383
605.654	0.65162799
605.853	0.6501938
606.052	0.64872647
606.252	0.64740576
606.451	0.6458352
606.65	0.64436875
606.849	0.64271704
607.049	0.64126154
607.248	0.63965361
607.447	0.63833696
607.646	0.63698436
607.845	0.63555977
608.045	0.63400287
608.244	0.63281641
608.443	0.63138527
608.642	0.63010804
608.841	0.62854702
609.04	0.6269079
609.239	0.62544293
609.438	0.62392882
609.637	0.62238954
609.836	0.62098538
610.035	0.61943843
610.234	0.61807629
610.433	0.61674236
610.632	0.61528378
610.831	0.61394352
611.03	0.61251604
611.229	0.6111083
611.428	0.60971153
611.627	0.60819732
611.826	0.60661788
612.025	0.60516644
612.224	0.60351272
612.422	0.60187532
612.621	0.60023749
612.82	0.59869094
613.019	0.59724929
613.218	0.59581869
613.416	0.59418104
613.615	0.59280387
613.814	0.59132418
614.012	0.58984759
614.211	0.58828847
614.41	0.58675983
614.608	0.58535314
614.807	0.58396169
615.006	0.5825362
615.204	0.58112146
615.403	0.57971886
615.602	0.57833616
615.8	0.57693623
615.999	0.57520865
616.197	0.57366416
616.396	0.57208464
616.594	0.5704629
616.793	0.56890598
616.991	0.56724339
617.19	0.56551434
617.388	0.56413244
617.586	0.56262046
617.785	0.56110186
617.983	0.55975348
618.182	0.5582911
618.38	0.55681425
618.578	0.55545866
618.777	0.55411314
618.975	0.55277738
619.173	0.55142929
619.372	0.55004599
619.57	0.5485441
619.768	0.54723134
619.966	0.54569077
620.165	0.54399538
620.363	0.54243686
620.561	0.54077914
620.759	0.53926825
620.957	0.53790821
621.155	0.53642062
621.354	0.53496974
621.552	0.53376395
621.75	0.53227904
621.948	0.53104665
622.146	0.52962045
622.344	0.52806948
622.542	0.52663956
622.74	0.52514277
622.938	0.52358549
623.136	0.52220121
623.334	0.52079762
623.532	0.51917058
623.73	0.51778001
623.928	0.51636226
624.126	0.51508071
624.324	0.51375973
624.522	0.51229917
624.719	0.51069627
624.917	0.50939835
625.115	0.50778163
625.313	0.50632119
625.511	0.50478182
625.708	0.50302915
625.906	0.50134005
626.104	0.4998266
626.302	0.49831607
626.499	0.49687856
626.697	0.49531543
626.895	0.49372843
627.093	0.49238104
627.29	0.49109718
627.488	0.48967628
627.686	0.48831156
627.883	0.48693085
628.081	0.48546335
628.278	0.48420726
628.476	0.48273517
628.673	0.4812985
628.871	0.47982095
629.068	0.47822946
629.266	0.47678214
629.463	0.47532086
629.661	0.47379375
629.858	0.47231564
630.056	0.47079404
630.253	0.46947099
630.451	0.46814176
630.648	0.46652261
630.845	0.46501663
631.043	0.46348908
631.24	0.46196271
631.438	0.46033894
631.635	0.45869387
631.832	0.45692925
632.029	0.45558604
632.227	0.45415785
632.424	0.45283813
632.621	0.45152741
632.818	0.45033591
633.016	0.44905149
633.213	0.44774718
633.41	0.44635232
633.607	0.44490774
633.804	0.44344259
634.001	0.44189116
634.199	0.44036945
634.396	0.43894627
634.593	0.43756187
634.79	0.43629748
634.987	0.43494282
635.184	0.43364808
635.381	0.43245107
635.578	0.43129537
635.775	0.42993746
635.972	0.428679
636.169	0.42732991
636.366	0.42608225
636.563	0.42471055
636.76	0.42318473
636.957	0.42168957
637.153	0.4201396
637.35	0.41876279
637.547	0.41723344
637.744	0.4157239
637.941	0.41440951
638.138	0.41315968
638.334	0.41179849
638.531	0.41060094
638.728	0.40929963
638.925	0.40815601
639.121	0.40707371
639.318	0.40580154
639.515	0.40460607
639.711	0.40348569
639.908	0.40219152
640.105	0.40089581
640.301	0.39956131
640.498	0.39820825
640.695	0.39699847
640.891	0.3957196
641.088	0.39444565
641.284	0.39327568
641.481	0.39217385
641.677	0.39100827
641.874	0.38976253
642.07	0.38857588
642.267	0.3875275
642.463	0.38626158
642.66	0.3851275
642.856	0.38381113
643.053	0.38245004
643.249	0.38116612
643.445	0.37978266
643.642	0.37819894
643.838	0.37687803
644.034	0.3754875
644.231	0.37417021
644.427	0.3730403
644.623	0.37200562
644.82	0.37100175
645.016	0.37003092
645.212	0.36894596
645.408	0.36791375
645.604	0.36701043
645.801	0.3659793
645.997	0.3647423
646.193	0.36353656
646.389	0.36250421
646.585	0.36151094
646.781	0.36048966
646.977	0.35941156
647.173	0.35826637
647.37	0.35715721
647.566	0.35609864
647.762	0.35501496
647.958	0.35402269
648.154	0.35289259
648.35	0.35181908
648.546	0.3506855
648.742	0.349743
648.937	0.34859676
649.133	0.34758054
649.329	0.34646045
649.525	0.34540449
649.721	0.34424106
649.917	0.34325053
650.113	0.34202847
650.309	0.34108933
650.504	0.33994935
650.7	0.3388839
650.896	0.33790331
651.092	0.33697242
651.287	0.33602533
651.483	0.33514214
651.679	0.33404834
651.875	0.33306441
652.07	0.3320808
652.266	0.33091193
652.462	0.32981823
652.657	0.32875356
652.853	0.32770698
653.048	0.32674719
653.244	0.32575735
653.44	0.32473278
653.635	0.3237327
653.831	0.32272117
654.026	0.32172662
654.222	0.32067897
654.417	0.31974624
654.613	0.31879946
654.808	0.3177821
655.004	0.31696252
655.199	0.31605779
655.394	0.31517759
655.59	0.31440805
655.785	0.31339578
655.98	0.3123534
656.176	0.31135269
656.371	0.31052226
656.566	0.30963683
656.762	0.30861555
656.957	0.30760226
657.152	0.30676086
657.348	0.30594544
657.543	0.3052469
657.738	0.3042945
657.933	0.30346171
658.128	0.30265625
658.324	0.30176277
658.519	0.30087892
658.714	0.29997884
658.909	0.29899797
659.104	0.29812838
659.299	0.29724132
659.494	0.29632994
659.689	0.29556224
659.884	0.29469623
660.079	0.2939288
660.274	0.29316966
660.469	0.2923714
660.664	0.29167577
660.859	0.29095777
661.054	0.29017808
661.249	0.28944123
661.444	0.28854132
661.639	0.28761131
661.834	0.28667002
662.029	0.28573564
662.224	0.28486373
662.418	0.28402794
662.613	0.28322577
662.808	0.28255215
663.003	0.28191837
663.198	0.28129078
663.392	0.28057145
663.587	0.27997209
663.782	0.27923615
663.977	0.27844217
664.171	0.27766015
664.366	0.27682755
664.561	0.27599468
664.755	0.27521813
664.95	0.27439081
665.144	0.27367976
665.339	0.27306621
665.534	0.27241764
665.728	0.27186151
665.923	0.27127554
666.117	0.27066297
666.312	0.27000145
666.506	0.26937341
666.701	0.26857664
666.895	0.26779592
667.09	0.26695796
667.284	0.26615575
667.479	0.26527837
667.673	0.26451022
667.867	0.26373275
668.062	0.26307289
668.256	0.26243272
668.45	0.26193045
668.645	0.2613279
668.839	0.26079308
669.033	0.26021018
669.228	0.25960623
669.422	0.25897458
669.616	0.25834588
669.81	0.25767443
670.004	0.25713259
670.199	0.25656328
670.393	0.25592282
670.587	0.25527026
670.781	0.25470269
670.975	0.25409748
671.169	0.25338035
671.363	0.25264325
671.558	0.25195822
671.752	0.25134638
671.946	0.25079221
672.14	0.2502269
672.334	0.24962652
672.528	0.24922236
672.722	0.248653
672.916	0.24815555
673.11	0.24758322
673.304	0.24713323
673.497	0.24659129
673.691	0.24618015
673.885	0.24548761
674.079	0.24502793
674.273	0.24442884
674.467	0.24396519
674.661	0.243338
674.854	0.24270167
675.048	0.2421067
675.242	0.24158524
675.436	0.24103188
675.629	0.24053258
675.823	0.24000214
676.017	0.23954279
676.211	0.23902825
676.404	0.23846783
676.598	0.23799503
676.792	0.23752773
676.985	0.23702875
677.179	0.23644955
677.372	0.23595459
677.566	0.23563118
677.76	0.23531555
677.953	0.23493474
678.147	0.23454605
678.34	0.234166
678.534	0.23379894
678.727	0.2333587
678.921	0.2328602
679.114	0.23224234
679.307	0.23178308
679.501	0.23127121
679.694	0.2307809
679.888	0.23029815
680.081	0.22987735
680.274	0.22931447
680.468	0.22885106
680.661	0.22836462
680.854	0.22810011
681.048	0.22778586
681.241	0.22749721
681.434	0.22714744
681.627	0.22689101
681.821	0.22665575
682.014	0.22640347
682.207	0.22590241
682.4	0.22558992
682.593	0.22534431
682.786	0.22510393
682.98	0.2249239
683.173	0.22474988
683.366	0.22451838
683.559	0.22437613
683.752	0.2241733
683.945	0.22392632
684.138	0.22363282
684.331	0.22327026
684.524	0.22294676
684.717	0.22258382
684.91	0.22225079
685.103	0.22182684
685.296	0.22137553
685.489	0.22093746
685.682	0.22050006
685.874	0.22009743
686.067	0.2196972
686.26	0.21929189
686.453	0.21899635
686.646	0.21867036
686.839	0.21847687
687.031	0.21828395
687.224	0.21795493
687.417	0.21777007
687.61	0.21755467
687.802	0.21732173
687.995	0.21711975
688.188	0.21686423
688.38	0.21666868
688.573	0.21657571
688.766	0.21643195
688.958	0.21619263
689.151	0.21588852
689.343	0.21565713
689.536	0.21531186
689.729	0.21494842
689.921	0.21450761
690.114	0.21399462
690.306	0.21367026
690.499	0.21337367
690.691	0.21306884
690.884	0.21286496
691.076	0.21268925
691.268	0.212535
691.461	0.21239392
691.653	0.21226296
691.846	0.21213508
692.038	0.21199846
692.23	0.21186316
692.423	0.2117506
692.615	0.21174377
692.807	0.21177133
692.999	0.21174154
693.192	0.21171764
693.384	0.21168606
693.576	0.21155216
693.768	0.21143228
693.961	0.2112848
694.153	0.21121961
694.345	0.2110791
694.537	0.21099648
694.729	0.21088341
694.921	0.21081257
695.113	0.21081181
695.305	0.21070878
695.498	0.21052711
695.69	0.21040978
695.882	0.21018918
696.074	0.21009633
696.266	0.21006442
696.458	0.20993449
696.65	0.20985238
696.842	0.20978123
697.033	0.20971474
697.225	0.20966184
697.417	0.20947192
697.609	0.20926047
697.801	0.20907561
697.993	0.20890778
698.185	0.20871547
698.376	0.20861912
698.568	0.20854625
698.76	0.20861714
698.952	0.20872249
699.144	0.20890616
699.335	0.20914504
699.527	0.20938008
699.719	0.20948251
699.91	0.209577
700.102	0.20957567
700.294	0.20949444
700.485	0.2094098
700.677	0.20924289
700.869	0.20920667
701.06	0.20921997
701.252	0.2092449
701.443	0.20931414
701.635	0.20936754
701.826	0.20933631
702.018	0.20945041
702.209	0.20954685
702.401	0.2095631
702.592	0.20964408
702.784	0.20963829
702.975	0.20963606
703.166	0.20967034
703.358	0.20954697
703.549	0.20940378
703.741	0.20934756
703.932	0.20925203
704.123	0.20922752
704.315	0.20933517
704.506	0.20950237
704.697	0.20966253
704.888	0.20987349
705.08	0.21013357
705.271	0.21031836
705.462	0.2104322
705.653	0.2104996
705.844	0.21060261
706.035	0.21075278
706.227	0.21084473
706.418	0.21089509
706.609	0.21114451
706.8	0.2113981
706.991	0.21161391
707.182	0.21174074
707.373	0.21184135
707.564	0.21199709
707.755	0.21219941
707.946	0.21228624
708.137	0.21242029
708.328	0.21264277
708.519	0.21287967
708.71	0.21312958
708.901	0.21331103
709.092	0.21348538
709.283	0.2136494
709.473	0.2137795
709.664	0.21391226
709.855	0.21402762
710.046	0.21421615
710.237	0.2144163
710.427	0.2145044
710.618	0.21464841
710.809	0.21488906
711	0.21515015
711.19	0.21543667
711.381	0.21574886
711.572	0.21603518
711.762	0.21649819
711.953	0.21686396
712.144	0.21713967
712.334	0.2172918
712.525	0.21750204
712.715	0.21758718
712.906	0.21773703
713.097	0.21769693
713.287	0.21779543
713.478	0.21797451
713.668	0.21827871
713.859	0.21853977
714.049	0.21888094
714.239	0.21924305
714.43	0.21968611
714.62	0.22003499
714.811	0.22041667
715.001	0.22071588
715.191	0.22096619
715.382	0.22110824
715.572	0.22122485
715.762	0.22130002
715.953	0.22147345
716.143	0.22165569
716.333	0.22186914
716.523	0.2221149
716.714	0.22248606
716.904	0.22278852
717.094	0.22321493
717.284	0.22360813
717.474	0.2240048
717.664	0.22439531
717.855	0.22471938
718.045	0.22499613
718.235	0.22533274
718.425	0.22561701
718.615	0.22585365
718.805	0.22610035
718.995	0.226382
719.185	0.22680429
719.375	0.22725813
719.565	0.22768794
719.755	0.22813524
719.945	0.22862941
720.135	0.22912262
720.325	0.22959697
720.515	0.23000161
720.704	0.23033549
720.894	0.23069184
721.084	0.23101678
721.274	0.23139003
721.464	0.23182948
721.654	0.23230124
721.843	0.23272914
722.033	0.23321271
722.223	0.23369812
722.413	0.23416977
722.602	0.23458753
722.792	0.23493877
722.982	0.23534353
723.171	0.23585803
723.361	0.23634993
723.55	0.23689241
723.74	0.23744811
723.93	0.23793121
724.119	0.23844828
724.309	0.23876148
724.498	0.23903474
724.688	0.23933528
724.877	0.23955999
725.067	0.23981159
725.256	0.24011418
725.446	0.24036132
725.635	0.24060399
725.825	0.24088918
726.014	0.24120812
726.203	0.24162554
726.393	0.24198703
726.582	0.24229803
726.771	0.2427582
726.961	0.24328253
727.15	0.24382955
727.339	0.24438532
727.529	0.24491815
727.718	0.24541126
727.907	0.2459072
728.096	0.24630227
728.286	0.24673962
728.475	0.24716807
728.664	0.24761523
728.853	0.24805504
729.042	0.24854428
729.231	0.24909682
729.42	0.24955214
729.609	0.25011831
729.799	0.25057157
729.988	0.25099638
730.177	0.25132034
730.366	0.2517144
730.555	0.25205896
730.744	0.25250337
730.933	0.25287803
731.122	0.25332748
731.31	0.25386849
731.499	0.25440529
731.688	0.25500455
731.877	0.2556023
732.066	0.25617747
732.255	0.2566758
732.444	0.25718985
732.632	0.25756343
732.821	0.25799393
733.01	0.2583697
733.199	0.2588366
733.388	0.25935442
733.576	0.25995539
733.765	0.26050632
733.954	0.26112664
734.142	0.26170354
734.331	0.26230448
734.52	0.26282181
734.708	0.2632863
734.897	0.26372431
735.086	0.26409801
735.274	0.26444153
735.463	0.2648587
735.651	0.26531411
735.84	0.26579483
736.028	0.26629719
736.217	0.26688827
736.405	0.26753713
736.594	0.26820704
736.782	0.26884312
736.971	0.26940364
737.159	0.26992146
737.347	0.27044609
737.536	0.27083931
737.724	0.2712978
737.912	0.27167698
738.101	0.27202401
738.289	0.27236267
738.477	0.2727678
738.666	0.27312002
738.854	0.27358634
739.042	0.27410761
739.23	0.274617
739.418	0.27527114
739.607	0.27599692
739.795	0.27678224
739.983	0.2776701
740.171	0.27851835
740.359	0.27927586
740.547	0.28006147
740.735	0.28076375
740.923	0.28144219
741.112	0.28202528
741.3	0.28249144
741.488	0.2829047
741.676	0.2833166
741.864	0.28375907
742.052	0.28419635
742.239	0.28456116
742.427	0.2849833
742.615	0.285456
742.803	0.28599056
742.991	0.28661392
743.179	0.28727583
743.367	0.28800098
743.555	0.28884643
743.742	0.28971836
743.93	0.29060328
744.118	0.29128379
744.306	0.29191129
744.494	0.29242864
744.681	0.29289582
744.869	0.29338665
745.057	0.29386352
745.244	0.29430203
745.432	0.2949674
745.62	0.29559314
745.807	0.29635752
745.995	0.29712297
746.182	0.29770822
746.37	0.29825225
746.558	0.29887676
746.745	0.29941213
746.933	0.30001859
747.12	0.30061531
747.308	0.30122502
747.495	0.30177773
747.683	0.30236264
747.87	0.30284123
748.057	0.30342637
748.245	0.30393642
748.432	0.30433687
748.62	0.3047979
748.807	0.30536089
748.994	0.30597384
749.182	0.30661788
749.369	0.30722536
749.556	0.30782004
749.743	0.30847184
749.931	0.3090888
750.118	0.30983196
750.305	0.31050836
750.492	0.3112082
750.68	0.31192837
750.867	0.31269006
751.054	0.31346494
751.241	0.31425985
751.428	0.31497789
751.615	0.31578409
751.802	0.31659078
751.989	0.31735411
752.176	0.31813916
752.363	0.31890346
752.55	0.31955057
752.737	0.3201871
752.924	0.32064215
753.111	0.32104673
753.298	0.32140649
753.485	0.32175965
753.672	0.32203132
753.859	0.32244061
754.046	0.32279728
754.233	0.32332354
754.42	0.32395672
754.606	0.3245002
754.793	0.32507719
754.98	0.32584042
755.167	0.32646298
755.353	0.32722832
755.54	0.32786804
755.727	0.32844228
755.914	0.32913251
756.1	0.32987083
756.287	0.33045191
756.474	0.33107055
756.66	0.3315734
756.847	0.33210578
757.033	0.33251914
757.22	0.33300972
757.407	0.33345716
757.593	0.33392106
757.78	0.33442524
757.966	0.33508841
758.153	0.33569838
758.339	0.33642591
758.526	0.33715206
758.712	0.33778535
758.898	0.33862706
759.085	0.33941732
759.271	0.34016409
759.458	0.34097264
759.644	0.34192198
759.83	0.34279044
760.017	0.34372204
760.203	0.34444397
760.389	0.34514845
760.576	0.34575557
760.762	0.34630304
760.948	0.34664678
761.134	0.34693547
761.32	0.34727732
761.507	0.34768016
761.693	0.34823502
761.879	0.34876621
762.065	0.34938458
762.251	0.3500741
762.437	0.35084873
762.623	0.35153831
762.809	0.35217087
762.995	0.35278715
763.181	0.3534406
763.367	0.35420482
763.553	0.35494942
763.739	0.35572929
763.925	0.35657075
764.111	0.35746304
764.297	0.35829098
764.483	0.35902581
764.669	0.35964664
764.855	0.36029585
765.041	0.36091155
765.227	0.36138597
765.412	0.36187544
765.598	0.36232071
765.784	0.36300233
765.97	0.36378434
766.156	0.36456435
766.341	0.36535139
766.527	0.36618437
766.713	0.36696355
766.898	0.36787882
767.084	0.36860714
767.27	0.36915238
767.455	0.36977663
767.641	0.3704653
767.827	0.37117652
768.012	0.37199971
768.198	0.37273203
768.383	0.37351675
768.569	0.37438912
768.754	0.37522878
768.94	0.37595083
769.125	0.37670943
769.311	0.37725912
769.496	0.37782704
769.682	0.37852454
769.867	0.37922938
770.052	0.37991202
770.238	0.38059862
770.423	0.38125366
770.608	0.3820147
770.794	0.38273316
770.979	0.38327749
771.164	0.38387116
771.35	0.38443559
771.535	0.38501545
771.72	0.38565492
771.905	0.38639361
772.09	0.38708711
772.276	0.38787822
772.461	0.38858489
772.646	0.38931613
772.831	0.39002443
773.016	0.39089918
773.201	0.39162041
773.386	0.39258037
773.571	0.39317978
773.756	0.39375472
773.941	0.39439899
774.126	0.39508082
774.311	0.39545965
774.496	0.39595866
774.681	0.39634787
774.866	0.39690767
775.051	0.39746398
775.236	0.39799812
775.421	0.39856831
775.606	0.39921774
775.791	0.39978716
775.976	0.40039843
776.16	0.40114355
776.345	0.40192379
776.53	0.40267661
776.715	0.40335832
776.899	0.40404066
777.084	0.40482089
777.269	0.40554066
777.454	0.40616866
777.638	0.40675317
777.823	0.4073018
778.008	0.40771743
778.192	0.40822336
778.377	0.40855487
778.561	0.40888527
778.746	0.40924935
778.931	0.40972977
779.115	0.41019516
779.3	0.41065946
779.484	0.41103381
779.669	0.41160938
779.853	0.41216703
780.037	0.41281983
780.222	0.41332116
780.406	0.41378157
780.591	0.41433344
780.775	0.41489007
780.959	0.41532473
781.144	0.41575634
781.328	0.4159413
781.512	0.41608828
781.697	0.41637325
781.881	0.41652635
782.065	0.41666604
782.249	0.41665167
782.434	0.41673134
782.618	0.41697558
782.802	0.4173605
782.986	0.417634
783.17	0.41806292
783.354	0.41849255
783.539	0.41901711
783.723	0.41952427
783.907	0.42009471
784.091	0.42065026
784.275	0.42123598
784.459	0.42171381
784.643	0.42226878
784.827	0.42273974
785.011	0.42319206
785.195	0.42372729
785.379	0.42417385
785.563	0.42457456
785.747	0.42501084
785.93	0.42549983
786.114	0.4258646
786.298	0.42624877
786.482	0.42649773
786.666	0.42674187
786.85	0.42701105
787.033	0.42729025
787.217	0.42771564
787.401	0.42836596
787.585	0.42889708
787.768	0.42952324
787.952	0.4301147
788.136	0.43073961
788.319	0.43144035
788.503	0.43190811
788.687	0.43252654
788.87	0.4332242
789.054	0.43387944
789.237	0.43456357
789.421	0.43532046
789.605	0.43597242
789.788	0.43655931
789.972	0.43701615
790.155	0.4374148
790.338	0.43785604
790.522	0.4383722
790.705	0.43872457
790.889	0.43918268
791.072	0.43973098
791.256	0.44036114
791.439	0.44098308
791.622	0.44144201
791.806	0.44208808
791.989	0.44268027
792.172	0.44334753
792.355	0.44402958
792.539	0.44459742
792.722	0.44512669
792.905	0.44563729
793.088	0.44602918
793.271	0.44671358
793.455	0.44725282
793.638	0.44777964
793.821	0.44815864
794.004	0.4486502
794.187	0.4494377
794.37	0.45012572
794.553	0.45072158
794.736	0.451319
794.919	0.45191198
795.102	0.45280994
795.285	0.45377444
795.468	0.4544567
795.651	0.45538254
795.834	0.45631053
796.017	0.45730816
796.2	0.45816693
796.383	0.4589395
796.566	0.45967005
796.749	0.46051229
796.931	0.46121292
797.114	0.46168003
797.297	0.46209699
797.48	0.46258924
797.663	0.46305992
797.845	0.46344583
798.028	0.46388326
798.211	0.46422319
798.393	0.46470233
798.576	0.46522716
798.759	0.46562394
798.941	0.46603872
799.124	0.46662332
799.307	0.46714992
799.489	0.46768009
799.672	0.46824845
799.854	0.46869132
800.037	0.46930027
800.219	0.46988158
800.402	0.47036118
800.584	0.47068137
800.767	0.4711223
800.949	0.47159617
801.132	0.47229883
801.314	0.47292806
801.496	0.4735482
801.679	0.47401649
801.861	0.47456209
802.043	0.47489829
802.226	0.47521903
802.408	0.47533845
802.59	0.47566691
802.772	0.47595611
802.955	0.47642726
803.137	0.47683523
803.319	0.47737215
803.501	0.47780522
803.684	0.47836031
803.866	0.47860064
804.048	0.47914259
804.23	0.47957865
804.412	0.48002603
804.594	0.48025775
804.776	0.48083344
804.958	0.48118334
805.14	0.48167125
805.322	0.48181779
805.504	0.4819596
805.686	0.48214179
805.868	0.48247511
806.05	0.48243983
806.232	0.48261316
806.414	0.48298209
806.596	0.48332829
806.778	0.4835391
806.96	0.48401466
807.141	0.48425916
807.323	0.48465501
807.505	0.48476796
807.687	0.48477654
807.869	0.4847131
808.05	0.48470473
808.232	0.48439736
808.414	0.48443342
808.595	0.48435819
808.777	0.48453722
808.959	0.484786
809.14	0.48503133
809.322	0.48543371
809.504	0.48572755
809.685	0.48601538
809.867	0.48607383
810.048	0.48607285
810.23	0.48596243
810.411	0.4859029
810.593	0.4857781
810.774	0.48591769
810.956	0.48596358
811.137	0.48626759
811.319	0.48665349
811.5	0.486971
811.681	0.48737163
811.863	0.48768536
812.044	0.48781496
812.225	0.4880986
812.407	0.4881147
812.588	0.48809206
812.769	0.48809632
812.951	0.48809627
813.132	0.48824057
813.313	0.48859697
813.494	0.48856857
813.675	0.48881817
813.857	0.48918172
814.038	0.48958658
814.219	0.4899148
814.4	0.49012091
814.581	0.49048203
814.762	0.49090628
814.943	0.49140753
815.124	0.49164615
815.305	0.49189699
815.486	0.49220611
815.667	0.49255037
815.848	0.49257306
816.029	0.49275259
816.21	0.49290456
816.391	0.49322859
816.572	0.49344796
816.753	0.49388773
816.934	0.49416528
817.115	0.4945986
817.295	0.49497055
817.476	0.49516989
817.657	0.49541575
817.838	0.49602259
818.019	0.4963626
818.199	0.49694392
818.38	0.4973538
818.561	0.4980031
818.741	0.49867439
818.922	0.49923436
819.103	0.49971476
819.283	0.50033319
819.464	0.50091181
819.645	0.50155244
819.825	0.50194437
820.006	0.50248595
820.186	0.50316082
820.367	0.50365206
820.547	0.50398066
820.728	0.50424788
820.908	0.50449776
821.089	0.50490411
821.269	0.50509522
821.45	0.50526208
821.63	0.50530297
821.81	0.50564421
821.991	0.50598234
822.171	0.50636671
822.351	0.50668811
822.532	0.50702156
822.712	0.5072066
822.892	0.50762733
823.072	0.50789171
823.253	0.50831325
823.433	0.50854396
823.613	0.50893789
823.793	0.50935688
823.973	0.51008056
824.154	0.51060022
824.334	0.51115907
824.514	0.51152223
824.694	0.51225796
824.874	0.51263048
825.054	0.51326329
825.234	0.51365848
825.414	0.5138529
825.594	0.51415213
825.774	0.51438945
825.954	0.51441519
826.134	0.51453066
826.314	0.51445409
826.494	0.51457944
826.674	0.51471563
826.854	0.51473818
827.033	0.51498
827.213	0.51551668
827.393	0.51593582
827.573	0.51649919
827.753	0.51675547
827.932	0.51746668
828.112	0.51817271
828.292	0.51879746
828.472	0.51887427
828.651	0.51932574
828.831	0.51941649
829.011	0.51972348
829.19	0.51968946
829.37	0.51987586
829.549	0.52001864
829.729	0.5201821
829.909	0.52030687
830.088	0.52062983
830.268	0.52077264
830.447	0.52122258
830.627	0.52158285
830.806	0.52199035
830.986	0.52233845
831.165	0.52266427
831.344	0.52298509
831.524	0.52317359
831.703	0.52325429
831.883	0.52320549
832.062	0.52306143
832.241	0.52325701
832.421	0.52356261
832.6	0.52383627
832.779	0.52431496
832.958	0.52447944
833.138	0.52457094
833.317	0.52514074
833.496	0.52528766
833.675	0.52544264
833.854	0.52566642
834.034	0.52572423
834.213	0.52585215
834.392	0.5263716
834.571	0.52628541
834.75	0.52672767
834.929	0.52673369
835.108	0.52680182
835.287	0.5271302
835.466	0.52737017
835.645	0.52746119
835.824	0.52771034
836.003	0.52768528
836.182	0.52797526
836.361	0.52822215
836.54	0.52817085
836.719	0.52856686
836.897	0.52860139
837.076	0.52866017
837.255	0.528838
837.434	0.52894409
837.613	0.52907718
837.791	0.52926395
837.97	0.52923167
838.149	0.52921328
838.328	0.52927748
838.506	0.52915287
838.685	0.52911824
838.864	0.5291063
839.042	0.52918582
839.221	0.52946016
839.4	0.52984472
839.578	0.53020407
839.757	0.53052878
839.935	0.53099078
840.114	0.53127516
840.292	0.53143902
840.471	0.53144
840.649	0.53147455
840.828	0.53141165
841.006	0.53162687
841.185	0.53139942
841.363	0.53158062
841.541	0.53181183
841.72	0.53230329
841.898	0.53274369
842.076	0.53311593
842.255	0.53340617
842.433	0.53401555
842.611	0.53423791
842.789	0.53446924
842.968	0.53478495
843.146	0.53476852
843.324	0.53495871
843.502	0.53520154
843.68	0.53540017
843.859	0.53549315
844.037	0.53542237
844.215	0.53499184
844.393	0.53492323
844.571	0.53476328
844.749	0.53452546
844.927	0.53427577
845.105	0.53403986
845.283	0.53397802
845.461	0.53412659
845.639	0.53424892
845.817	0.53427273
845.995	0.53458296
846.173	0.5347348
846.351	0.53471798
846.529	0.53480743
846.706	0.5347777
846.884	0.53485644
847.062	0.53485185
847.24	0.53462015
847.418	0.53450641
847.595	0.53476951
847.773	0.53505515
847.951	0.53513054
848.129	0.5348309
848.306	0.53500579
848.484	0.53491439
848.662	0.53495761
848.839	0.53485496
849.017	0.53455311
849.194	0.53431263
849.372	0.53442756
849.549	0.53415293
849.727	0.53422005
849.905	0.53404743
850.082	0.53405026
850.26	0.53432728
850.437	0.53449302
850.614	0.53467733
850.792	0.53484357
850.969	0.53519632
851.147	0.5354659
851.324	0.53556097
851.501	0.53542758
851.679	0.53544766
851.856	0.53529643
852.033	0.53561042
852.211	0.53549896
852.388	0.53545166
852.565	0.53576714
852.742	0.53617312
852.92	0.53637221
853.097	0.53646677
853.274	0.53638526
853.451	0.53614436
853.628	0.53608177
853.805	0.53569581
853.982	0.53520924
854.159	0.53485241
854.336	0.53483538
854.514	0.53447375
854.691	0.53445641
854.868	0.53447244
855.045	0.5345484
855.221	0.53482205
855.398	0.53485879
855.575	0.53474184
855.752	0.53479322
855.929	0.53507973
856.106	0.53484122
856.283	0.53466838
856.46	0.53447195
856.637	0.5347255
856.813	0.53472719
856.99	0.53463764
857.167	0.53431479
857.344	0.53429359
857.52	0.53421309
857.697	0.53373911
857.874	0.53323728
858.05	0.53307062
858.227	0.53287778
858.404	0.53285212
858.58	0.53294828
858.757	0.53283445
858.933	0.53299891
859.11	0.53305556
859.287	0.53271915
859.463	0.53245902
859.64	0.53237917
859.816	0.53200114
859.993	0.53196308
860.169	0.53219744
860.345	0.53222591
860.522	0.53253068
860.698	0.53281923
860.875	0.53265591
861.051	0.53297207
861.227	0.5327869
861.404	0.53266622
861.58	0.53274602
861.756	0.53253295
861.932	0.53248829
862.109	0.53230932
862.285	0.53208654
862.461	0.53237946
862.637	0.53208043
862.813	0.53173396
862.99	0.53153221
863.166	0.53105882
863.342	0.53124097
863.518	0.530712
863.694	0.5302633
863.87	0.52974763
864.046	0.52944205
864.222	0.52916815
864.398	0.52903856
864.574	0.52841645
864.75	0.52842687
864.926	0.5282806
865.102	0.52843289
865.278	0.52813486
865.454	0.52797393
865.63	0.52782476
865.805	0.52758717
865.981	0.52762545
866.157	0.52761378
866.333	0.52720182
866.509	0.52732526
866.684	0.52733788
866.86	0.52760364
867.036	0.52773194
867.212	0.52711136
867.387	0.52675553
867.563	0.5267627
867.739	0.52643777
867.914	0.52624066
868.09	0.52561535
868.265	0.52526244
868.441	0.52505081
868.617	0.52483835
868.792	0.52466704
868.968	0.52444287
869.143	0.52440833
869.319	0.5243536
869.494	0.52408628
869.67	0.524108
869.845	0.52395424
870.02	0.52385815
870.196	0.52386483
870.371	0.52364858
870.546	0.52354191
870.722	0.52389291
870.897	0.5237155
871.072	0.52358189
871.248	0.52328485
871.423	0.52297127
871.598	0.52276728
871.773	0.52221079
871.949	0.52164138
872.124	0.52153445
872.299	0.52106739
872.474	0.52066593
872.649	0.52036209
872.824	0.51998978
872.999	0.52014489
873.174	0.52003923
873.349	0.51991854
873.524	0.51995768
873.699	0.51988945
873.874	0.51959908
874.049	0.51934629
874.224	0.51878728
874.399	0.51817828
874.574	0.5178019
874.749	0.51707677
874.924	0.51643871
875.099	0.51596279
875.274	0.51556445
875.449	0.51555621
875.623	0.5152858
875.798	0.51465753
875.973	0.51464097
876.148	0.51438978
876.322	0.51431321
876.497	0.51392661
876.672	0.51340753
876.846	0.51313131
877.021	0.5128598
877.196	0.51195005
877.37	0.51197643
877.545	0.511948
877.72	0.51163827
877.894	0.51140839
878.069	0.51096892
878.243	0.51046624
878.418	0.51068406
878.592	0.51010623
878.767	0.50948429
878.941	0.5094554
879.116	0.50914365
879.29	0.5090895
879.464	0.50901625
879.639	0.50860433
879.813	0.50876741
879.987	0.50858907
880.162	0.50837555
880.336	0.50805176
880.51	0.50797591
880.685	0.50789532
880.859	0.5080082
881.033	0.50756527
881.207	0.50706889
881.381	0.50684395
881.556	0.50656091
881.73	0.50597416
881.904	0.50591146
882.078	0.50536124
882.252	0.50509327
882.426	0.50489724
882.6	0.5042266
882.774	0.50408489
882.948	0.50356875
883.122	0.50280096
883.296	0.50225577
883.47	0.50176731
883.644	0.50155029
883.818	0.50108659
883.992	0.50081893
884.166	0.50107697
884.34	0.50120957
884.514	0.50136223
884.687	0.5012481
884.861	0.50071558
885.035	0.50083631
885.209	0.50025604
885.382	0.4995575
885.556	0.49887204
885.73	0.49843688
885.904	0.49812435
886.077	0.49774233
886.251	0.49715101
886.425	0.49681044
886.598	0.49671289
886.772	0.49630708
886.945	0.49561729
887.119	0.49497757
887.292	0.49483297
887.466	0.49485666
887.64	0.4945132
887.813	0.49396697
887.986	0.49360832
888.16	0.49347301
888.333	0.4930723
888.507	0.49257419
888.68	0.49175148
888.854	0.49153598
889.027	0.49099178
889.2	0.4909566
889.374	0.49056885
889.547	0.49052473
889.72	0.49042875
889.893	0.49009039
890.067	0.4894931
890.24	0.48900663
890.413	0.48841404
890.586	0.48767378
890.759	0.48706175
890.933	0.48648483
891.106	0.48606488
891.279	0.48571759
891.452	0.48550845
891.625	0.48499692
891.798	0.48494791
891.971	0.48476285
892.144	0.48448254
892.317	0.48456067
892.49	0.48427608
892.663	0.48409517
892.836	0.48431052
893.009	0.48411771
893.182	0.48353763
893.355	0.48331916
893.527	0.48286977
893.7	0.48290169
893.873	0.48273499
894.046	0.48184436
894.219	0.48158612
894.391	0.4813387
894.564	0.48103438
894.737	0.48040047
894.91	0.47973322
895.082	0.47893458
895.255	0.47868649
895.428	0.47801744
895.6	0.47723399
895.773	0.47606734
895.945	0.47538717
896.118	0.47479723
896.291	0.47451518
896.463	0.47388236
896.636	0.47331256
896.808	0.47297302
896.981	0.47278597
897.153	0.47231867
897.326	0.47179589
897.498	0.47100131
897.67	0.47047603
897.843	0.4701247
898.015	0.46999242
898.187	0.46977596
898.36	0.46929612
898.532	0.46862925
898.704	0.46853093
898.877	0.46804319
899.049	0.46760047
899.221	0.46701115
899.393	0.4663224
899.566	0.46606218
899.738	0.46597032
899.91	0.4653787
900.082	0.46483724
900.254	0.46415558
900.426	0.46367656
900.598	0.46337707
900.77	0.46261217
900.942	0.46210021
901.114	0.46161335
901.286	0.46140999
901.458	0.46131291
901.63	0.46108347
901.802	0.46098969
901.974	0.46113164
902.146	0.46080124
902.318	0.46057487
902.49	0.46026072
902.662	0.4598117
902.834	0.45928272
903.005	0.45871063
903.177	0.45796639
903.349	0.45759604
903.521	0.45694291
903.693	0.4563289
903.864	0.45563156
904.036	0.4550267
904.208	0.45412251
904.379	0.45358356
904.551	0.45323448
904.723	0.45273457
904.894	0.45196673
905.066	0.45167187
905.237	0.45132186
905.409	0.45093866
905.58	0.45062636
905.752	0.44965835
905.923	0.44917899
906.095	0.44872333
906.266	0.44792883
906.438	0.44725154
906.609	0.44678609
906.78	0.44623729
906.952	0.44596892
907.123	0.44545574
907.295	0.44557597
907.466	0.44553514
907.637	0.44555457
907.808	0.44528349
907.98	0.44482614
908.151	0.44441787
908.322	0.44414015
908.493	0.44329585
908.665	0.44270776
908.836	0.44181377
909.007	0.44141878
909.178	0.44095635
909.349	0.44063562
909.52	0.44039057
909.691	0.4399301
909.862	0.43945231
910.033	0.4388937
910.204	0.43820914
910.375	0.43774391
910.546	0.43705695
910.717	0.43621288
910.888	0.43579128
911.059	0.43524801
911.23	0.43481149
911.401	0.43425888
911.572	0.43361259
911.742	0.43290697
911.913	0.43247094
912.084	0.43167514
912.255	0.43116311
912.426	0.43040489
912.596	0.42968241
912.767	0.42928259
912.938	0.42882733
913.108	0.42812137
913.279	0.42765909
913.45	0.42692396
913.62	0.42671345
913.791	0.42654666
913.962	0.42620041
914.132	0.42564749
914.303	0.42528339
914.473	0.42494061
914.644	0.4245506
914.814	0.42408488
914.985	0.42381783
915.155	0.42331474
915.326	0.42310772
915.496	0.4227519
915.666	0.42232287
915.837	0.42226339
916.007	0.42149102
916.177	0.42045765
916.348	0.41984944
916.518	0.41914442
916.688	0.41834544
916.858	0.41774088
917.029	0.41686436
917.199	0.41662337
917.369	0.41666185
917.539	0.41635453
917.709	0.41604804
917.88	0.41564832
918.05	0.41540981
918.22	0.41519242
918.39	0.41472423
918.56	0.4143503
918.73	0.41409446
918.9	0.41364775
919.07	0.41350924
919.24	0.41314724
919.41	0.41279091
919.58	0.41225338
919.75	0.41180805
919.92	0.41084528
920.09	0.41047679
920.26	0.40979021
920.429	0.40917995
920.599	0.40846652
920.769	0.40778391
920.939	0.40683689
921.109	0.40628771
921.278	0.40542716
921.448	0.40487554
921.618	0.40442779
921.787	0.40388467
921.957	0.40350836
922.127	0.40286028
922.296	0.40277204
922.466	0.40220904
922.636	0.40187522
922.805	0.4010845
922.975	0.40034583
923.144	0.39969859
923.314	0.39910236
923.483	0.39824128
923.653	0.39780256
923.822	0.39713175
923.992	0.39663345
924.161	0.39620155
924.331	0.39590535
924.5	0.39548094
924.669	0.39475944
924.839	0.39435035
925.008	0.39359234
925.177	0.39258347
925.347	0.39195549
925.516	0.39158448
925.685	0.39107626
925.854	0.39078861
926.023	0.39010429
926.193	0.38999168
926.362	0.38966668
926.531	0.38929082
926.7	0.38838377
926.869	0.38812002
927.038	0.3871114
927.207	0.38642695
927.376	0.38537
927.545	0.38490034
927.715	0.38418774
927.884	0.38369947
928.052	0.38315832
928.221	0.38259327
928.39	0.38192339
928.559	0.38151981
928.728	0.38128155
928.897	0.38117451
929.066	0.3809318
929.235	0.38010535
929.404	0.37971914
929.572	0.37930927
929.741	0.3788724
929.91	0.37812791
930.079	0.37705726
930.247	0.37626277
930.416	0.37600003
930.585	0.37564227
930.753	0.37543189
930.922	0.37486743
931.091	0.37450268
931.259	0.37407864
931.428	0.37353359
931.596	0.37275807
931.765	0.37257671
931.934	0.37210997
932.102	0.37125735
932.27	0.37050093
932.439	0.36985078
932.607	0.36915837
932.776	0.36909066
932.944	0.36817519
933.113	0.36747357
933.281	0.36733914
933.449	0.36667204
933.618	0.3657828
933.786	0.36532036
933.954	0.36428974
934.123	0.36373152
934.291	0.36338013
934.459	0.36266736
934.627	0.36245636
934.795	0.36260598
934.964	0.36227371
935.132	0.36145512
935.3	0.36069676
935.468	0.35957319
935.636	0.35903216
935.804	0.35810475
935.972	0.3574046
936.14	0.35678315
936.308	0.35629615
936.476	0.35614086
936.644	0.35610917
936.812	0.35593044
936.98	0.35605475
937.148	0.35539486
937.316	0.35427319
937.484	0.35472822
937.652	0.35369051
937.82	0.3535675
937.987	0.35248688
938.155	0.35109207
938.323	0.35061756
938.491	0.34944824
938.658	0.34907116
938.826	0.3490125
938.994	0.34757151
939.162	0.34765804
939.329	0.3479663
939.497	0.34826913
939.665	0.34909602
939.832	0.3490216
940	0.34902579
940.167	0.34925046
940.335	0.34857255
940.502	0.34705722
940.67	0.34654547
940.837	0.34746513
941.005	0.34555719
941.172	0.34437547
941.34	0.34343537
941.507	0.34447619
941.674	0.34599028
941.842	0.3456989
942.009	0.34560763
942.177	0.34400005
942.344	0.34606262
942.511	0.34580888
942.678	0.34505458
942.846	0.34278993
943.013	0.34132155
943.18	0.33909085
943.347	0.34002571
943.514	0.33755058
943.682	0.33925854
943.849	0.33677384
944.016	0.33601949
944.183	0.33611212
944.35	0.33660143
944.517	0.33689933
944.684	0.33755838
944.851	0.33171956
945.018	0.33088971
945.185	0.33083583
945.352	0.32920395
945.519	0.32777105
945.686	0.32570401
945.853	0.32648094
946.02	0.32746685
946.187	0.32685286
946.353	0.32862168
946.52	0.3287856
946.687	0.32819282
946.854	0.32883681
947.021	0.32632995
947.187	0.32635724
947.354	0.32558618
947.521	0.32355808
947.687	0.32155963
947.854	0.32143898
948.021	0.31931374
948.187	0.31892671
948.354	0.31859305
948.52	0.3178472
948.687	0.31792473
948.854	0.31910429
949.02	0.31669732
949.187	0.31793156
949.353	0.31697255
949.52	0.31527588
949.686	0.31523321
949.852	0.31511464
950.019	0.31497724
950.185	0.3157857
950.352	0.31353911
950.518	0.31167746
950.684	0.31205175
950.851	0.31160818
951.017	0.30915516
951.183	0.30817581
951.349	0.30739506
951.516	0.30511221
951.682	0.30554928
951.848	0.30474955
952.014	0.30347514
952.18	0.30381103
952.346	0.30253869
952.512	0.30165964
952.679	0.30326906
952.845	0.30287678
953.011	0.30206228
953.177	0.3019333
953.343	0.30018418
953.509	0.30078762
953.675	0.30084624
953.841	0.29948287
954.007	0.29947469
954.172	0.3003215
954.338	0.29920217
954.504	0.29898912
954.67	0.29620573
954.836	0.29531381
955.002	0.29505524
955.167	0.2937566
955.333	0.29109109
955.499	0.29063078
955.665	0.28911521
955.83	0.28993217
955.996	0.28935849
956.162	0.28830575
956.327	0.2874644
956.493	0.28749599
956.659	0.28786165
956.824	0.28771497
956.99	0.28605245
957.155	0.28576582
957.321	0.28578283
957.486	0.28542003
957.652	0.28480653
957.817	0.28375727
957.983	0.2833226
958.148	0.2833952
958.314	0.28242738
958.479	0.28080054
958.644	0.28049449
958.81	0.2805458
958.975	0.28073006
959.14	0.28067006
959.306	0.2799291
959.471	0.27920156
959.636	0.27861038
959.801	0.27908669
959.967	0.27832893
960.132	0.27767907
960.297	0.2772202
960.462	0.27764412
960.627	0.27744027
960.792	0.27738172
960.957	0.27632435
961.123	0.27648369
961.288	0.27565901
961.453	0.2756152
961.618	0.27493633
961.783	0.2749291
961.948	0.27478227
962.113	0.27368719
962.277	0.27272484
962.442	0.2721948
962.607	0.27116809
962.772	0.2704139
962.937	0.26946474
963.102	0.26924513
963.267	0.26888051
963.431	0.26831041
963.596	0.26756079
963.761	0.26677644
963.926	0.26634494
964.09	0.26591453
964.255	0.26555341
964.42	0.26532373
964.584	0.26521162
964.749	0.26469668
964.914	0.26425726
965.078	0.26351268
965.243	0.26266228
965.407	0.2616848
965.572	0.26071094
965.736	0.2599675
965.901	0.2601907
966.065	0.26069179
966.23	0.26013537
966.394	0.26047555
966.559	0.26010006
966.723	0.26019755
966.887	0.25943693
967.052	0.25854537
967.216	0.25720992
967.38	0.25617786
967.545	0.2553339
967.709	0.25532314
967.873	0.25491405
968.037	0.25469062
968.202	0.25434466
968.366	0.25436987
968.53	0.25451503
968.694	0.25404147
968.858	0.25328603
969.022	0.25222688
969.187	0.25167592
969.351	0.25094237
969.515	0.2505106
969.679	0.24977199
969.843	0.24932185
970.007	0.24870005
970.171	0.24898967
970.335	0.24896406
970.499	0.24887969
970.662	0.24834277
970.826	0.24836156
970.99	0.24810322
971.154	0.24767687
971.318	0.24679589
971.482	0.24533747
971.645	0.24485981
971.809	0.24473011
971.973	0.24429849
972.137	0.24316742
972.3	0.24297424
972.464	0.24267216
972.628	0.24333478
972.791	0.2429444
972.955	0.24212856
973.119	0.24119474
973.282	0.24113997
973.446	0.24054892
973.609	0.24014932
973.773	0.23951181
973.936	0.23899711
974.1	0.2386278
974.263	0.23897645
974.427	0.23872362
974.59	0.23826386
974.754	0.2376269
974.917	0.23662318
975.08	0.23626573
975.244	0.2354894
975.407	0.23447187
975.57	0.23395224
975.734	0.23355032
975.897	0.23327899
976.06	0.23333432
976.223	0.2327265
976.387	0.23277033
976.55	0.23262926
976.713	0.23214453
976.876	0.23179641
977.039	0.23077142
977.202	0.22994282
977.365	0.22932847
977.528	0.22871194
977.692	0.22809541
977.855	0.22702638
978.018	0.22600036
978.181	0.22571396
978.344	0.22550352
978.506	0.22473831
978.669	0.22413918
978.832	0.22342271
978.995	0.22300861
979.158	0.22292091
979.321	0.22235268
979.484	0.22136563
979.646	0.22103679
979.809	0.22074999
979.972	0.22028029
980.135	0.22038062
980.297	0.22009078
980.46	0.2198519
980.623	0.22014393
980.786	0.22023313
980.948	0.21965444
981.111	0.21941233
981.273	0.21867591
981.436	0.21786677
981.599	0.21790789
981.761	0.21675152
981.924	0.2165472
982.086	0.21682066
982.249	0.21635244
982.411	0.2162765
982.573	0.21615674
982.736	0.21649895
982.898	0.21669318
983.061	0.21617549
983.223	0.21558009
983.385	0.21569972
983.548	0.21578832
983.71	0.21584803
983.872	0.21476062
984.034	0.2142184
984.197	0.21313333
984.359	0.21279319
984.521	0.21290285
984.683	0.21252879
984.845	0.21238017
985.008	0.21151327
985.17	0.21189814
985.332	0.21219352
985.494	0.21140202
985.656	0.21076824
985.818	0.21005538
985.98	0.20972912
986.142	0.2090961
986.304	0.20836283
986.466	0.20768157
986.628	0.20733981
986.79	0.20640434
986.952	0.20515504
987.113	0.20396439
987.275	0.2033062
987.437	0.20252201
987.599	0.2020612
987.761	0.20179035
987.922	0.20105607
988.084	0.20162621
988.246	0.20152567
988.408	0.20192306
988.569	0.20209318
988.731	0.20230782
988.893	0.2020104
989.054	0.20256153
989.216	0.2019963
989.377	0.20102533
989.539	0.20059652
989.701	0.19934837
989.862	0.1980937
990.024	0.19686109
990.185	0.19589516
990.347	0.19606361
990.508	0.195937
990.669	0.19539341
990.831	0.19572854
990.992	0.19609318
991.154	0.1957062
991.315	0.19607432
991.476	0.19496889
991.638	0.19487248
991.799	0.19461763
991.96	0.19419898
992.121	0.19393773
992.283	0.19384191
992.444	0.19302767
992.605	0.19230994
992.766	0.19177731
992.927	0.19092809
993.088	0.19018373
993.249	0.18916148
993.41	0.18883839
993.572	0.18852244
993.733	0.1888723
993.894	0.18821066
994.055	0.18741987
994.216	0.18714349
994.376	0.18590139
994.537	0.18619177
994.698	0.18547173
994.859	0.18450053
995.02	0.18458078
995.181	0.18386483
995.342	0.18357914
995.503	0.18408808
995.663	0.18346178
995.824	0.1832343
995.985	0.18459421
996.146	0.18440817
996.306	0.18506534
996.467	0.1849021
996.628	0.18489176
996.788	0.1847095
996.949	0.18520579
997.11	0.18360307
997.27	0.18240922
997.431	0.18204325
997.591	0.18113452
997.752	0.18024486
997.912	0.18048131
998.073	0.17942334
998.233	0.1795272
998.394	0.18025903
998.554	0.18070741
998.714	0.18133646
998.875	0.18155884
999.035	0.18013121
999.196	0.18064794
999.356	0.17990855
999.516	0.17929943
999.676	0.17906903
999.837	0.17856679
999.997	0.17795076
1000.157	0.17755001
1000.317	0.17525623
1000.477	0.17455778
1000.638	0.17374755
1000.798	0.1733344
1000.958	0.17295598
1001.118	0.17235108
1001.278	0.17174807
1001.438	0.17200004
1001.598	0.17194414
1001.758	0.17207862
1001.918	0.17103709
1002.078	0.16986984
1002.238	0.17026852
1002.398	0.17080098
1002.558	0.17076779
1002.718	0.17025981
1002.878	0.17027678
1003.037	0.16879662
1003.197	0.16899093
1003.357	0.16789232
1003.517	0.16813212
1003.677	0.16642924
1003.836	0.16602014
1003.996	0.16467313
1004.156	0.16568443
1004.315	0.1655819
1004.475	0.16585243
1004.635	0.16461171
1004.794	0.16639441
1004.954	0.16621336
1005.114	0.1663526
1005.273	0.16587756
1005.433	0.16458642
1005.592	0.16433779
1005.752	0.16451034
1005.911	0.16365641
1006.071	0.16334867
1006.23	0.16206406
1006.389	0.16164209
1006.549	0.16168241
1006.708	0.16100966
1006.868	0.15902164
1007.027	0.15868241
1007.186	0.15881264
1007.345	0.16041416
1007.505	0.16115658
1007.664	0.160813
1007.823	0.1605864
1007.982	0.16124467
1008.142	0.1615704
1008.301	0.16114736
1008.46	0.15961429
1008.619	0.15799649
1008.778	0.1582252
1008.937	0.15778031
1009.096	0.15740638
1009.255	0.15700031
1009.414	0.15496401
1009.573	0.15569555
1009.732	0.15712886
1009.891	0.15571417
1010.05	0.15617499
1010.209	0.155647
1010.368	0.1550745
1010.527	0.15599774
1010.686	0.15517356
1010.845	0.15310704
1011.003	0.15382776
1011.162	0.1530562
1011.321	0.1517549
1011.48	0.15149841
1011.638	0.15161242
1011.797	0.15153767
1011.956	0.15067073
1012.115	0.15087043
1012.273	0.14989983
1012.432	0.15142546
1012.59	0.14902146
1012.749	0.14801041
1012.908	0.14672103
1013.066	0.14771193
1013.225	0.14636544
1013.383	0.14749095
1013.542	0.14687028
1013.7	0.14802149
1013.859	0.15001814
1014.017	0.15116997
1014.175	0.14972441
1014.334	0.15121924
1014.492	0.15117119
1014.65	0.15160141
1014.809	0.15292103
1014.967	0.15178444
1015.125	0.15152523
1015.284	0.15329101
1015.442	0.15247458
1015.6	0.15213813
1015.758	0.15116203
1015.916	0.1490958
1016.075	0.14796733
1016.233	0.14809964
1016.391	0.14824974
1016.549	0.14778804
1016.707	0.14678706
1016.865	0.14735703
1017.023	0.1475778
1017.181	0.14759183
1017.339	0.14680143
1017.497	0.1460631
1017.655	0.14516634
1017.813	0.14543102
1017.971	0.14537868
1018.129	0.14453529
1018.286	0.14603173
1018.444	0.14395129
1018.602	0.14445015
1018.76	0.14492787
1018.918	0.14391443
1019.075	0.14384628
1019.233	0.14506863
1019.391	0.14398616
1019.549	0.14606183
1019.706	0.14614133
1019.864	0.14687053
1020.022	0.1474426
1020.179	0.14724221
1020.337	0.14640744
1020.494	0.14554508
1020.652	0.14536891
1020.809	0.14446626
1020.967	0.1437963
1021.124	0.14340011
1021.282	0.14630665
1021.439	0.14654022
1021.597	0.14911825
1021.754	0.14748451
1021.911	0.14729692
1022.069	0.14673261
1022.226	0.14711828
1022.384	0.14117582
1022.541	0.14107218
1022.698	0.13786754
1022.855	0.13927069
1023.013	0.13880857
1023.17	0.13803449
1023.327	0.13872078
1023.484	0.14218579
1023.641	0.1426381
1023.798	0.14709973
1023.956	0.14739708
1024.113	0.14641355
1024.27	0.14797906
1024.427	0.14680086
1024.584	0.14634939
1024.741	0.14499118
1024.898	0.14123898
1025.055	0.13954116
1025.212	0.13849964
1025.369	0.13492207
1025.525	0.13439245
1025.682	0.13388481
1025.839	0.13521612
1025.996	0.13619307
1026.153	0.13824626
1026.31	0.14109084
1026.466	0.14473257
1026.623	0.14960721
1026.78	0.1491532
1026.937	0.14801132
1027.093	0.14731517
1027.25	0.14908269
1027.407	0.14929448
1027.563	0.14797818
1027.72	0.14333923
1027.876	0.14431217
1028.033	0.1472354
1028.19	0.14516579
1028.346	0.14069328
1028.503	0.13974932
1028.659	0.14136906
1028.816	0.14200998
1028.972	0.14360205
1029.128	0.14397536
1029.285	0.14647119
1029.441	0.14799007
1029.598	0.14603134
1029.754	0.14641824
1029.91	0.14892504
1030.067	0.14527734
1030.223	0.14319306
1030.379	0.14310962
1030.535	0.14464712
1030.691	0.14731474
1030.848	0.14685827
1031.004	0.14284867
1031.16	0.14565381
1031.316	0.15006741
1031.472	0.15086269
1031.628	0.14594862
1031.784	0.14584304
1031.94	0.14886288
1032.096	0.15154243
1032.252	0.15019682
1032.408	0.15064567
1032.564	0.15100986
1032.72	0.15496188
1032.876	0.15217174
1033.032	0.14828379
1033.188	0.14777214
1033.344	0.15349743
1033.5	0.15437596
1033.655	0.15416798
1033.811	0.15713349
1033.967	0.16579392
